 Timestamp, EXG Channel 0, EXG Channel 1, EXG Channel 2, EXG Channel 3
 1.70759553319796E9, -356.63685977458954, -618.2503414750099, -2016.0753489136696, -224.27432054281235
 1.70759553319796E9, 0.0, 0.0, 0.0, 0.0
 1.7075955332445445E9, -318.3402842283249, -614.8993911147118, -2071.126676261425, -209.4343975186348
 1.7075955332445445E9, -347.30206948518753, -614.1813303232193, -2016.3147025108337, -226.6678565144539
 1.7075955332591348E9, -343.2330583333969, -644.5792371630669, -2068.4937866926193, -239.35359716415405
 1.7075955332591348E9, -316.90416264533997, -627.3457781672478, -2089.3175496459007, -222.12013816833496
 1.7075955332736974E9, -336.5311576128006, -601.4955896735191, -2029.9578575491905, -221.8807845711708
 1.7075955332736974E9, -345.62659430503845, -630.6967285275459, -2049.8242061138153, -243.90131551027298
 1.7075955332743726E9, -330.7866712808609, -640.9889332056046, -2099.370400726795, -231.93363565206528
 1.7075955332743726E9, -328.39313530921936, -608.9155511856079, -2053.4145100712776, -220.68401658535004
 1.7075955332879064E9, -350.41366624832153, -622.0799990296364, -2032.5907471179962, -241.26842594146729
 1.7075955332879064E9, -324.80283135175705, -641.706993997097, -2085.9665992856026, -234.80587881803513
 1.707595533304098E9, -315.2286874651909, -620.1651702523232, -2068.254433095455, -213.0247014760971
 1.707595533304098E9, -351.84978783130646, -611.3090871572495, -2017.7508240938187, -226.90721011161804
 1.7075955333189044E9, -340.1214615702629, -638.3560436367989, -2059.3983500003815, -227.38591730594635
 1.7075955333189044E9, -320.2551130056381, -617.2929270863533, -2066.339604318142, -196.74865686893463
 1.707595533319411E9, -322.8880025744438, -584.2621306777, -2009.3734481930733, -199.38154643774033
 1.707595533319411E9, -333.18020725250244, -618.4896950721741, -2023.4953104257584, -222.35949176549911
 1.707595533333663E9, -315.46804106235504, -632.6115573048592, -2076.8711625933647, -205.12603276968002
 1.707595533333663E9, -320.2551130056381, -602.2136504650116, -2032.351393520832, -193.39770650863647
 1.7075955333344543E9, -338.44598639011383, -604.367832839489, -2013.681812942028, -219.48724859952927
 1.7075955333344543E9, -319.7764058113098, -634.7657396793365, -2063.228007555008, -214.70017665624619
 1.7075955333482993E9, -310.4416155219078, -607.479429602623, -2047.909377336502, -194.8338280916214
 1.7075955333482993E9, -337.0098648071289, -598.8627001047134, -2006.5012050271034, -214.70017665624619
 1.7075955333640232E9, -332.70150005817413, -640.0315188169479, -2059.3983500003815, -230.01880687475204
 1.7075955333640232E9, -311.3990299105644, -616.5748662948608, -2081.1795273423195, -211.82793349027634
 1.7075955333644967E9, -336.77051120996475, -609.8729655742645, -2032.112039923668, -221.16272377967834
 1.7075955333644967E9, -351.84978783130646, -638.8347508311272, -2048.8667917251587, -242.7045475244522
 1.7075955333782487E9, -331.7440856695175, -658.4617457985878, -2107.5084230303764, -234.56652522087097
 1.7075955333782487E9, -325.76024574041367, -610.3516727685928, -2056.2867532372475, -224.9923813343048
 1.7075955334102075E9, -344.908533513546, -625.4309493899345, -2041.9255374073982, -245.09808349609375
 1.7075955334102075E9, -324.32412415742874, -643.8611763715744, -2088.5994888544083, -233.60911083221436
 1.707595533410884E9, -319.53705221414566, -609.3942583799362, -2074.477626621723, -217.09371262788773
 1.707595533410884E9, -345.14788711071014, -610.1123191714287, -2028.0430287718773, -236.0026468038559
 1.7075955334115844E9, -334.13762164115906, -641.4676403999329, -2069.9299082756042, -247.25226587057114
 1.7075955334115844E9, -317.3828698396683, -633.8083252906799, -2083.812416911125, -214.46082305908203
 1.707595533412364E9, -334.8556824326515, -609.8729655742645, -2036.899111866951, -228.58268529176712
 1.707595533412364E9, -341.55758315324783, -633.0902644991875, -2053.893217265606, -250.84256982803345
 1.7075955334229383E9, -320.01575940847397, -646.0153587460518, -2100.327815115452, -228.58268529176712
 1.7075955334229383E9, -336.5311576128006, -618.7290486693382, -2053.6538636684418, -217.57241982221603
 1.7075955334546592E9, -361.6632853150368, -634.7657396793365, -2034.2662222981453, -236.72070759534836
 1.7075955334546592E9, -338.92469358444214, -651.2811378836632, -2088.8388424515724, -230.01880687475204
 1.7075955334551327E9, -323.84541696310043, -621.1225846409798, -2074.238273024559, -216.1362982392311
 1.7075955334551327E9, -347.78077667951584, -613.702623128891, -2021.341128051281, -231.45492845773697
 1.7075955334558535E9, -347.78077667951584, -646.9727731347084, -2066.100250720978, -234.80587881803513
 1.7075955334558535E9, -320.9731737971306, -629.260606944561, -2086.445306479931, -218.7691878080368
 1.7075955334682913E9, -332.9408536553383, -601.7349432706833, -2027.8036751747131, -217.57241982221603
 1.7075955334682913E9, -345.14788711071014, -635.2444468736649, -2044.558426976204, -236.9600611925125
 1.7075955335002224E9, -314.5106266736984, -629.7393141388893, -2098.6523399353027, -230.7368676662445
 1.7075955335002224E9, -328.39313530921936, -617.2929270863533, -2046.7126093506813, -214.46082305908203
 1.7075955335012856E9, -354.00397020578384, -625.1915957927704, -2029.000443160534, -231.93363565206528
 1.7075955335012856E9, -329.8292568922043, -640.9889332056046, -2087.881428062916, -233.8484644293785
 1.7075955335015635E9, -314.5106266736984, -614.8993911147118, -2071.8447370529175, -209.4343975186348
 1.7075955335015635E9, -337.4885720014572, -605.5646008253098, -2025.1707856059074, -230.01880687475204
 1.707595533502421E9, -333.18020725250244, -641.9463475942612, -2070.887322664261, -244.61937630176544
 1.707595533502421E9, -311.87773710489273, -623.5161206126213, -2091.9504392147064, -223.79561334848404
 1.7075955335131443E9, -327.43572092056274, -596.708517730236, -2032.112039923668, -226.18914932012558
 1.7075955335131443E9, -338.92469358444214, -630.6967285275459, -2039.5320014357567, -238.6355363726616
 1.70759553352806E9, -310.9203227162361, -635.0050932765007, -2094.8226823806763, -227.6252709031105
 1.70759553352806E9, -322.16994178295135, -605.5646008253098, -2054.13257086277, -223.79561334848404
 1.7075955335437255E9, -342.7543511390686, -623.037413418293, -2039.0532942414284, -245.8161442875862
 1.7075955335437255E9, -331.98343926668167, -642.9037619829178, -2088.5994888544083, -234.56652522087097
 1.7075955335443962E9, -312.83515149354935, -609.1549047827721, -2068.4937866926193, -212.5459942817688
 1.7075955335443962E9, -328.87184250354767, -599.82011449337, -2016.554056107998, -226.42850291728973
 1.707595533558005E9, -325.9995993375778, -629.0212533473969, -2062.7493003606796, -234.32717162370682
 1.707595533558005E9, -313.0745050907135, -619.2077558636665, -2079.2646985650063, -206.56215435266495
 1.7075955335736535E9, -337.9672791957855, -603.4104184508324, -2024.452724814415, -212.78534787893295
 1.7075955335736535E9, -351.6104342341423, -633.5689716935158, -2036.4204046726227, -230.97622126340866
 1.7075955335743477E9, -319.2976986169815, -630.6967285275459, -2079.7434057593346, -212.0672870874405
 1.7075955335743477E9, -308.7661403417587, -590.485324203968, -2036.6597582697868, -196.50930327177048
 1.7075955335881631E9, -335.0950360298157, -608.1974903941154, -2017.5114704966545, -220.44466298818588
 1.7075955335881631E9, -319.2976986169815, -622.3193526268005, -2068.4937866926193, -221.4020773768425
 1.7075955336039035E9, -303.97906839847565, -595.7511033415794, -2057.00481402874, -195.3125352859497
 1.7075955336039035E9, -337.24921840429306, -600.0594680905342, -2019.665652871132, -219.48724859952927
 1.707595533604538E9, -341.0788759589195, -640.5102260112762, -2062.031239569187, -233.13040363788605
 1.707595533604538E9, -323.3667097687721, -635.9625076651573, -2086.924013674259, -219.2478950023651
 1.7075955336183677E9, -324.32412415742874, -601.9742968678474, -2028.0430287718773, -219.2478950023651
 1.7075955336183677E9, -342.2756439447403, -631.8934965133667, -2046.9519629478455, -246.53420507907867
 1.707595533633669E9, -319.2976986169815, -633.8083252906799, -2100.327815115452, -232.41234284639359
 1.707595533633669E9, -316.90416264533997, -601.9742968678474, -2054.13257086277, -217.57241982221603
 1.707595533634321E9, -348.25948387384415, -615.3780983090401, -2034.9842830896378, -239.83230435848236
 1.707595533634321E9, -327.91442811489105, -634.5263860821724, -2082.136941730976, -234.56652522087097
 1.7075955336485603E9, -311.15967631340027, -616.5748662948608, -2072.56279784441, -215.89694464206696
 1.7075955336485603E9, -332.70150005817413, -614.1813303232193, -2017.9901776909828, -222.12013816833496
 1.7075955336639915E9, -341.796936750412, -646.9727731347084, -2067.0576651096344, -237.43876838684082
 1.7075955336639915E9, -316.90416264533997, -623.2767670154572, -2088.360135257244, -217.57241982221603
 1.7075955336645432E9, -325.0421849489212, -601.0168824791908, -2031.3939791321754, -220.20530939102173
 1.7075955336645432E9, -332.70150005817413, -622.7980598211288, -2046.4732557535172, -239.35359716415405
 1.7075955336783943E9, -309.9629083275795, -630.2180213332176, -2093.147207200527, -221.16272377967834
 1.7075955336783943E9, -316.42545545101166, -609.6336119771004, -2047.1913165450096, -208.47698312997818
 1.7075955336938372E9, -348.25948387384415, -619.6864630579948, -2028.5217359662056, -227.86462450027466
 1.7075955336938372E9, -331.98343926668167, -633.0902644991875, -2074.9563338160515, -220.9233701825142
 1.7075955336947663E9, -309.4842011332512, -607.9581367969513, -2056.5261068344116, -198.18477845191956
 1.7075955336947663E9, -337.72792559862137, -602.9317112565041, -2012.2456913590431, -213.98211586475372
 1.7075955337082658E9, -329.8292568922043, -629.260606944561, -2053.1751564741135, -227.86462450027466
 1.7075955337082658E9, -313.5532122850418, -625.9096565842628, -2074.238273024559, -202.01443600654602
 1.7075955337238708E9, -333.18020725250244, -597.9052857160568, -2022.777249634266, -204.40797197818756
 1.7075955337238708E9, -340.1214615702629, -622.3193526268005, -2035.7023438811302, -226.6678565144539
 1.707595533724414E9, -315.46804106235504, -635.9625076651573, -2090.7536712288857, -223.55625975131989
 1.707595533724414E9, -313.79256588220596, -600.5381752848625, -2050.3029133081436, -208.71633672714233
 1.7075955337380452E9, -338.685339987278, -625.1915957927704, -2027.564321577549, -239.83230435848236
 1.7075955337380452E9, -340.36081516742706, -650.0843698978424, -2092.4291464090347, -244.3800227046013
 1.7075955337536724E9, -318.10093063116074, -616.5748662948608, -2073.2808586359024, -214.70017665624619
 1.7075955337536724E9, -339.6427543759346, -601.7349432706833, -2025.1707856059074, -233.60911083221436
 1.7075955337543688E9, -337.4885720014572, -645.0579443573952, -2065.142836332321, -241.02907234430313
 1.7075955337543688E9, -310.9203227162361, -622.7980598211288, -2081.1795273423195, -209.9131047129631
 1.707595533768192E9, -334.13762164115906, -607.7187831997871, -2029.000443160534, -215.89694464206696
 1.707595533768192E9, -343.9511191248894, -625.1915957927704, -2044.3190733790398, -241.02907234430313
 1.7075955337838783E9, -320.73382019996643, -634.5263860821724, -2087.881428062916, -223.31690615415573
 1.7075955337838783E9, -316.1861018538475, -605.0858936309814, -2045.9945485591888, -210.15245831012726
 1.707595533784372E9, -342.03629034757614, -621.6012918353081, -2030.9152719378471, -236.4813539981842
 1.707595533784372E9, -335.81309682130814, -652.2385522723198, -2092.907853603363, -239.83230435848236
 1.7075955337984543E9, -321.21252739429474, -616.0961591005325, -2072.802151441574, -212.0672870874405
 1.7075955337984543E9, -343.7117655277252, -608.4368439912796, -2020.8624208569527, -218.7691878080368
 1.7075955338139243E9, -345.14788711071014, -642.1857011914253, -2058.680289208889, -228.82203888893127
 1.7075955338139243E9, -312.5957978963852, -620.1651702523232, -2081.658234536648, -209.4343975186348
 1.707595533814468E9, -330.06861048936844, -607.479429602623, -2022.5378960371017, -206.8015079498291
 1.707595533814468E9, -345.62659430503845, -640.7495796084404, -2047.909377336502, -241.7471331357956
 1.7075955338279707E9, -326.238952934742, -646.2547123432159, -2089.796256840229, -223.31690615415573
 1.7075955338279707E9, -320.4944666028023, -611.5484407544136, -2047.670023739338, -212.78534787893295
 1.707595533843682E9, -340.6001687645912, -616.0961591005325, -2025.8888463974, -236.72070759534836
 1.707595533843682E9, -325.28153854608536, -643.6218227744102, -2086.445306479931, -237.43876838684082
 1.7075955338443413E9, -314.98933386802673, -614.8993911147118, -2067.5363723039627, -206.56215435266495
 1.7075955338443413E9, -329.58990329504013, -605.8039544224739, -2020.1443600654602, -225.47108852863312
 1.7075955338582056E9, -344.66917991638184, -649.1269555091858, -2070.1692618727684, -249.64580184221268
 1.7075955338582056E9, -320.01575940847397, -631.6541429162025, -2084.5304777026176, -222.83819895982742
 1.7075955338737152E9, -332.70150005817413, -612.5058551430702, -2029.4791503548622, -220.68401658535004
 1.7075955338737152E9, -345.3872407078743, -630.2180213332176, -2045.9945485591888, -237.67812198400497
 1.707595533874302E9, -313.31385868787766, -630.9360821247101, -2081.1795273423195, -213.98211586475372
 1.707595533874302E9, -320.2551130056381, -601.0168824791908, -2044.3190733790398, -207.2802151441574
 1.707595533888301E9, -335.81309682130814, -611.7877943515778, -2023.01660323143, -236.0026468038559
 1.707595533888301E9, -339.40340077877045, -647.2121267318726, -2079.2646985650063, -233.60911083221436
 1.707595533903978E9, -313.5532122850418, -615.1387447118759, -2064.4247755408287, -209.19504392147064
 1.707595533903978E9, -341.3182295560837, -607.9581367969513, -2024.2133712172508, -226.42850291728973
 1.7075955339043908E9, -345.8659479022026, -640.7495796084404, -2061.552532374859, -235.28458601236343
 1.7075955339043908E9, -317.8615770339966, -627.8244853615761, -2075.674394607544, -213.0247014760971
 1.707595533918385E9, -342.2756439447403, -618.2503414750099, -2031.1546255350113, -216.37565183639526
 1.707595533918385E9, -350.89237344264984, -640.0315188169479, -2037.3778190612793, -236.72070759534836
 1.7075955339336262E9, -325.0421849489212, -643.8611763715744, -2088.5994888544083, -218.2904806137085
 1.7075955339336262E9, -315.2286874651909, -596.4691641330719, -2044.797780573368, -208.9556903243065
 1.7075955339343634E9, -347.78077667951584, -623.2767670154572, -2020.1443600654602, -222.59884536266327
 1.7075955339343634E9, -332.70150005817413, -646.0153587460518, -2076.1531018018723, -224.0349669456482
 1.70759553396442E9, -314.98933386802673, -615.8568055033684, -2065.142836332321, -209.67375111579895
 1.70759553396442E9, -340.1214615702629, -607.7187831997871, -2013.2031057476997, -217.8117734193802
 1.7075955339649231E9, -342.2756439447403, -644.3398835659027, -2060.116410791874, -236.24200040102005
 1.7075955339649231E9, -319.2976986169815, -629.4999605417252, -2096.4981575608253, -224.5136741399765
 1.707595533978849E9, -333.65891444683075, -607.7187831997871, -2042.6435981988907, -225.47108852863312
 1.707595533978849E9, -355.2007381916046, -647.2121267318726, -2047.4306701421738, -242.7045475244522
 1.7075955339796548E9, -329.1111961007118, -643.6218227744102, -2092.907853603363, -223.79561334848404
 1.7075955339796548E9, -334.8556824326515, -619.2077558636665, -2053.4145100712776, -217.09371262788773
 1.7075955340100293E9, -353.52526301145554, -627.1064245700836, -2036.6597582697868, -248.4490338563919
 1.7075955340100293E9, -337.9672791957855, -651.2811378836632, -2088.5994888544083, -237.43876838684082
 1.707595534010714E9, -323.12735617160797, -621.6012918353081, -2071.126676261425, -213.98211586475372
 1.707595534010714E9, -335.81309682130814, -604.367832839489, -2025.4101392030716, -224.75302773714066
 1.707595534011468E9, -347.5414230823517, -647.6908339262009, -2065.8608971238136, -243.18325471878052
 1.707595534011468E9, -324.5634777545929, -632.372203707695, -2088.360135257244, -215.1788838505745
 1.7075955340122175E9, -328.87184250354767, -602.2136504650116, -2033.3088079094887, -217.8117734193802
 1.7075955340122175E9, -341.3182295560837, -621.1225846409798, -2038.0958798527718, -233.13040363788605
 1.7075955340236433E9, -318.8189914226532, -632.372203707695, -2085.9665992856026, -225.94979572296143
 1.7075955340236433E9, -314.0319194793701, -597.1872249245644, -2043.122305393219, -207.04086154699326
 1.7075955340383012E9, -338.92469358444214, -620.4045238494873, -2019.1869456768036, -225.23173493146896
 1.7075955340383012E9, -331.02602487802505, -648.4088947176933, -2076.6318089962006, -225.71044212579727
 1.7075955340536406E9, -309.72355473041534, -613.9419767260551, -2058.919642806053, -207.75892233848572
 1.7075955340536406E9, -334.13762164115906, -596.4691641330719, -2016.3147025108337, -224.0349669456482
 1.7075955340544841E9, -339.40340077877045, -639.3134580254555, -2062.988653957844, -238.87488996982574
 1.7075955340544841E9, -305.1758363842964, -623.9948278069496, -2083.0943561196327, -219.48724859952927
 1.7075955340679808E9, -324.80283135175705, -600.0594680905342, -2029.7185039520264, -216.37565183639526
 1.7075955340679808E9, -347.78077667951584, -635.483800470829, -2043.122305393219, -239.35359716415405
 1.707595534083624E9, -325.9995993375778, -645.7760051488876, -2086.924013674259, -227.86462450027466
 1.707595534083624E9, -316.90416264533997, -604.1284792423248, -2046.9519629478455, -206.8015079498291
 1.707595534084439E9, -337.4885720014572, -608.4368439912796, -2029.000443160534, -235.28458601236343
 1.707595534084439E9, -325.9995993375778, -639.5528116226196, -2078.0679305791855, -235.76329320669174
 1.7075955340984821E9, -316.90416264533997, -624.4735350012779, -2067.0576651096344, -212.0672870874405
 1.7075955340984821E9, -342.2756439447403, -606.7613688111305, -2017.9901776909828, -221.4020773768425
 1.7075955341138492E9, -333.8982680439949, -641.9463475942612, -2063.7067147493362, -241.7471331357956
 1.7075955341138492E9, -323.6060633659363, -630.6967285275459, -2091.471732020378, -219.2478950023651
 1.7075955341143484E9, -335.81309682130814, -606.0433080196381, -2027.3249679803848, -215.89694464206696
 1.7075955341143484E9, -349.9349590539932, -637.6379828453064, -2054.8506316542625, -252.27869141101837
 1.7075955341279495E9, -330.7866712808609, -645.0579443573952, -2105.8329478502274, -242.2258403301239
 1.7075955341279495E9, -326.238952934742, -615.8568055033684, -2059.3983500003815, -219.96595579385757
 1.707595534143672E9, -357.354920566082, -636.2018612623215, -2032.351393520832, -237.43876838684082
 1.707595534143672E9, -345.14788711071014, -651.2811378836632, -2085.9665992856026, -243.42260831594467
 1.7075955341443865E9, -320.9731737971306, -622.7980598211288, -2077.8285769820213, -222.83819895982742
 1.7075955341443865E9, -346.8233622908592, -613.9419767260551, -2030.9152719378471, -232.17298924922943
 1.707595534157976E9, -346.10530149936676, -656.0682098269463, -2065.142836332321, -239.5929507613182
 1.707595534157976E9, -321.21252739429474, -634.5263860821724, -2090.7536712288857, -217.57241982221603
 1.7075955341735876E9, -332.2227928638458, -603.6497720479965, -2040.2500622272491, -221.16272377967834
 1.7075955341735876E9, -358.3123349547386, -646.7334195375443, -2055.329338848591, -243.66196191310883
 1.7075955341743524E9, -329.350549697876, -646.0153587460518, -2102.481997489929, -238.15682917833328
 1.7075955341743524E9, -330.3079640865326, -618.7290486693382, -2056.5261068344116, -220.9233701825142
 1.7075955341885152E9, -352.0891414284706, -626.3883637785912, -2035.223636686802, -233.8484644293785
 1.7075955341885152E9, -334.61632883548737, -642.6644083857536, -2089.556903243065, -234.80587881803513
 1.7075955342040627E9, -317.1435162425041, -620.6438774466515, -2077.589223384857, -218.52983421087265
 1.7075955342040627E9, -350.1743126511574, -617.2929270863533, -2016.793409705162, -222.59884536266327
 1.7075955342044797E9, -345.8659479022026, -641.4676403999329, -2057.4835212230682, -229.54009968042374
 1.7075955342044797E9, -321.21252739429474, -641.706993997097, -2087.4027208685875, -216.61500543355942
 1.7075955342179763E9, -330.3079640865326, -609.1549047827721, -2033.787515103817, -214.93953025341034
 1.7075955342179763E9, -346.8233622908592, -633.3296180963516, -2047.670023739338, -236.9600611925125
 1.7075955342329204E9, -329.1111961007118, -639.5528116226196, -2091.9504392147064, -221.4020773768425
 1.7075955342329204E9, -323.3667097687721, -620.4045238494873, -2047.4306701421738, -204.64732557535172
 1.7075955342485929E9, -336.29180401563644, -646.4940659403801, -2080.222112953663, -230.49751406908035
 1.7075955342485929E9, -314.0319194793701, -617.7716342806816, -2074.7169802188873, -211.82793349027634
 1.7075955342493389E9, -348.25948387384415, -622.3193526268005, -2025.6494928002357, -224.27432054281235
 1.7075955342493389E9, -353.52526301145554, -655.1107954382896, -2063.228007555008, -238.6355363726616
 1.7075955342632544E9, -316.6648090481758, -635.7231540679932, -2090.5143176317215, -221.8807845711708
 1.7075955342632544E9, -329.1111961007118, -613.702623128891, -2033.787515103817, -216.85435903072357
 1.707595534278724E9, -341.3182295560837, -629.4999605417252, -2044.3190733790398, -236.4813539981842
 1.707595534278724E9, -320.2551130056381, -635.9625076651573, -2093.3865607976913, -226.6678565144539
 1.70759553427933E9, -315.46804106235504, -605.8039544224739, -2055.329338848591, -222.35949176549911
 1.70759553427933E9, -337.4885720014572, -616.0961591005325, -2021.1017744541168, -232.8910500407219
 1.7075955342929516E9, -319.7764058113098, -639.3134580254555, -2069.9299082756042, -220.44466298818588
 1.7075955342929516E9, -305.8938971757889, -615.1387447118759, -2064.903482735157, -204.88667917251587
 1.707595534308616E9, -334.13762164115906, -597.9052857160568, -2018.9475920796394, -220.20530939102173
 1.707595534308616E9, -337.24921840429306, -633.0902644991875, -2060.116410791874, -239.35359716415405
 1.707595534309332E9, -314.98933386802673, -627.1064245700836, -2079.5040521621704, -211.34922629594803
 1.707595534309332E9, -324.5634777545929, -599.5807608962059, -2025.6494928002357, -211.10987269878387
 1.7075955343233037E9, -339.6427543759346, -637.8773364424706, -2039.2926478385925, -238.39618277549744
 1.7075955343233037E9, -313.31385868787766, -626.3883637785912, -2087.6420744657516, -221.4020773768425
 1.7075955343388193E9, -323.6060633659363, -610.1123191714287, -2054.6112780570984, -213.50340867042542
 1.7075955343388193E9, -341.0788759589195, -612.0271479487419, -2020.6230672597885, -223.31690615415573
 1.7075955343393383E9, -324.0847705602646, -641.4676403999329, -2076.6318089962006, -226.90721011161804
 1.7075955343393383E9, -316.90416264533997, -628.7818997502327, -2072.802151441574, -208.71633672714233
 1.7075955343533268E9, -335.573743224144, -606.5220152139664, -2017.0327633023262, -220.44466298818588
 1.7075955343533268E9, -337.72792559862137, -632.372203707695, -2061.791885972023, -235.5239396095276
 1.7075955343688009E9, -312.1170907020569, -627.1064245700836, -2083.0943561196327, -209.9131047129631
 1.7075955343688009E9, -328.39313530921936, -605.0858936309814, -2040.4894158244133, -223.31690615415573
 1.7075955343694637E9, -339.88210797309875, -623.9948278069496, -2043.122305393219, -238.6355363726616
 1.7075955343694637E9, -320.73382019996643, -640.5102260112762, -2093.147207200527, -228.82203888893127
 1.7075955343831735E9, -325.5208921432495, -613.4632695317268, -2056.2867532372475, -210.63116550445557
 1.7075955343831735E9, -346.58400869369507, -623.7554742097855, -2029.4791503548622, -230.2581604719162
 1.7075955343986356E9, -326.238952934742, -639.7921652197838, -2084.769831299782, -229.7794532775879
 1.7075955343986356E9, -313.79256588220596, -609.8729655742645, -2073.7595658302307, -206.56215435266495
 1.707595534399345E9, -329.350549697876, -597.6659321188927, -2008.1766802072525, -202.49314320087433
 1.707595534399345E9, -325.76024574041367, -624.4735350012779, -2046.9519629478455, -219.72660219669342
 1.707595534413218E9, -299.19199645519257, -614.8993911147118, -2071.8447370529175, -194.8338280916214
 1.707595534413218E9, -307.8087259531021, -582.586655497551, -2019.1869456768036, -192.2009385228157
 1.707595534428928E9, -332.9408536553383, -618.2503414750099, -2034.2662222981453, -222.35949176549911
 1.707595534428928E9, -317.8615770339966, -635.2444468736649, -2084.769831299782, -209.19504392147064
 1.7075955344295688E9, -317.6222234368324, -598.3839929103851, -2048.6274381279945, -193.15835291147232
 1.7075955344295688E9, -339.88210797309875, -617.0535734891891, -2017.7508240938187, -217.57241982221603
 1.7075955344431753E9, -334.13762164115906, -647.2121267318726, -2078.546637773514, -223.31690615415573
 1.7075955344431753E9, -309.4842011332512, -608.1974903941154, -2065.3821899294853, -196.26994967460632
 1.7075955344749591E9, -332.46214646101, -604.8465400338173, -2027.3249679803848, -210.63116550445557
 1.7075955344749591E9, -347.78077667951584, -640.2708724141121, -2052.457095682621, -227.86462450027466
 1.7075955344757092E9, -321.69123458862305, -626.3883637785912, -2077.589223384857, -197.70607125759125
 1.7075955344757092E9, -327.6750745177269, -601.0168824791908, -2028.5217359662056, -202.97185039520264
 1.7075955344764647E9, -338.685339987278, -623.9948278069496, -2026.128199994564, -219.2478950023651
 1.7075955344764647E9, -313.79256588220596, -630.2180213332176, -2085.24853849411, -212.5459942817688
 1.7075955344771876E9, -308.2874331474304, -595.7511033415794, -2047.909377336502, -195.07318168878555
 1.7075955344771876E9, -346.3446550965309, -615.1387447118759, -2020.8624208569527, -217.57241982221603
 1.7075955344884553E9, -333.65891444683075, -639.7921652197838, -2084.2911241054535, -226.90721011161804
 1.7075955344884553E9, -320.9731737971306, -623.5161206126213, -2073.5202122330666, -207.75892233848572
 1.7075955345033872E9, -344.1904727220535, -610.591026365757, -2024.452724814415, -216.1362982392311
 1.7075955345033872E9, -339.88210797309875, -635.0050932765007, -2058.680289208889, -235.04523241519928
 1.7075955345187967E9, -323.3667097687721, -635.2444468736649, -2089.0781960487366, -215.6575910449028
 1.7075955345187967E9, -335.0950360298157, -601.9742968678474, -2034.9842830896378, -213.50340867042542
 1.7075955345196772E9, -349.4562518596649, -629.0212533473969, -2038.0958798527718, -230.2581604719162
 1.7075955345196772E9, -323.3667097687721, -637.3986292481422, -2086.924013674259, -210.63116550445557
 1.7075955345332687E9, -311.15967631340027, -603.6497720479965, -2049.8242061138153, -202.25378960371017
 1.7075955345332687E9, -342.2756439447403, -614.8993911147118, -2027.0856143832207, -224.9923813343048
 1.707595534548722E9, -331.02602487802505, -635.2444468736649, -2073.998919427395, -222.83819895982742
 1.707595534548722E9, -319.7764058113098, -619.4471094608307, -2068.4937866926193, -207.04086154699326
 1.7075955345493505E9, -345.3872407078743, -617.0535734891891, -2021.1017744541168, -220.44466298818588
 1.7075955345493505E9, -347.5414230823517, -642.9037619829178, -2062.7493003606796, -236.24200040102005
 1.707595534563144E9, -317.3828698396683, -627.1064245700836, -2087.4027208685875, -214.93953025341034
 1.707595534563144E9, -336.77051120996475, -613.9419767260551, -2039.5320014357567, -211.58857989311218
 1.7075955345788548E9, -351.6104342341423, -634.7657396793365, -2042.1648910045624, -236.0026468038559
 1.7075955345788548E9, -323.84541696310043, -637.8773364424706, -2098.4129863381386, -229.30074608325958
 1.7075955345795753E9, -317.6222234368324, -611.7877943515778, -2051.7390348911285, -202.73249679803848
 1.7075955345795753E9, -345.62659430503845, -623.7554742097855, -2025.6494928002357, -230.01880687475204
 1.7075955345931587E9, -328.87184250354767, -646.7334195375443, -2075.674394607544, -227.86462450027466
 1.7075955345931587E9, -308.04807955026627, -615.1387447118759, -2068.015079498291, -204.1686183810234
 1.707595534608658E9, -341.55758315324783, -608.6761975884438, -2020.6230672597885, -220.20530939102173
 1.707595534608658E9, -339.40340077877045, -637.3986292481422, -2054.8506316542625, -236.4813539981842
 1.7075955346094186E9, -319.2976986169815, -637.3986292481422, -2082.3762953281403, -208.71633672714233
 1.7075955346094186E9, -333.4195608496666, -618.9684022665024, -2036.4204046726227, -217.09371262788773
 1.7075955346229844E9, -350.1743126511574, -641.4676403999329, -2044.797780573368, -240.31101155281067
 1.7075955346229844E9, -327.1963673233986, -643.6218227744102, -2093.8652679920197, -221.16272377967834
 1.7075955346386206E9, -330.3079640865326, -609.8729655742645, -2059.87705719471, -211.82793349027634
 1.7075955346386206E9, -362.38134610652924, -640.7495796084404, -2035.7023438811302, -241.98648673295975
 1.7075955346393578E9, -337.72792559862137, -651.7598450779915, -2087.4027208685875, -241.98648673295975
 1.7075955346393578E9, -317.8615770339966, -625.9096565842628, -2072.323444247246, -211.58857989311218
 1.7075955346529887E9, -343.2330583333969, -622.7980598211288, -2024.6920784115791, -228.58268529176712
 1.7075955346529887E9, -346.8233622908592, -640.2708724141121, -2063.467361152172, -243.90131551027298
 1.707595534668884E9, -321.9305881857872, -635.7231540679932, -2094.583328783512, -218.2904806137085
 1.707595534668884E9, -339.40340077877045, -620.6438774466515, -2037.8565262556076, -216.1362982392311
 1.7075955346694212E9, -348.9775446653366, -636.6805684566498, -2044.3190733790398, -241.26842594146729
 1.7075955346694212E9, -325.9995993375778, -643.8611763715744, -2098.4129863381386, -234.80587881803513
 1.7075955346832387E9, -332.2227928638458, -624.2341814041138, -2062.988653957844, -217.8117734193802
 1.7075955346832387E9, -355.2007381916046, -627.3457781672478, -2035.7023438811302, -236.24200040102005
 1.7075955346988902E9, -344.908533513546, -652.9566130638123, -2084.769831299782, -237.19941478967667
 1.7075955346988902E9, -329.58990329504013, -640.0315188169479, -2079.9827593564987, -210.87051910161972
 1.707595534699406E9, -351.6104342341423, -620.6438774466515, -2027.0856143832207, -224.9923813343048
 1.707595534699406E9, -347.0627158880234, -649.1269555091858, -2060.116410791874, -236.0026468038559
 1.7075955347134404E9, -321.69123458862305, -635.483800470829, -2098.891693532467, -220.20530939102173
 1.7075955347134404E9, -329.350549697876, -609.1549047827721, -2029.7185039520264, -211.34922629594803
 1.7075955347288125E9, -346.3446550965309, -631.1754357218742, -2047.4306701421738, -236.4813539981842
 1.7075955347288125E9, -328.87184250354767, -641.2282868027687, -2100.567168712616, -232.8910500407219
 1.7075955347293797E9, -328.1537817120552, -622.5587062239647, -2062.7493003606796, -214.70017665624619
 1.7075955347293797E9, -348.4988374710083, -618.9684022665024, -2025.4101392030716, -232.65169644355774
 1.707595534743291E9, -338.92469358444214, -649.36630910635, -2080.461466550827, -234.08781802654266
 1.707595534743291E9, -322.16994178295135, -629.260606944561, -2075.913748204708, -215.6575910449028
 1.7075955347590797E9, -350.41366624832153, -612.7452087402344, -2022.5378960371017, -222.12013816833496
 1.7075955347590797E9, -343.47241193056107, -638.595397233963, -2061.3131787776947, -238.87488996982574
 1.707595534759558E9, -314.0319194793701, -624.7128885984421, -2079.025344967842, -205.84409356117249
 1.707595534759558E9, -329.58990329504013, -605.5646008253098, -2032.112039923668, -210.3918119072914
 1.7075955347732944E9, -349.4562518596649, -625.9096565842628, -2030.675918340683, -228.58268529176712
 1.7075955347732944E9, -332.70150005817413, -647.2121267318726, -2087.6420744657516, -226.90721011161804
 1.7075955347890887E9, -321.4518809914589, -614.8993911147118, -2049.8242061138153, -211.10987269878387
 1.7075955347890887E9, -349.9349590539932, -619.2077558636665, -2024.9314320087433, -232.65169644355774
 1.7075955347894952E9, -332.70150005817413, -642.9037619829178, -2079.9827593564987, -235.04523241519928
 1.7075955347894952E9, -325.28153854608536, -630.2180213332176, -2083.0943561196327, -219.72660219669342
 1.707595534803066E9, -355.6794453859329, -622.5587062239647, -2048.6274381279945, -247.9703266620636
 1.707595534803066E9, -351.84978783130646, -653.4353202581406, -2066.8183115124702, -251.5606306195259
 1.7075955348186593E9, -313.79256588220596, -628.3031925559044, -2078.785991370678, -205.60473996400833
 1.7075955348186593E9, -331.02602487802505, -607.479429602623, -2034.2662222981453, -213.50340867042542
 1.7075955348194685E9, -358.3123349547386, -637.3986292481422, -2036.6597582697868, -232.65169644355774
 1.7075955348194685E9, -338.2066327929497, -647.6908339262009, -2094.583328783512, -228.1039780974388
 1.7075955348329892E9, -335.81309682130814, -611.3090871572495, -2054.6112780570984, -208.23762953281403
 1.7075955348329892E9, -359.26974934339523, -622.5587062239647, -2026.6069071888924, -223.31690615415573
 1.7075955348486578E9, -348.9775446653366, -656.0682098269463, -2080.461466550827, -232.41234284639359
 1.7075955348486578E9, -329.8292568922043, -619.925816655159, -2070.887322664261, -204.88667917251587
 1.7075955348494332E9, -330.3079640865326, -590.485324203968, -2016.793409705162, -206.8015079498291
 1.7075955348494332E9, -350.1743126511574, -643.1431155800819, -2055.808046042919, -230.7368676662445
 1.7075955348632934E9, -330.06861048936844, -642.9037619829178, -2085.24853849411, -206.8015079498291
 1.7075955348632934E9, -333.8982680439949, -602.4530040621758, -2033.5481615066528, -210.63116550445557
 1.7075955348786721E9, -361.9026389122009, -639.5528116226196, -2044.558426976204, -238.87488996982574
 1.7075955348786721E9, -338.2066327929497, -650.3237234950066, -2091.9504392147064, -219.2478950023651
 1.7075955348794649E9, -333.65891444683075, -617.7716342806816, -2051.7390348911285, -205.36538636684418
 1.7075955348794649E9, -350.89237344264984, -614.4206839203835, -2029.7185039520264, -233.13040363788605
 1.707595534892942E9, -345.14788711071014, -652.9566130638123, -2082.136941730976, -234.08781802654266
 1.707595534892942E9, -331.98343926668167, -637.3986292481422, -2073.998919427395, -211.82793349027634
 1.7075955349086337E9, -352.5678486227989, -623.5161206126213, -2027.8036751747131, -225.94979572296143
 1.7075955349086337E9, -355.2007381916046, -644.818590760231, -2060.8344715833664, -238.39618277549744
 1.7075955349093204E9, -332.70150005817413, -640.7495796084404, -2090.2749640345573, -213.98211586475372
 1.7075955349093204E9, -331.02602487802505, -601.256236076355, -2039.7713550329208, -216.85435903072357
 1.7075955349229405E9, -354.243323802948, -632.1328501105309, -2035.9416974782944, -234.32717162370682
 1.7075955349229405E9, -338.685339987278, -646.9727731347084, -2089.3175496459007, -219.2478950023651
 1.7075955349549987E9, -326.4783065319061, -618.7290486693382, -2052.9358028769493, -202.97185039520264
 1.7075955349549987E9, -354.96138459444046, -625.1915957927704, -2026.3675535917282, -228.34333169460297
 1.707595534955712E9, -344.908533513546, -650.5630770921707, -2082.3762953281403, -235.28458601236343
 1.707595534955712E9, -330.3079640865326, -630.2180213332176, -2077.589223384857, -212.78534787893295
 1.7075955349564636E9, -357.354920566082, -623.037413418293, -2026.8462607860565, -229.7794532775879
 1.7075955349564636E9, -361.6632853150368, -652.9566130638123, -2072.323444247246, -249.40644824504852
 1.707595534957232E9, -342.2756439447403, -649.6056627035141, -2094.8226823806763, -227.1465637087822
 1.707595534957232E9, -346.3446550965309, -621.8406454324722, -2046.9519629478455, -224.27432054281235
 1.70759553496842E9, -360.9452245235443, -637.3986292481422, -2045.5158413648605, -239.5929507613182
 1.70759553496842E9, -335.573743224144, -650.0843698978424, -2087.4027208685875, -221.64143097400665
 1.7075955349830468E9, -326.95701372623444, -612.9845623373985, -2058.919642806053, -225.71044212579727
 1.7075955349830468E9, -353.7646166086197, -623.5161206126213, -2030.675918340683, -248.20968025922775
 1.707595534999071E9, -334.8556824326515, -641.2282868027687, -2068.9724938869476, -210.87051910161972
 1.707595534999071E9, -326.7176601290703, -622.0799990296364, -2071.6053834557533, -192.44029211997986
 1.7075955349994392E9, -347.30206948518753, -612.0271479487419, -2021.1017744541168, -210.3918119072914
 1.7075955349994392E9, -357.354920566082, -647.930187523365, -2054.6112780570984, -228.82203888893127
 1.7075955350131528E9, -327.6750745177269, -642.1857011914253, -2086.445306479931, -210.87051910161972
 1.7075955350131528E9, -345.3872407078743, -618.4896950721741, -2039.2926478385925, -208.9556903243065
 1.7075955350289032E9, -348.25948387384415, -625.1915957927704, -2034.9842830896378, -224.27432054281235
 1.7075955350289032E9, -336.29180401563644, -642.4250547885895, -2087.1633672714233, -221.8807845711708
 1.7075955350297024E9, -330.3079640865326, -620.8832310438156, -2053.893217265606, -202.25378960371017
 1.7075955350297024E9, -356.8762133717537, -628.0638389587402, -2027.3249679803848, -231.45492845773697
 1.707595535043026E9, -365.01423567533493, -668.5145968794823, -2084.5304777026176, -240.07165795564651
 1.707595535043026E9, -322.64864897727966, -630.4573749303818, -2081.897588133812, -212.78534787893295
 1.7075955350750403E9, -345.3872407078743, -617.5322806835175, -2033.0694543123245, -227.6252709031105
 1.7075955350750403E9, -354.48267740011215, -646.7334195375443, -2066.100250720978, -245.3374370932579
 1.7075955350757632E9, -330.7866712808609, -645.7760051488876, -2096.019450366497, -220.20530939102173
 1.7075955350757632E9, -336.29180401563644, -616.814219892025, -2044.797780573368, -224.75302773714066
 1.7075955350765967E9, -353.7646166086197, -637.6379828453064, -2044.3190733790398, -245.57679069042206
 1.7075955350765967E9, -336.29180401563644, -657.9830386042595, -2090.99302482605, -232.41234284639359
 1.707595535077289E9, -337.24921840429306, -626.3883637785912, -2063.9460683465004, -220.68401658535004
 1.707595535077289E9, -359.5091029405594, -637.8773364424706, -2035.7023438811302, -245.8161442875862
 1.7075955350879977E9, -348.73819106817245, -659.4191601872444, -2089.796256840229, -245.09808349609375
 1.7075955350879977E9, -325.5208921432495, -630.2180213332176, -2077.110516190529, -214.93953025341034
 1.7075955351032636E9, -340.6001687645912, -619.925816655159, -2033.3088079094887, -224.0349669456482
 1.7075955351032636E9, -337.0098648071289, -632.8509109020233, -2064.664129137993, -246.77355867624283
 1.7075955351186354E9, -328.1537817120552, -641.706993997097, -2100.327815115452, -226.90721011161804
 1.7075955351186354E9, -349.21689826250076, -639.0741044282913, -2047.1913165450096, -222.83819895982742
 1.7075955351193728E9, -362.86005330085754, -649.6056627035141, -2051.9783884882927, -245.09808349609375
 1.7075955351193728E9, -342.7543511390686, -658.4617457985878, -2100.0884615182877, -236.72070759534836
 1.707595535132969E9, -327.43572092056274, -621.1225846409798, -2063.228007555008, -212.0672870874405
 1.707595535132969E9, -348.4988374710083, -623.9948278069496, -2034.7449294924736, -239.35359716415405
 1.7075955351486604E9, -337.72792559862137, -647.6908339262009, -2086.924013674259, -241.26842594146729
 1.7075955351486604E9, -318.10093063116074, -634.2870324850082, -2085.7272456884384, -217.57241982221603
 1.7075955351493323E9, -352.32849502563477, -647.4514803290367, -2038.8139406442642, -236.0026468038559
 1.7075955351493323E9, -356.8762133717537, -677.370679974556, -2071.6053834557533, -254.91158097982407
 1.7075955351633348E9, -324.5634777545929, -667.7965360879898, -2108.226483821869, -231.93363565206528
 1.7075955351633348E9, -334.8556824326515, -636.9199220538139, -2053.4145100712776, -229.54009968042374
 1.707595535179004E9, -355.9187989830971, -663.7275249361992, -2053.1751564741135, -251.0819234251976
 1.707595535179004E9, -335.3343896269798, -674.0197296142578, -2102.7213510870934, -245.09808349609375
 1.7075955351795015E9, -324.0847705602646, -635.9625076651573, -2073.5202122330666, -220.68401658535004
 1.7075955351795015E9, -348.4988374710083, -634.0476788878441, -2038.5745870471, -243.90131551027298
 1.707595535193295E9, -351.37108063697815, -679.046155154705, -2094.8226823806763, -251.0819234251976
 1.707595535193295E9, -339.40340077877045, -650.8024306893349, -2093.147207200527, -230.2581604719162
 1.7075955352088468E9, -354.48267740011215, -636.6805684566498, -2036.1810510754585, -230.7368676662445
 1.7075955352088468E9, -358.07298135757446, -659.6585137844086, -2067.0576651096344, -247.25226587057114
 1.707595535209474E9, -326.7176601290703, -660.1372209787369, -2097.216218352318, -221.16272377967834
 1.707595535209474E9, -326.95701372623444, -612.7452087402344, -2040.7287694215775, -214.70017665624619
 1.7075955352229736E9, -350.41366624832153, -637.6379828453064, -2040.2500622272491, -236.0026468038559
 1.7075955352229736E9, -333.65891444683075, -656.5469170212746, -2091.471732020378, -229.30074608325958
 1.7075955352379959E9, -322.8880025744438, -613.9419767260551, -2055.568692445755, -204.88667917251587
 1.7075955352379959E9, -348.9775446653366, -620.4045238494873, -2029.7185039520264, -227.1465637087822
 1.707595535253616E9, -329.58990329504013, -640.0315188169479, -2079.025344967842, -209.9131047129631
 1.707595535253616E9, -351.84978783130646, -623.2767670154572, -2028.0430287718773, -223.07755255699158
 1.707595535254336E9, -346.3446550965309, -644.5792371630669, -2054.3719244599342, -231.69428205490112
 1.707595535254336E9, -328.39313530921936, -639.5528116226196, -2091.232378423214, -218.2904806137085
 1.7075955352681167E9, -332.70150005817413, -605.8039544224739, -2035.462990283966, -212.78534787893295
 1.7075955352681167E9, -343.7117655277252, -623.5161206126213, -2037.8565262556076, -231.69428205490112
 1.7075955352836738E9, -324.5634777545929, -645.7760051488876, -2099.6097543239594, -232.17298924922943
 1.7075955352836738E9, -353.0465558171272, -649.6056627035141, -2084.0517705082893, -235.5239396095276
 1.70759553528434E9, -333.8982680439949, -611.0697335600853, -2011.5276305675507, -223.79561334848404
 1.70759553528434E9, -324.80283135175705, -620.6438774466515, -2054.3719244599342, -210.3918119072914
 1.7075955352982728E9, -304.2184219956398, -597.9052857160568, -2051.9783884882927, -189.56804895401
 1.7075955352982728E9, -314.98933386802673, -569.4222076535225, -1983.7626132965088, -177.121661901474
 1.7075955353137584E9, -326.4783065319061, -608.4368439912796, -2028.0430287718773, -202.25378960371017
 1.7075955353137584E9, -279.56500148773193, -568.4647932648659, -2037.8565262556076, -161.32432448863983
 1.7075955353143804E9, -299.4313500523567, -562.7203069329262, -1997.1664147377014, -168.02622520923615
 1.7075955353143804E9, -324.80283135175705, -591.921445786953, -1992.8580499887466, -189.56804895401
 1.707595535327936E9, -303.02165400981903, -604.8465400338173, -2045.7551949620247, -180.95131945610046
 1.707595535327936E9, -296.55910688638687, -578.038937151432, -2018.229531288147, -171.8558827638626
 1.7075955353436077E9, -326.4783065319061, -583.3047162890434, -1990.464514017105, -188.13192737102509
 1.7075955353436077E9, -315.2286874651909, -607.7187831997871, -2048.3880845308304, -199.14219284057617
 1.7075955353443434E9, -301.34617882966995, -591.921445786953, -2056.0473996400833, -187.17451298236847
 1.7075955353443434E9, -321.4518809914589, -583.3047162890434, -2005.783144235611, -201.77508240938187
 1.7075955353579333E9, -336.0524504184723, -623.2767670154572, -2032.112039923668, -213.0247014760971
 1.7075955353579333E9, -310.4416155219078, -619.4471094608307, -2071.8447370529175, -196.03059607744217
 1.707595535374122E9, -321.21252739429474, -588.809849023819, -2019.905006468296, -191.00417053699493
 1.707595535374122E9, -337.0098648071289, -606.0433080196381, -2017.0327633023262, -209.9131047129631
 1.707595535374376E9, -317.1435162425041, -618.7290486693382, -2068.4937866926193, -197.9454248547554
 1.707595535374376E9, -309.9629083275795, -589.0492026209831, -2048.3880845308304, -196.50930327177048
 1.7075955353882725E9, -336.5311576128006, -601.256236076355, -2002.4321938753128, -208.47698312997818
 1.7075955353882725E9, -331.7440856695175, -627.1064245700836, -2056.5261068344116, -213.74276226758957
 1.707595535404084E9, -317.6222234368324, -617.5322806835175, -2061.3131787776947, -196.74865686893463
 1.707595535404084E9, -333.4195608496666, -589.7672634124756, -2011.5276305675507, -206.56215435266495
 1.70759553540454E9, -330.06861048936844, -614.8993911147118, -2038.0958798527718, -221.4020773768425
 1.70759553540454E9, -309.0054939389229, -612.5058551430702, -2078.546637773514, -205.36538636684418
 1.707595535418125E9, -326.7176601290703, -596.4691641330719, -2029.7185039520264, -205.36538636684418
 1.707595535418125E9, -350.6530198454857, -623.2767670154572, -2023.9740176200867, -222.35949176549911
 1.707595535433844E9, -329.350549697876, -635.2444468736649, -2073.0415050387383, -208.9556903243065
 1.707595535433844E9, -317.8615770339966, -600.2988216876984, -2043.3616589903831, -193.39770650863647
 1.7075955354346075E9, -333.65891444683075, -589.0492026209831, -2003.3896082639694, -210.15245831012726
 1.7075955354346075E9, -330.3079640865326, -626.8670709729195, -2050.5422669053078, -210.87051910161972
 1.7075955354480982E9, -316.42545545101166, -615.3780983090401, -2060.355764389038, -196.74865686893463
 1.7075955354480982E9, -341.0788759589195, -597.9052857160568, -2010.33086258173, -208.23762953281403
 1.7075955354637997E9, -336.0524504184723, -625.4309493899345, -2038.5745870471, -221.8807845711708
 1.7075955354637997E9, -323.84541696310043, -634.7657396793365, -2080.222112953663, -207.75892233848572
 1.7075955354644475E9, -324.80283135175705, -597.9052857160568, -2031.1546255350113, -205.36538636684418
 1.7075955354644475E9, -341.796936750412, -615.8568055033684, -2031.3939791321754, -232.65169644355774
 1.707595535477964E9, -318.3402842283249, -629.4999605417252, -2079.2646985650063, -220.44466298818588
 1.707595535477964E9, -309.9629083275795, -596.9478713274002, -2051.4996812939644, -205.36538636684418
 1.7075955354936936E9, -337.0098648071289, -615.1387447118759, -2022.777249634266, -230.01880687475204
 1.7075955354936936E9, -336.77051120996475, -635.9625076651573, -2062.7493003606796, -222.12013816833496
 1.7075955354944012E9, -313.5532122850418, -602.2136504650116, -2062.2705931663513, -200.5783144235611
 1.7075955354944012E9, -331.2653784751892, -598.6233465075493, -2009.3734481930733, -205.36538636684418
 1.707595535508219E9, -341.55758315324783, -631.6541429162025, -2040.2500622272491, -227.1465637087822
 1.707595535508219E9, -311.87773710489273, -628.0638389587402, -2075.1956874132156, -205.60473996400833
 1.7075955355238297E9, -321.69123458862305, -597.6659321188927, -2017.2721168994904, -196.03059607744217
 1.7075955355238297E9, -346.8233622908592, -616.0961591005325, -2020.8624208569527, -222.59884536266327
 1.7075955355243907E9, -311.87773710489273, -610.3516727685928, -2074.477626621723, -213.50340867042542
 1.7075955355243907E9, -309.4842011332512, -596.4691641330719, -2045.2764877676964, -199.38154643774033
 1.7075955355383022E9, -331.7440856695175, -601.9742968678474, -2001.7141330838203, -210.87051910161972
 1.7075955355383022E9, -332.2227928638458, -626.3883637785912, -2061.552532374859, -218.7691878080368
 1.7075955355539517E9, -318.10093063116074, -612.5058551430702, -2055.329338848591, -189.32869535684586
 1.7075955355539517E9, -328.1537817120552, -584.2621306777, -2011.0489233732224, -200.81766802072525
 1.7075955355547674E9, -323.3667097687721, -609.8729655742645, -2035.223636686802, -223.07755255699158
 1.7075955355547674E9, -301.5855324268341, -607.7187831997871, -2071.6053834557533, -196.74865686893463
 1.7075955355683172E9, -316.42545545101166, -585.2195450663567, -2012.7243985533714, -186.456452190876
 1.7075955355683172E9, -344.66917991638184, -614.1813303232193, -2014.8785809278488, -214.46082305908203
 1.7075955355837767E9, -323.84541696310043, -627.1064245700836, -2073.0415050387383, -215.6575910449028
 1.7075955355837767E9, -315.94674825668335, -597.4265785217285, -2045.9945485591888, -195.07318168878555
 1.7075955355845628E9, -337.72792559862137, -597.4265785217285, -2006.7405586242676, -220.68401658535004
 1.7075955355845628E9, -332.70150005817413, -629.0212533473969, -2059.1589964032173, -225.71044212579727
 1.7075955355979304E9, -320.73382019996643, -612.5058551430702, -2064.1854219436646, -202.49314320087433
 1.7075955355979304E9, -339.1640471816063, -600.7775288820267, -2015.117934525013, -217.57241982221603
 1.7075955356136513E9, -343.2330583333969, -628.0638389587402, -2038.8139406442642, -225.71044212579727
 1.7075955356136513E9, -317.1435162425041, -627.1064245700836, -2084.2911241054535, -209.67375111579895
 1.7075955356143606E9, -320.4944666028023, -597.1872249245644, -2026.3675535917282, -202.97185039520264
 1.7075955356143606E9, -343.2330583333969, -617.5322806835175, -2027.564321577549, -229.54009968042374
 1.7075955356279657E9, -332.2227928638458, -625.4309493899345, -2078.0679305791855, -220.68401658535004
 1.7075955356279657E9, -310.4416155219078, -586.6556666493416, -2042.6435981988907, -197.22736406326294
 1.7075955356436868E9, -341.3182295560837, -605.8039544224739, -2009.8521553874016, -220.44466298818588
 1.7075955356436868E9, -338.2066327929497, -639.0741044282913, -2063.9460683465004, -227.1465637087822
 1.707595535644333E9, -311.87773710489273, -612.5058551430702, -2067.775725901127, -204.64732557535172
 1.707595535644333E9, -333.4195608496666, -593.596920967102, -2016.554056107998, -213.50340867042542
 1.7075955356580193E9, -344.908533513546, -627.5851317644119, -2042.1648910045624, -226.18914932012558
 1.7075955356580193E9, -318.8189914226532, -623.7554742097855, -2087.1633672714233, -221.4020773768425
 1.7075955356737728E9, -319.7764058113098, -589.7672634124756, -2031.3939791321754, -210.3918119072914
 1.7075955356737728E9, -339.40340077877045, -605.0858936309814, -2027.8036751747131, -230.2581604719162
 1.7075955356743712E9, -320.4944666028023, -631.1754357218742, -2085.009184896946, -222.83819895982742
 1.7075955356743712E9, -322.8880025744438, -607.0007224082947, -2050.0635597109795, -207.04086154699326
 1.7075955356879926E9, -348.9775446653366, -613.702623128891, -2015.8359953165054, -231.69428205490112
 1.7075955356879926E9, -331.98343926668167, -639.7921652197838, -2068.7331402897835, -238.6355363726616
 1.7075955357036831E9, -307.56937235593796, -606.7613688111305, -2066.8183115124702, -207.99827593564987
 1.7075955357036831E9, -329.58990329504013, -595.7511033415794, -2019.905006468296, -221.64143097400665
 1.707595535704348E9, -333.8982680439949, -629.7393141388893, -2043.8403661847115, -238.87488996982574
 1.707595535704348E9, -312.1170907020569, -623.037413418293, -2090.035610437393, -221.64143097400665
 1.7075955357179873E9, -323.3667097687721, -599.1020537018776, -2035.9416974782944, -215.6575910449028
 1.7075955357179873E9, -346.3446550965309, -627.1064245700836, -2030.9152719378471, -234.56652522087097
 1.7075955357337852E9, -324.5634777545929, -635.483800470829, -2087.6420744657516, -230.2581604719162
 1.7075955357337852E9, -314.0319194793701, -608.4368439912796, -2057.7228748202324, -213.26405507326126
 1.7075955357343853E9, -342.99370473623276, -618.4896950721741, -2029.9578575491905, -240.78971874713898
 1.7075955357343853E9, -335.3343896269798, -637.6379828453064, -2078.3072841763496, -247.4916194677353
 1.7075955357482536E9, -309.9629083275795, -615.8568055033684, -2085.4878920912743, -225.23173493146896
 1.7075955357482536E9, -342.7543511390686, -611.5484407544136, -2036.899111866951, -235.76329320669174
 1.7075955357641797E9, -353.7646166086197, -646.4940659403801, -2059.87705719471, -252.51804500818253
 1.7075955357641797E9, -328.1537817120552, -642.4250547885895, -2096.4981575608253, -229.7794532775879
 1.7075955357645524E9, -342.51499754190445, -613.702623128891, -2047.4306701421738, -223.55625975131989
 1.7075955357645524E9, -360.70587092638016, -639.5528116226196, -2048.8667917251587, -247.25226587057114
 1.7075955357789123E9, -319.7764058113098, -636.4412148594856, -2085.9665992856026, -236.24200040102005
 1.7075955357789123E9, -318.57963782548904, -606.0433080196381, -2061.791885972023, -214.93953025341034
 1.7075955357939332E9, -333.65891444683075, -604.6071864366531, -2017.0327633023262, -228.34333169460297
 1.7075955357939332E9, -348.73819106817245, -657.264977812767, -2076.8711625933647, -245.3374370932579
 1.7075955357945192E9, -329.350549697876, -632.1328501105309, -2076.3924553990364, -222.59884536266327
 1.7075955357945192E9, -339.6427543759346, -612.5058551430702, -2028.7610895633698, -227.86462450027466
 1.7075955358084395E9, -343.9511191248894, -634.0476788878441, -2058.680289208889, -249.16709464788437
 1.7075955358084395E9, -315.2286874651909, -631.8934965133667, -2092.1897928118706, -221.4020773768425
 1.7075955358238454E9, -327.43572092056274, -603.8891256451607, -2049.8242061138153, -225.71044212579727
 1.7075955358238454E9, -350.1743126511574, -628.3031925559044, -2049.106145322323, -256.58705615997314
 1.7075955358246489E9, -333.18020725250244, -642.4250547885895, -2098.1736327409744, -244.8587298989296
 1.7075955358246489E9, -322.8880025744438, -622.0799990296364, -2067.5363723039627, -219.72660219669342
 1.7075955358381493E9, -348.73819106817245, -623.2767670154572, -2023.4953104257584, -237.43876838684082
 1.7075955358381493E9, -336.29180401563644, -648.1695411205292, -2073.5202122330666, -241.50777953863144
 1.707595535853662E9, -321.21252739429474, -621.3619382381439, -2081.1795273423195, -219.2478950023651
 1.707595535853662E9, -335.573743224144, -604.8465400338173, -2022.2985424399376, -221.4020773768425
 1.7075955358543963E9, -345.8659479022026, -631.6541429162025, -2050.3029133081436, -242.7045475244522
 1.7075955358543963E9, -320.01575940847397, -625.6703029870987, -2091.232378423214, -226.18914932012558
 1.7075955358680086E9, -318.8189914226532, -596.9478713274002, -2041.44683021307, -221.4020773768425
 1.7075955358680086E9, -349.4562518596649, -631.6541429162025, -2031.8726863265038, -239.5929507613182
 1.7075955358836913E9, -328.87184250354767, -645.2972979545593, -2089.556903243065, -235.5239396095276
 1.7075955358836913E9, -322.16994178295135, -616.0961591005325, -2061.791885972023, -219.00854140520096
 1.7075955358844843E9, -339.6427543759346, -604.1284792423248, -2017.7508240938187, -231.69428205490112
 1.7075955358844843E9, -322.64864897727966, -632.372203707695, -2067.0576651096344, -232.17298924922943
 1.707595535898053E9, -312.83515149354935, -614.8993911147118, -2069.211847484112, -210.3918119072914
 1.707595535898053E9, -327.43572092056274, -598.144639313221, -2020.6230672597885, -219.2478950023651
 1.7075955359140193E9, -337.4885720014572, -628.3031925559044, -2044.3190733790398, -233.8484644293785
 1.7075955359140193E9, -321.21252739429474, -638.1166900396347, -2086.684660077095, -218.05112701654434
 1.7075955359144967E9, -310.9203227162361, -596.4691641330719, -2031.3939791321754, -212.30664068460464
 1.7075955359144967E9, -324.5634777545929, -602.9317112565041, -2015.117934525013, -226.90721011161804
 1.7075955359282963E9, -311.87773710489273, -628.3031925559044, -2076.8711625933647, -227.38591730594635
 1.7075955359282963E9, -303.02165400981903, -598.8627001047134, -2048.3880845308304, -206.8015079498291
 1.707595535943966E9, -337.72792559862137, -617.0535734891891, -2015.8359953165054, -233.3697572350502
 1.707595535943966E9, -319.7764058113098, -628.7818997502327, -2061.552532374859, -233.60911083221436
 1.7075955359445205E9, -302.7823004126549, -613.702623128891, -2075.913748204708, -215.89694464206696
 1.7075955359445205E9, -325.9995993375778, -601.256236076355, -2027.564321577549, -230.2581604719162
 1.7075955359580972E9, -338.2066327929497, -637.1592756509781, -2052.9358028769493, -247.9703266620636
 1.7075955359580972E9, -328.6324889063835, -636.6805684566498, -2093.3865607976913, -234.08781802654266
 1.7075955359736483E9, -324.5634777545929, -605.3252472281456, -2049.584852516651, -224.9923813343048
 1.7075955359736483E9, -347.5414230823517, -626.8670709729195, -2045.0371341705322, -252.03933781385422
 1.7075955359743347E9, -328.39313530921936, -647.4514803290367, -2093.147207200527, -239.83230435848236
 1.7075955359743347E9, -318.8189914226532, -611.3090871572495, -2069.9299082756042, -222.83819895982742
 1.707595535987959E9, -341.796936750412, -620.1651702523232, -2034.5055758953094, -240.31101155281067
 1.707595535987959E9, -338.685339987278, -652.9566130638123, -2079.7434057593346, -247.73097306489944
 1.7075955360041544E9, -322.16994178295135, -627.3457781672478, -2090.035610437393, -228.58268529176712
 1.7075955360041544E9, -333.4195608496666, -600.0594680905342, -2038.0958798527718, -233.13040363788605
 1.7075955360044513E9, -346.8233622908592, -643.8611763715744, -2062.5099467635155, -251.32127702236176
 1.7075955360044513E9, -316.6648090481758, -637.1592756509781, -2104.3968262672424, -233.3697572350502
 1.7075955360181775E9, -329.350549697876, -612.2665015459061, -2055.0899852514267, -227.6252709031105
 1.7075955360181775E9, -346.3446550965309, -624.2341814041138, -2042.8829517960548, -248.92774105072021
 1.707595536033825E9, -326.4783065319061, -643.8611763715744, -2090.5143176317215, -236.9600611925125
 1.707595536033825E9, -311.87773710489273, -600.0594680905342, -2064.4247755408287, -216.61500543355942
 1.707595536034341E9, -340.6001687645912, -618.7290486693382, -2024.2133712172508, -234.32717162370682
 1.707595536034341E9, -334.3769752383232, -645.2972979545593, -2074.477626621723, -240.31101155281067
 1.7075955360481167E9, -318.10093063116074, -624.9522421956062, -2088.5994888544083, -222.12013816833496
 1.7075955360481167E9, -332.70150005817413, -597.1872249245644, -2031.1546255350113, -227.38591730594635
 1.707595536064149E9, -341.0788759589195, -635.9625076651573, -2054.3719244599342, -243.90131551027298
 1.707595536064149E9, -320.2551130056381, -628.5425461530685, -2098.6523399353027, -234.08781802654266
 1.707595536064512E9, -317.3828698396683, -600.0594680905342, -2044.797780573368, -227.38591730594635
 1.707595536064512E9, -345.3872407078743, -635.2444468736649, -2047.4306701421738, -249.88515543937683
 1.7075955360783825E9, -333.4195608496666, -646.7334195375443, -2086.684660077095, -230.49751406908035
 1.7075955360783825E9, -320.4944666028023, -612.0271479487419, -2070.887322664261, -218.2904806137085
 1.7075955360936255E9, -340.6001687645912, -610.591026365757, -2027.564321577549, -235.76329320669174
 1.7075955360936255E9, -335.573743224144, -634.0476788878441, -2078.0679305791855, -241.7471331357956
 1.707595536094314E9, -310.20226192474365, -612.5058551430702, -2079.025344967842, -221.16272377967834
 1.707595536094314E9, -335.0950360298157, -603.8891256451607, -2021.8198352456093, -223.79561334848404
 1.707595536107956E9, -342.03629034757614, -632.8509109020233, -2049.584852516651, -241.7471331357956
 1.707595536107956E9, -320.01575940847397, -634.2870324850082, -2101.2852295041084, -238.15682917833328
 1.707595536123608E9, -323.3667097687721, -605.3252472281456, -2046.9519629478455, -229.30074608325958
 1.707595536123608E9, -342.7543511390686, -617.5322806835175, -2040.7287694215775, -247.4916194677353
 1.7075955361245387E9, -328.1537817120552, -650.0843698978424, -2093.3865607976913, -240.31101155281067
 1.7075955361245387E9, -320.01575940847397, -614.4206839203835, -2060.116410791874, -215.1788838505745
 1.7075955361382432E9, -343.9511191248894, -615.1387447118759, -2021.5804816484451, -234.32717162370682
 1.7075955361382432E9, -333.18020725250244, -640.9889332056046, -2066.578957915306, -240.31101155281067
 1.7075955361538396E9, -309.9629083275795, -620.6438774466515, -2082.3762953281403, -223.55625975131989
 1.7075955361538396E9, -342.7543511390686, -617.2929270863533, -2046.7126093506813, -241.7471331357956
 1.7075955361544085E9, -350.41366624832153, -632.6115573048592, -2055.808046042919, -244.14066910743713
 1.7075955361544085E9, -320.9731737971306, -631.8934965133667, -2086.2059528827667, -212.30664068460464
 1.707595536184628E9, -330.7866712808609, -604.8465400338173, -2029.000443160534, -198.90283924341202
 1.707595536184628E9, -350.6530198454857, -624.9522421956062, -2023.7346640229225, -219.2478950023651
 1.707595536185122E9, -336.0524504184723, -638.3560436367989, -2071.126676261425, -207.51956874132156
 1.707595536185122E9, -320.01575940847397, -599.1020537018776, -2040.2500622272491, -182.8661482334137
 1.7075955361858258E9, -344.1904727220535, -595.033042550087, -2015.5966417193413, -217.09371262788773
 1.7075955361858258E9, -335.81309682130814, -630.6967285275459, -2065.142836332321, -220.20530939102173
 1.7075955361982758E9, -323.6060633659363, -605.5646008253098, -2066.100250720978, -192.679645717144
 1.7075955361982758E9, -340.83952236175537, -594.7936889529228, -2011.5276305675507, -199.38154643774033
 1.7075955362301395E9, -354.243323802948, -632.6115573048592, -2034.0268687009811, -212.30664068460464
 1.7075955362301395E9, -335.3343896269798, -635.9625076651573, -2075.674394607544, -197.22736406326294
 1.7075955362307632E9, -334.13762164115906, -596.2298105359077, -2029.000443160534, -190.52546334266663
 1.7075955362307632E9, -354.243323802948, -621.8406454324722, -2026.128199994564, -218.2904806137085
 1.7075955362315557E9, -339.40340077877045, -635.0050932765007, -2073.5202122330666, -208.71633672714233
 1.7075955362315557E9, -326.238952934742, -602.6923576593399, -2045.9945485591888, -189.0893417596817
 1.7075955362323325E9, -346.8233622908592, -607.479429602623, -2006.7405586242676, -201.77508240938187
 1.7075955362323325E9, -337.4885720014572, -635.7231540679932, -2057.244167625904, -214.46082305908203
 1.7075955362591252E9, -343.2330583333969, -605.3252472281456, -2019.1869456768036, -207.2802151441574
 1.7075955362591252E9, -356.3975061774254, -633.8083252906799, -2041.686183810234, -224.75302773714066
 1.7075955362595332E9, -329.58990329504013, -630.9360821247101, -2085.24853849411, -208.47698312997818
 1.7075955362595332E9, -329.58990329504013, -595.033042550087, -2037.3778190612793, -201.5357288122177
 1.7075955362735608E9, -358.3123349547386, -631.4147893190384, -2024.452724814415, -221.16272377967834
 1.7075955362735608E9, -334.61632883548737, -632.1328501105309, -2083.0943561196327, -221.16272377967834
 1.7075955362888737E9, -310.9203227162361, -593.3575673699379, -2055.808046042919, -203.45055758953094
 1.7075955362888737E9, -355.44009178876877, -613.702623128891, -2008.1766802072525, -211.34922629594803
 1.7075955362895348E9, -344.908533513546, -638.8347508311272, -2057.00481402874, -218.52983421087265
 1.7075955362895348E9, -322.4092953801155, -612.7452087402344, -2062.988653957844, -192.91899931430817
 1.7075955363029652E9, -337.72792559862137, -592.8788601756096, -2012.4850449562073, -197.4667176604271
 1.7075955363029652E9, -344.66917991638184, -621.6012918353081, -2037.3778190612793, -216.61500543355942
 1.7075955363186796E9, -328.1537817120552, -634.7657396793365, -2075.674394607544, -198.66348564624786
 1.7075955363186796E9, -327.1963673233986, -597.1872249245644, -2022.0591888427734, -188.13192737102509
 1.707595536319383E9, -343.9511191248894, -604.367832839489, -2013.2031057476997, -212.5459942817688
 1.707595536319383E9, -331.02602487802505, -627.3457781672478, -2066.8183115124702, -207.51956874132156
 1.7075955363332176E9, -323.6060633659363, -606.7613688111305, -2051.020974099636, -191.2435241341591
 1.7075955363332176E9, -345.3872407078743, -606.2826616168022, -2008.6553874015808, -207.75892233848572
 1.7075955363491344E9, -335.0950360298157, -631.4147893190384, -2054.13257086277, -209.67375111579895
 1.7075955363491344E9, -325.5208921432495, -624.7128885984421, -2071.366029858589, -200.5783144235611
 1.7075955363639076E9, -351.37108063697815, -605.3252472281456, -2029.7185039520264, -215.6575910449028
 1.7075955363639076E9, -367.8864788413048, -653.4353202581406, -2055.329338848591, -241.98648673295975
 1.7075955363644052E9, -335.0950360298157, -639.7921652197838, -2088.5994888544083, -218.52983421087265
 1.7075955363644052E9, -329.58990329504013, -607.2400760054588, -2035.7023438811302, -202.73249679803848
 1.7075955363789847E9, -361.9026389122009, -630.6967285275459, -2032.112039923668, -231.93363565206528
 1.7075955363789847E9, -339.40340077877045, -641.4676403999329, -2083.573063313961, -224.75302773714066
 1.7075955363794727E9, -303.97906839847565, -590.485324203968, -2042.1648910045624, -183.10550183057785
 1.7075955363794727E9, -334.61632883548737, -601.9742968678474, -2000.7567186951637, -202.73249679803848
 1.7075955363933916E9, -332.46214646101, -628.5425461530685, -2053.1751564741135, -216.37565183639526
 1.7075955363933916E9, -307.3300187587738, -611.5484407544136, -2066.578957915306, -199.38154643774033
 1.7075955364090376E9, -339.40340077877045, -604.1284792423248, -2013.442459344864, -207.75892233848572
 1.7075955364090376E9, -347.78077667951584, -627.3457781672478, -2041.686183810234, -228.1039780974388
 1.7075955364096475E9, -322.8880025744438, -631.8934965133667, -2089.0781960487366, -220.44466298818588
 1.7075955364096475E9, -327.91442811489105, -602.4530040621758, -2038.0958798527718, -202.97185039520264
 1.7075955364232612E9, -372.19484359025955, -644.3398835659027, -2043.3616589903831, -243.18325471878052
 1.7075955364232612E9, -336.29180401563644, -650.0843698978424, -2094.104621589184, -234.56652522087097
 1.7075955364389315E9, -317.3828698396683, -613.702623128891, -2063.228007555008, -207.51956874132156
 1.7075955364389315E9, -338.92469358444214, -613.702623128891, -2017.7508240938187, -228.1039780974388
 1.7075955364396217E9, -329.8292568922043, -634.0476788878441, -2060.355764389038, -229.54009968042374
 1.7075955364396217E9, -311.3990299105644, -619.4471094608307, -2070.4086154699326, -210.15245831012726
 1.7075955364533408E9, -317.1435162425041, -588.809849023819, -2014.1605201363564, -210.87051910161972
 1.7075955364533408E9, -333.4195608496666, -628.7818997502327, -2045.7551949620247, -230.97622126340866
 1.7075955364687483E9, -306.8513115644455, -627.1064245700836, -2081.4188809394836, -207.75892233848572
 1.7075955364687483E9, -313.5532122850418, -601.9742968678474, -2026.128199994564, -200.33896082639694
 1.7075955364695437E9, -340.1214615702629, -620.1651702523232, -2018.9475920796394, -223.55625975131989
 1.7075955364695437E9, -317.1435162425041, -631.1754357218742, -2070.4086154699326, -222.35949176549911
 1.707595536482986E9, -311.3990299105644, -602.9317112565041, -2060.8344715833664, -210.87051910161972
 1.707595536482986E9, -344.66917991638184, -614.1813303232193, -2021.341128051281, -231.69428205490112
 1.7075955364987304E9, -344.1904727220535, -652.9566130638123, -2068.4937866926193, -240.07165795564651
 1.7075955364987304E9, -309.9629083275795, -623.037413418293, -2077.589223384857, -210.63116550445557
 1.7075955364995496E9, -330.7866712808609, -607.7187831997871, -2026.6069071888924, -224.5136741399765
 1.7075955364995496E9, -345.8659479022026, -638.8347508311272, -2051.4996812939644, -243.18325471878052
 1.7075955365132809E9, -319.53705221414566, -635.0050932765007, -2082.6156489253044, -220.20530939102173
 1.7075955365132809E9, -320.01575940847397, -599.82011449337, -2041.686183810234, -216.85435903072357
 1.7075955365288541E9, -341.55758315324783, -623.9948278069496, -2027.564321577549, -230.97622126340866
 1.7075955365288541E9, -324.32412415742874, -641.2282868027687, -2087.6420744657516, -226.90721011161804
 1.707595536529529E9, -315.46804106235504, -620.1651702523232, -2066.578957915306, -213.74276226758957
 1.707595536529529E9, -334.61632883548737, -605.5646008253098, -2016.554056107998, -228.58268529176712
 1.70759553654301E9, -336.5311576128006, -645.5366515517235, -2067.0576651096344, -238.15682917833328
 1.70759553654301E9, -319.05834501981735, -630.4573749303818, -2087.1633672714233, -224.0349669456482
 1.7075955365586932E9, -341.0788759589195, -614.6600375175476, -2034.7449294924736, -229.30074608325958
 1.7075955365586932E9, -348.4988374710083, -645.7760051488876, -2058.440935611725, -255.39028817415237
 1.7075955365594115E9, -327.91442811489105, -645.2972979545593, -2103.439411878586, -239.1142435669899
 1.7075955365594115E9, -331.50473207235336, -620.6438774466515, -2053.1751564741135, -220.9233701825142
 1.7075955365732977E9, -347.30206948518753, -633.3296180963516, -2047.909377336502, -252.03933781385422
 1.7075955365732977E9, -339.6427543759346, -658.2223922014236, -2097.455571949482, -245.09808349609375
 1.7075955365887115E9, -321.4518809914589, -618.9684022665024, -2070.1692618727684, -226.42850291728973
 1.7075955365887115E9, -347.78077667951584, -620.8832310438156, -2023.01660323143, -235.76329320669174
 1.7075955365894926E9, -329.8292568922043, -642.6644083857536, -2066.339604318142, -237.67812198400497
 1.7075955365894926E9, -310.4416155219078, -627.1064245700836, -2073.7595658302307, -212.0672870874405
 1.7075955366034396E9, -329.350549697876, -600.2988216876984, -2023.7346640229225, -219.00854140520096
 1.7075955366034396E9, -348.73819106817245, -634.7657396793365, -2045.7551949620247, -241.98648673295975
 1.707595536618922E9, -324.5634777545929, -637.3986292481422, -2092.907853603363, -229.06139248609543
 1.707595536618922E9, -325.76024574041367, -608.9155511856079, -2050.781620502472, -224.9923813343048
 1.7075955366196537E9, -338.685339987278, -616.0961591005325, -2026.3675535917282, -232.8910500407219
 1.7075955366196537E9, -325.9995993375778, -646.0153587460518, -2087.4027208685875, -236.24200040102005
 1.7075955366330588E9, -328.87184250354767, -629.260606944561, -2072.0840906500816, -217.09371262788773
 1.7075955366330588E9, -344.1904727220535, -621.3619382381439, -2021.5804816484451, -235.28458601236343
 1.70759553664868E9, -332.46214646101, -640.9889332056046, -2068.4937866926193, -242.46519392728806
 1.70759553664868E9, -304.2184219956398, -618.9684022665024, -2074.7169802188873, -216.61500543355942
 1.7075955366494803E9, -323.3667097687721, -600.5381752848625, -2020.3837136626244, -220.44466298818588
 1.7075955366494803E9, -323.6060633659363, -629.9786677360535, -2040.2500622272491, -236.72070759534836
 1.7075955366633825E9, -302.0642396211624, -622.0799990296364, -2086.445306479931, -225.47108852863312
 1.7075955366633825E9, -303.2610076069832, -592.8788601756096, -2040.010708630085, -218.2904806137085
 1.7075955366787477E9, -337.4885720014572, -621.3619382381439, -2026.3675535917282, -241.50777953863144
 1.7075955366787477E9, -317.1435162425041, -645.2972979545593, -2084.769831299782, -236.24200040102005
 1.7075955366794512E9, -310.68096911907196, -620.8832310438156, -2066.8183115124702, -221.8807845711708
 1.7075955366794512E9, -331.98343926668167, -612.2665015459061, -2022.5378960371017, -243.42260831594467
 1.7075955366929936E9, -329.58990329504013, -646.0153587460518, -2066.339604318142, -242.46519392728806
 1.7075955366929936E9, -305.1758363842964, -621.8406454324722, -2084.2911241054535, -219.96595579385757
 1.7075955367088118E9, -326.238952934742, -607.0007224082947, -2029.239796757698, -225.94979572296143
 1.7075955367088118E9, -344.1904727220535, -640.9889332056046, -2049.345498919487, -244.8587298989296
 1.7075955367095475E9, -314.5106266736984, -638.595397233963, -2090.99302482605, -231.45492845773697
 1.7075955367095475E9, -311.3990299105644, -598.3839929103851, -2046.7126093506813, -224.5136741399765
 1.7075955367229452E9, -340.36081516742706, -628.3031925559044, -2031.3939791321754, -245.3374370932579
 1.7075955367229452E9, -326.7176601290703, -652.9566130638123, -2089.556903243065, -244.14066910743713
 1.7075955367551038E9, -312.83515149354935, -612.9845623373985, -2060.8344715833664, -215.89694464206696
 1.7075955367551038E9, -342.99370473623276, -613.702623128891, -2021.5804816484451, -236.72070759534836
 1.7075955367557852E9, -338.2066327929497, -650.5630770921707, -2072.0840906500816, -240.78971874713898
 1.7075955367557852E9, -320.4944666028023, -629.4999605417252, -2083.0943561196327, -222.35949176549911
 1.7075955367565136E9, -325.5208921432495, -604.6071864366531, -2031.6333327293396, -226.42850291728973
 1.7075955367565136E9, -347.78077667951584, -640.2708724141121, -2058.680289208889, -252.03933781385422
 1.7075955367572703E9, -322.8880025744438, -647.6908339262009, -2102.7213510870934, -244.14066910743713
 1.7075955367572703E9, -329.58990329504013, -618.2503414750099, -2050.3029133081436, -230.49751406908035
 1.7075955367679868E9, -351.37108063697815, -638.595397233963, -2045.7551949620247, -254.43287378549576
 1.7075955367679868E9, -331.7440856695175, -647.930187523365, -2096.019450366497, -247.73097306489944
 1.707595536783134E9, -309.9629083275795, -609.1549047827721, -2080.9401737451553, -228.34333169460297
 1.707595536783134E9, -336.77051120996475, -614.1813303232193, -2027.8036751747131, -244.3800227046013
 1.7075955367991724E9, -337.72792559862137, -652.7172594666481, -2072.323444247246, -249.40644824504852
 1.7075955367991724E9, -314.7499802708626, -627.5851317644119, -2085.009184896946, -223.07755255699158
 1.7075955367994509E9, -324.5634777545929, -604.367832839489, -2021.1017744541168, -221.16272377967834
 1.7075955367994509E9, -331.98343926668167, -622.0799990296364, -2040.4894158244133, -239.35359716415405
 1.707595536813408E9, -305.1758363842964, -626.3883637785912, -2081.658234536648, -219.48724859952927
 1.707595536813408E9, -316.6648090481758, -600.5381752848625, -2039.5320014357567, -210.87051910161972
 1.7075955368289795E9, -341.0788759589195, -619.925816655159, -2027.0856143832207, -237.67812198400497
 1.7075955368289795E9, -331.50473207235336, -652.477905869484, -2081.897588133812, -230.49751406908035
 1.7075955368294544E9, -313.31385868787766, -617.5322806835175, -2065.142836332321, -210.63116550445557
 1.7075955368294544E9, -330.7866712808609, -606.2826616168022, -2015.5966417193413, -223.31690615415573
 1.7075955368432345E9, -326.4783065319061, -641.9463475942612, -2062.7493003606796, -236.72070759534836
 1.7075955368432345E9, -302.30359321832657, -618.9684022665024, -2079.025344967842, -210.87051910161972
 1.707595536858944E9, -330.06861048936844, -610.8303799629211, -2024.6920784115791, -219.48724859952927
 1.707595536858944E9, -343.2330583333969, -638.1166900396347, -2049.584852516651, -243.18325471878052
 1.707595536859514E9, -317.6222234368324, -650.3237234950066, -2096.9768647551537, -230.01880687475204
 1.707595536859514E9, -324.0847705602646, -607.479429602623, -2053.1751564741135, -226.90721011161804
 1.7075955368730395E9, -346.10530149936676, -630.2180213332176, -2036.6597582697868, -243.90131551027298
 1.7075955368730395E9, -338.2066327929497, -659.6585137844086, -2095.3013895750046, -242.46519392728806
 1.7075955368886173E9, -317.6222234368324, -613.4632695317268, -2073.998919427395, -216.37565183639526
 1.7075955368886173E9, -342.03629034757614, -627.8244853615761, -2027.0856143832207, -231.93363565206528
 1.7075955368893554E9, -330.3079640865326, -636.9199220538139, -2064.903482735157, -239.35359716415405
 1.7075955368893554E9, -310.68096911907196, -629.4999605417252, -2076.3924553990364, -218.52983421087265
 1.707595536902943E9, -321.4518809914589, -597.6659321188927, -2026.8462607860565, -221.64143097400665
 1.707595536902943E9, -331.2653784751892, -630.4573749303818, -2044.797780573368, -239.1142435669899
 1.7075955369190953E9, -309.72355473041534, -629.4999605417252, -2093.147207200527, -228.58268529176712
 1.7075955369190953E9, -320.01575940847397, -607.479429602623, -2043.122305393219, -213.74276226758957
 1.7075955369195328E9, -337.72792559862137, -624.4735350012779, -2027.8036751747131, -238.39618277549744
 1.7075955369195328E9, -324.80283135175705, -646.7334195375443, -2081.897588133812, -229.7794532775879
 1.707595536933066E9, -304.6971291899681, -608.9155511856079, -2066.8183115124702, -216.61500543355942
 1.707595536933066E9, -328.1537817120552, -603.1710648536682, -2014.1605201363564, -222.12013816833496
 1.7075955369488668E9, -330.3079640865326, -633.5689716935158, -2066.339604318142, -240.55036514997482
 1.7075955369488668E9, -313.79256588220596, -634.7657396793365, -2078.546637773514, -219.96595579385757
 1.7075955369495497E9, -324.32412415742874, -605.5646008253098, -2026.8462607860565, -219.48724859952927
 1.7075955369495497E9, -337.9672791957855, -633.8083252906799, -2044.0797197818756, -236.24200040102005
 1.7075955369632163E9, -312.35644429922104, -632.372203707695, -2093.3865607976913, -226.18914932012558
 1.7075955369632163E9, -320.73382019996643, -607.0007224082947, -2044.558426976204, -211.82793349027634
 1.7075955369787784E9, -342.2756439447403, -620.8832310438156, -2036.1810510754585, -238.6355363726616
 1.7075955369787784E9, -338.685339987278, -658.701099395752, -2086.684660077095, -237.91747558116913
 1.7075955369795127E9, -322.8880025744438, -620.8832310438156, -2072.0840906500816, -214.70017665624619
 1.7075955369795127E9, -334.61632883548737, -614.8993911147118, -2022.5378960371017, -232.41234284639359
 1.707595536993234E9, -335.573743224144, -643.8611763715744, -2072.56279784441, -241.02907234430313
 1.707595536993234E9, -316.90416264533997, -621.8406454324722, -2086.445306479931, -219.72660219669342
 1.7075955370089154E9, -327.6750745177269, -601.9742968678474, -2020.6230672597885, -217.09371262788773
 1.7075955370089154E9, -344.66917991638184, -639.5528116226196, -2047.4306701421738, -244.61937630176544
 1.707595537009654E9, -322.4092953801155, -645.0579443573952, -2105.354240655899, -239.1142435669899
 1.707595537009654E9, -320.73382019996643, -603.8891256451607, -2036.899111866951, -202.25378960371017
 1.707595537022962E9, -340.1214615702629, -619.4471094608307, -2025.8888463974, -228.34333169460297
 1.707595537022962E9, -317.1435162425041, -617.0535734891891, -2073.5202122330666, -218.7691878080368
 1.7075955370388715E9, -319.53705221414566, -614.4206839203835, -2061.552532374859, -201.77508240938187
 1.7075955370388715E9, -338.92469358444214, -602.2136504650116, -2007.45861941576, -212.0672870874405
 1.7075955370394962E9, -335.81309682130814, -633.5689716935158, -2051.2603276968002, -225.47108852863312
 1.7075955370394962E9, -316.6648090481758, -620.4045238494873, -2074.9563338160515, -205.12603276968002
 1.707595537053126E9, -326.4783065319061, -593.3575673699379, -2014.8785809278488, -205.36538636684418
 1.707595537053126E9, -337.24921840429306, -622.0799990296364, -2035.7023438811302, -226.18914932012558
 1.707595537068806E9, -315.2286874651909, -637.3986292481422, -2080.461466550827, -209.19504392147064
 1.707595537068806E9, -324.80283135175705, -605.8039544224739, -2042.4042446017265, -198.90283924341202
 1.707595537069723E9, -342.2756439447403, -609.1549047827721, -2020.3837136626244, -221.8807845711708
 1.707595537069723E9, -323.12735617160797, -628.5425461530685, -2073.0415050387383, -218.05112701654434
 1.7075955370830493E9, -320.9731737971306, -620.6438774466515, -2060.116410791874, -203.45055758953094
 1.7075955370830493E9, -342.51499754190445, -614.8993911147118, -2013.9211665391922, -222.35949176549911
 1.7075955370986476E9, -341.55758315324783, -645.7760051488876, -2061.3131787776947, -227.86462450027466
 1.7075955370986476E9, -317.3828698396683, -619.6864630579948, -2072.56279784441, -200.0996072292328
 1.7075955370994332E9, -327.43572092056274, -593.3575673699379, -2021.5804816484451, -204.1686183810234
 1.7075955370994332E9, -338.2066327929497, -618.4896950721741, -2040.7287694215775, -229.06139248609543
 1.707595537113198E9, -316.6648090481758, -633.3296180963516, -2085.4878920912743, -215.1788838505745
 1.707595537113198E9, -323.3667097687721, -606.2826616168022, -2037.1384654641151, -195.79124248027802
 1.7075955371288543E9, -342.51499754190445, -625.9096565842628, -2023.7346640229225, -229.30074608325958
 1.7075955371288543E9, -328.39313530921936, -649.8450163006783, -2082.3762953281403, -227.38591730594635
 1.707595537129542E9, -316.1861018538475, -612.5058551430702, -2064.4247755408287, -208.23762953281403
 1.707595537129542E9, -332.70150005817413, -596.9478713274002, -2018.229531288147, -225.94979572296143
 1.7075955371430316E9, -352.32849502563477, -652.7172594666481, -2064.664129137993, -235.28458601236343
 1.7075955371430316E9, -321.4518809914589, -628.5425461530685, -2079.5040521621704, -207.99827593564987
 1.7075955371588445E9, -329.1111961007118, -602.4530040621758, -2012.4850449562073, -198.4241320490837
 1.7075955371588445E9, -343.9511191248894, -628.7818997502327, -2040.7287694215775, -229.30074608325958
 1.7075955371595397E9, -320.2551130056381, -633.5689716935158, -2089.556903243065, -216.37565183639526
 1.7075955371595397E9, -310.20226192474365, -598.8627001047134, -2038.335233449936, -201.5357288122177
 1.7075955371730342E9, -341.3182295560837, -623.037413418293, -2027.3249679803848, -224.0349669456482
 1.7075955371730342E9, -330.3079640865326, -643.1431155800819, -2084.769831299782, -230.49751406908035
 1.7075955371886961E9, -317.8615770339966, -610.1123191714287, -2066.100250720978, -208.47698312997818
 1.7075955371886961E9, -335.3343896269798, -608.4368439912796, -2019.1869456768036, -219.2478950023651
 1.7075955371894584E9, -343.9511191248894, -645.7760051488876, -2059.6377035975456, -230.2581604719162
 1.7075955371894584E9, -316.6648090481758, -621.3619382381439, -2080.700820147991, -209.19504392147064
 1.707595537203568E9, -330.7866712808609, -604.1284792423248, -2023.7346640229225, -213.26405507326126
 1.707595537203568E9, -351.84978783130646, -637.8773364424706, -2036.6597582697868, -224.27432054281235
 1.7075955372190125E9, -314.5106266736984, -626.3883637785912, -2079.2646985650063, -206.8015079498291
 1.7075955372190125E9, -325.9995993375778, -614.1813303232193, -2048.6274381279945, -208.9556903243065
 1.7075955372195024E9, -337.0098648071289, -610.1123191714287, -2020.1443600654602, -216.1362982392311
 1.7075955372195024E9, -331.2653784751892, -648.1695411205292, -2077.8285769820213, -224.0349669456482
 1.7075955372331874E9, -321.9305881857872, -620.8832310438156, -2062.5099467635155, -200.81766802072525
 1.7075955372331874E9, -342.7543511390686, -604.367832839489, -2021.8198352456093, -220.20530939102173
 1.7075955372481296E9, -345.3872407078743, -646.0153587460518, -2060.8344715833664, -230.49751406908035
 1.7075955372481296E9, -325.0421849489212, -628.5425461530685, -2083.812416911125, -211.82793349027634
 1.7075955372640605E9, -354.48267740011215, -637.3986292481422, -2056.0473996400833, -244.8587298989296
 1.7075955372640605E9, -326.7176601290703, -646.0153587460518, -2097.216218352318, -225.47108852863312
 1.7075955372646163E9, -329.8292568922043, -618.4896950721741, -2048.1487309336662, -211.10987269878387
 1.7075955372646163E9, -346.58400869369507, -627.5851317644119, -2029.7185039520264, -231.69428205490112
 1.7075955372943478E9, -330.3079640865326, -648.8876019120216, -2086.2059528827667, -235.04523241519928
 1.7075955372943478E9, -319.05834501981735, -614.6600375175476, -2072.802151441574, -210.15245831012726
 1.7075955372950683E9, -341.3182295560837, -616.5748662948608, -2023.4953104257584, -230.01880687475204
 1.7075955372950683E9, -336.5311576128006, -638.8347508311272, -2061.791885972023, -232.17298924922943
 1.7075955372958755E9, -317.1435162425041, -637.6379828453064, -2083.573063313961, -213.74276226758957
 1.7075955372958755E9, -328.6324889063835, -603.8891256451607, -2026.128199994564, -212.0672870874405
 1.7075955373079877E9, -339.6427543759346, -630.4573749303818, -2045.0371341705322, -236.24200040102005
 1.7075955373079877E9, -322.16994178295135, -643.8611763715744, -2086.924013674259, -220.68401658535004
 1.7075955373236635E9, -317.8615770339966, -600.7775288820267, -2050.781620502472, -212.5459942817688
 1.7075955373236635E9, -342.03629034757614, -623.037413418293, -2032.351393520832, -234.80587881803513
 1.7075955373243911E9, -334.13762164115906, -648.6482483148575, -2087.6420744657516, -228.34333169460297
 1.7075955373243911E9, -322.16994178295135, -620.4045238494873, -2067.5363723039627, -207.99827593564987
 1.7075955373384392E9, -345.8659479022026, -608.4368439912796, -2020.8624208569527, -221.8807845711708
 1.7075955373384392E9, -344.908533513546, -641.706993997097, -2057.244167625904, -227.86462450027466
 1.7075955373539448E9, -311.87773710489273, -628.7818997502327, -2078.546637773514, -205.36538636684418
 1.7075955373539448E9, -332.70150005817413, -602.9317112565041, -2021.5804816484451, -207.99827593564987
 1.7075955373544548E9, -336.5311576128006, -625.1915957927704, -2032.351393520832, -224.75302773714066
 1.7075955373544548E9, -314.27127307653427, -635.0050932765007, -2087.1633672714233, -217.33306622505188
 1.7075955373679676E9, -319.7764058113098, -606.2826616168022, -2044.558426976204, -206.08344715833664
 1.7075955373679676E9, -356.3975061774254, -636.4412148594856, -2030.9152719378471, -232.8910500407219
 1.7075955373839805E9, -334.61632883548737, -652.2385522723198, -2081.897588133812, -228.58268529176712
 1.7075955373839805E9, -312.5957978963852, -615.1387447118759, -2071.6053834557533, -206.56215435266495
 1.7075955373844943E9, -350.6530198454857, -626.6277173757553, -2041.686183810234, -240.07165795564651
 1.7075955373844943E9, -339.88210797309875, -644.818590760231, -2074.477626621723, -246.05549788475037
 1.7075955373980486E9, -325.76024574041367, -642.9037619829178, -2095.780096769333, -230.49751406908035
 1.7075955373980486E9, -336.5311576128006, -618.7290486693382, -2035.7023438811302, -222.59884536266327
 1.7075955374141147E9, -342.03629034757614, -638.3560436367989, -2042.6435981988907, -238.87488996982574
 1.7075955374141147E9, -317.6222234368324, -644.1005299687386, -2093.6259143948555, -223.07755255699158
 1.7075955374145486E9, -306.13325077295303, -592.1607993841171, -2044.0797197818756, -206.3228007555008
 1.7075955374145486E9, -340.36081516742706, -617.5322806835175, -2022.777249634266, -226.90721011161804
 1.7075955374283192E9, -336.5311576128006, -647.2121267318726, -2078.3072841763496, -227.6252709031105
 1.7075955374283192E9, -314.27127307653427, -613.4632695317268, -2067.2970187067986, -213.74276226758957
 1.7075955374436872E9, -334.61632883548737, -607.7187831997871, -2020.6230672597885, -223.55625975131989
 1.7075955374436872E9, -335.573743224144, -637.8773364424706, -2056.2867532372475, -230.7368676662445
 1.707595537444399E9, -314.0319194793701, -624.2341814041138, -2076.1531018018723, -208.9556903243065
 1.707595537444399E9, -318.3402842283249, -589.0492026209831, -2022.0591888427734, -213.74276226758957
 1.7075955374579997E9, -344.1904727220535, -640.2708724141121, -2036.4204046726227, -229.06139248609543
 1.7075955374579997E9, -327.1963673233986, -649.1269555091858, -2087.4027208685875, -219.48724859952927
 1.7075955374736054E9, -324.0847705602646, -608.4368439912796, -2040.4894158244133, -203.92926478385925
 1.7075955374736054E9, -345.62659430503845, -615.8568055033684, -2020.6230672597885, -225.47108852863312
 1.707595537474362E9, -330.7866712808609, -643.8611763715744, -2069.9299082756042, -217.09371262788773
 1.707595537474362E9, -307.3300187587738, -607.479429602623, -2060.5951179862022, -196.74865686893463
 1.7075955374886177E9, -343.2330583333969, -609.1549047827721, -2015.117934525013, -216.85435903072357
 1.7075955374886177E9, -346.10530149936676, -653.4353202581406, -2057.9622284173965, -230.97622126340866
 1.7075955375039167E9, -321.4518809914589, -628.7818997502327, -2079.5040521621704, -206.08344715833664
 1.7075955375039167E9, -324.32412415742874, -599.5807608962059, -2023.9740176200867, -212.0672870874405
 1.7075955375044801E9, -348.4988374710083, -641.2282868027687, -2046.9519629478455, -237.67812198400497
 1.7075955375044801E9, -327.1963673233986, -644.3398835659027, -2097.216218352318, -228.58268529176712
 1.7075955375179307E9, -324.0847705602646, -607.2400760054588, -2053.1751564741135, -217.09371262788773
 1.7075955375179307E9, -341.55758315324783, -621.1225846409798, -2025.8888463974, -233.60911083221436
 1.707595537533838E9, -327.43572092056274, -654.6320882439613, -2081.897588133812, -229.30074608325958
 1.707595537533838E9, -314.5106266736984, -617.2929270863533, -2060.8344715833664, -205.36538636684418
 1.707595537534679E9, -339.40340077877045, -616.3355126976967, -2023.01660323143, -236.0026468038559
 1.707595537534679E9, -342.99370473623276, -642.1857011914253, -2067.775725901127, -241.50777953863144
 1.7075955375482135E9, -312.35644429922104, -626.6277173757553, -2082.3762953281403, -208.9556903243065
 1.7075955375482135E9, -321.69123458862305, -593.1182137727737, -2029.239796757698, -214.93953025341034
 1.7075955375638735E9, -341.0788759589195, -631.6541429162025, -2043.3616589903831, -236.4813539981842
 1.7075955375638735E9, -318.3402842283249, -647.6908339262009, -2087.881428062916, -220.9233701825142
 1.7075955375644877E9, -324.80283135175705, -613.4632695317268, -2050.781620502472, -210.3918119072914
 1.7075955375644877E9, -342.2756439447403, -623.2767670154572, -2031.8726863265038, -236.0026468038559
 1.7075955375782752E9, -326.95701372623444, -643.6218227744102, -2084.5304777026176, -236.9600611925125
 1.7075955375782752E9, -316.6648090481758, -627.1064245700836, -2078.546637773514, -223.07755255699158
 1.7075955375938709E9, -337.4885720014572, -614.1813303232193, -2025.4101392030716, -234.56652522087097
 1.7075955375938709E9, -339.40340077877045, -647.6908339262009, -2068.254433095455, -245.3374370932579
 1.7075955375945132E9, -317.6222234368324, -631.1754357218742, -2090.7536712288857, -220.20530939102173
 1.7075955375945132E9, -327.1963673233986, -611.0697335600853, -2040.010708630085, -228.1039780974388
 1.7075955376079848E9, -343.47241193056107, -636.9199220538139, -2056.5261068344116, -250.12450903654099
 1.7075955376079848E9, -318.3402842283249, -644.5792371630669, -2101.7639366984367, -230.97622126340866
 1.7075955376237588E9, -326.7176601290703, -626.149010181427, -2057.7228748202324, -224.9923813343048
 1.7075955376237588E9, -341.796936750412, -623.9948278069496, -2033.787515103817, -241.26842594146729
 1.7075955376245296E9, -331.2653784751892, -647.6908339262009, -2089.796256840229, -237.91747558116913
 1.7075955376245296E9, -315.7073946595192, -617.0535734891891, -2078.546637773514, -216.1362982392311
 1.7075955376379836E9, -330.3079640865326, -609.6336119771004, -2030.9152719378471, -234.32717162370682
 1.7075955376379836E9, -329.1111961007118, -637.8773364424706, -2070.1692618727684, -242.7045475244522
 1.707595537653721E9, -318.57963782548904, -634.0476788878441, -2087.6420744657516, -227.6252709031105
 1.707595537653721E9, -330.54731768369675, -603.1710648536682, -2034.9842830896378, -223.79561334848404
 1.7075955376544597E9, -344.66917991638184, -631.4147893190384, -2047.4306701421738, -242.7045475244522
 1.7075955376544597E9, -314.27127307653427, -631.1754357218742, -2097.9342791438103, -227.6252709031105
 1.7075955376684897E9, -317.1435162425041, -607.479429602623, -2055.329338848591, -215.1788838505745
 1.7075955376684897E9, -343.9511191248894, -628.7818997502327, -2038.8139406442642, -240.31101155281067
 1.707595537683932E9, -326.95701372623444, -649.36630910635, -2088.5994888544083, -238.87488996982574
 1.707595537683932E9, -322.4092953801155, -620.4045238494873, -2077.110516190529, -216.85435903072357
 1.70759553768451E9, -331.7440856695175, -606.7613688111305, -2032.351393520832, -236.0026468038559
 1.70759553768451E9, -338.44598639011383, -648.6482483148575, -2071.366029858589, -239.35359716415405
 1.7075955376979961E9, -318.3402842283249, -635.2444468736649, -2089.0781960487366, -220.44466298818588
 1.7075955376979961E9, -330.54731768369675, -613.2239159345627, -2033.787515103817, -219.48724859952927
 1.7075955377141604E9, -339.88210797309875, -633.5689716935158, -2050.781620502472, -241.98648673295975
 1.7075955377141604E9, -311.6383835077286, -638.595397233963, -2099.8491079211235, -230.2581604719162
 1.7075955377145793E9, -316.6648090481758, -614.1813303232193, -2053.6538636684418, -216.85435903072357
 1.7075955377145793E9, -339.6427543759346, -623.2767670154572, -2027.564321577549, -231.69428205490112
 1.7075955377279398E9, -326.7176601290703, -648.8876019120216, -2085.9665992856026, -234.08781802654266
 1.7075955377279398E9, -307.8087259531021, -615.1387447118759, -2067.775725901127, -210.63116550445557
 1.7075955377436967E9, -335.573743224144, -609.1549047827721, -2026.3675535917282, -228.1039780974388
 1.7075955377436967E9, -331.7440856695175, -633.8083252906799, -2067.0576651096344, -241.02907234430313
 1.7075955377445333E9, -325.5208921432495, -640.2708724141121, -2098.6523399353027, -228.34333169460297
 1.7075955377445333E9, -334.13762164115906, -620.4045238494873, -2043.122305393219, -233.13040363788605
 1.7075955377579749E9, -374.1096723675728, -659.6585137844086, -2072.802151441574, -268.55473601818085
 1.7075955377579749E9, -315.2286874651909, -631.8934965133667, -2088.5994888544083, -220.20530939102173
 1.707595537773677E9, -320.4944666028023, -607.9581367969513, -2046.4732557535172, -207.2802151441574
 1.707595537773677E9, -329.350549697876, -598.8627001047134, -2012.006337761879, -211.82793349027634
 1.7075955377744775E9, -326.95701372623444, -633.0902644991875, -2079.9827593564987, -222.83819895982742
 1.7075955377744775E9, -308.04807955026627, -612.2665015459061, -2062.031239569187, -198.18477845191956
 1.707595537788278E9, -334.61632883548737, -604.1284792423248, -2017.0327633023262, -217.8117734193802
 1.707595537788278E9, -328.1537817120552, -623.2767670154572, -2047.4306701421738, -227.1465637087822
 1.707595537803818E9, -314.7499802708626, -614.4206839203835, -2077.110516190529, -208.23762953281403
 1.707595537803818E9, -314.7499802708626, -581.3898875117302, -2020.1443600654602, -206.8015079498291
 1.7075955378044791E9, -342.99370473623276, -624.9522421956062, -2032.8301007151604, -223.55625975131989
 1.7075955378044791E9, -321.69123458862305, -641.2282868027687, -2081.658234536648, -215.89694464206696
 1.707595537818329E9, -313.5532122850418, -601.4955896735191, -2043.3616589903831, -200.5783144235611
 1.707595537818329E9, -343.9511191248894, -619.925816655159, -2029.000443160534, -232.65169644355774
 1.7075955378338015E9, -328.6324889063835, -636.4412148594856, -2077.589223384857, -234.32717162370682
 1.7075955378338015E9, -312.5957978963852, -608.4368439912796, -2071.126676261425, -214.93953025341034
 1.707595537834557E9, -333.8982680439949, -606.7613688111305, -2019.1869456768036, -220.20530939102173
 1.707595537834557E9, -342.2756439447403, -644.818590760231, -2061.791885972023, -233.13040363788605
 1.7075955378483083E9, -313.79256588220596, -631.6541429162025, -2082.6156489253044, -211.10987269878387
 1.7075955378483083E9, -324.32412415742874, -600.0594680905342, -2026.6069071888924, -214.46082305908203
 1.7075955378639255E9, -328.6324889063835, -615.1387447118759, -2039.7713550329208, -231.69428205490112
 1.7075955378639255E9, -309.24484753608704, -630.6967285275459, -2081.658234536648, -216.85435903072357
 1.7075955378645785E9, -312.5957978963852, -596.2298105359077, -2036.4204046726227, -201.77508240938187
 1.7075955378645785E9, -336.29180401563644, -616.814219892025, -2017.7508240938187, -225.71044212579727
 1.707595537894366E9, -321.69123458862305, -632.8509109020233, -2073.0415050387383, -224.9923813343048
 1.707595537894366E9, -309.0054939389229, -608.1974903941154, -2056.765460431576, -196.26994967460632
 1.7075955378950417E9, -334.8556824326515, -600.0594680905342, -2015.3572881221771, -218.05112701654434
 1.7075955378950417E9, -333.65891444683075, -630.4573749303818, -2055.808046042919, -232.65169644355774
 1.7075955378957818E9, -319.7764058113098, -632.6115573048592, -2074.7169802188873, -207.2802151441574
 1.7075955378957818E9, -334.8556824326515, -605.3252472281456, -2031.6333327293396, -218.05112701654434
 1.7075955379080236E9, -346.3446550965309, -629.260606944561, -2037.3778190612793, -228.34333169460297
 1.7075955379080236E9, -318.57963782548904, -632.1328501105309, -2086.2059528827667, -221.16272377967834
 1.7075955379237063E9, -316.90416264533997, -604.367832839489, -2045.2764877676964, -212.78534787893295
 1.7075955379237063E9, -346.8233622908592, -629.260606944561, -2028.7610895633698, -229.54009968042374
 1.7075955379243853E9, -325.9995993375778, -637.1592756509781, -2073.2808586359024, -223.79561334848404
 1.7075955379243853E9, -314.5106266736984, -616.5748662948608, -2071.126676261425, -214.93953025341034
 1.7075955379383798E9, -329.8292568922043, -590.2459706068039, -2018.229531288147, -219.48724859952927
 1.7075955379383798E9, -331.50473207235336, -626.149010181427, -2052.696449279785, -230.2581604719162
 1.707595537953918E9, -318.10093063116074, -627.8244853615761, -2082.136941730976, -214.46082305908203
 1.707595537953918E9, -331.7440856695175, -607.479429602623, -2029.000443160534, -216.61500543355942
 1.707595537954456E9, -345.3872407078743, -628.3031925559044, -2042.4042446017265, -245.09808349609375
 1.707595537954456E9, -316.42545545101166, -631.4147893190384, -2082.6156489253044, -219.96595579385757
 1.707595537967988E9, -325.0421849489212, -607.9581367969513, -2049.106145322323, -210.87051910161972
 1.707595537967988E9, -332.9408536553383, -606.2826616168022, -2024.6920784115791, -227.6252709031105
 1.7075955379841073E9, -314.98933386802673, -630.9360821247101, -2070.1692618727684, -224.75302773714066
 1.7075955379841073E9, -319.05834501981735, -617.0535734891891, -2070.1692618727684, -212.0672870874405
 1.707595537984498E9, -325.5208921432495, -592.6395065784454, -2014.8785809278488, -224.75302773714066
 1.707595537984498E9, -331.02602487802505, -639.7921652197838, -2052.457095682621, -233.3697572350502
 1.7075955379984417E9, -314.27127307653427, -632.8509109020233, -2076.8711625933647, -220.44466298818588
 1.7075955379984417E9, -324.80283135175705, -606.5220152139664, -2033.787515103817, -225.47108852863312
 1.7075955380139248E9, -340.36081516742706, -621.6012918353081, -2039.5320014357567, -241.7471331357956
 1.7075955380139248E9, -317.3828698396683, -640.9889332056046, -2093.8652679920197, -230.7368676662445
 1.7075955380145545E9, -308.2874331474304, -604.367832839489, -2048.8667917251587, -211.82793349027634
 1.7075955380145545E9, -342.7543511390686, -616.814219892025, -2034.5055758953094, -241.98648673295975
 1.7075955380280752E9, -328.87184250354767, -647.2121267318726, -2083.812416911125, -239.5929507613182
 1.7075955380280752E9, -307.56937235593796, -616.814219892025, -2072.323444247246, -216.37565183639526
 1.7075955380440464E9, -330.06861048936844, -606.0433080196381, -2021.5804816484451, -229.54009968042374
 1.7075955380440464E9, -342.99370473623276, -644.818590760231, -2057.9622284173965, -238.87488996982574
 1.7075955380444877E9, -327.91442811489105, -633.8083252906799, -2089.3175496459007, -224.27432054281235
 1.7075955380444877E9, -319.53705221414566, -586.4163130521774, -2028.2823823690414, -217.33306622505188
 1.7075955380580409E9, -347.78077667951584, -635.483800470829, -2042.8829517960548, -241.26842594146729
 1.7075955380580409E9, -328.6324889063835, -651.9991986751556, -2099.8491079211235, -232.8910500407219
 1.7075955380736475E9, -325.76024574041367, -617.7716342806816, -2053.6538636684418, -219.48724859952927
 1.7075955380736475E9, -354.48267740011215, -639.0741044282913, -2032.351393520832, -243.42260831594467
 1.7075955380743568E9, -341.55758315324783, -650.5630770921707, -2079.2646985650063, -238.39618277549744
 1.7075955380743568E9, -316.90416264533997, -621.6012918353081, -2071.6053834557533, -214.46082305908203
 1.7075955380880668E9, -330.3079640865326, -590.485324203968, -2020.1443600654602, -224.0349669456482
 1.7075955380880668E9, -346.58400869369507, -653.4353202581406, -2064.903482735157, -242.94390112161636
 1.7075955381039503E9, -328.39313530921936, -644.5792371630669, -2089.556903243065, -216.37565183639526
 1.7075955381039503E9, -334.61632883548737, -618.4896950721741, -2034.9842830896378, -216.1362982392311
 1.7075955381045291E9, -343.2330583333969, -633.5689716935158, -2040.7287694215775, -240.78971874713898
 1.7075955381045291E9, -306.13325077295303, -630.6967285275459, -2090.7536712288857, -226.42850291728973
 1.707595538118039E9, -311.87773710489273, -608.1974903941154, -2050.781620502472, -215.1788838505745
 1.707595538118039E9, -337.4885720014572, -614.4206839203835, -2025.1707856059074, -236.72070759534836
 1.707595538133706E9, -321.4518809914589, -639.3134580254555, -2079.9827593564987, -233.60911083221436
 1.707595538133706E9, -313.5532122850418, -626.8670709729195, -2065.3821899294853, -215.1788838505745
 1.7075955381344275E9, -338.92469358444214, -613.702623128891, -2021.341128051281, -231.45492845773697
 1.7075955381344275E9, -332.70150005817413, -644.1005299687386, -2062.988653957844, -243.18325471878052
 1.707595538148274E9, -317.1435162425041, -632.6115573048592, -2091.7110856175423, -222.59884536266327
 1.707595538148274E9, -320.4944666028023, -609.8729655742645, -2038.8139406442642, -219.48724859952927
 1.7075955381637945E9, -334.8556824326515, -625.1915957927704, -2039.7713550329208, -241.98648673295975
 1.7075955381637945E9, -324.5634777545929, -651.7598450779915, -2093.147207200527, -230.49751406908035
 1.7075955381645017E9, -331.2653784751892, -620.1651702523232, -2057.4835212230682, -209.67375111579895
 1.7075955381645017E9, -348.4988374710083, -625.1915957927704, -2031.1546255350113, -236.0026468038559
 1.707595538178034E9, -332.70150005817413, -647.930187523365, -2082.6156489253044, -237.43876838684082
 1.707595538178034E9, -310.68096911907196, -621.1225846409798, -2078.3072841763496, -222.59884536266327
 1.707595538193762E9, -335.0950360298157, -614.6600375175476, -2025.1707856059074, -230.01880687475204
 1.707595538193762E9, -334.8556824326515, -637.8773364424706, -2064.4247755408287, -246.05549788475037
 1.7075955381944466E9, -319.05834501981735, -635.483800470829, -2093.6259143948555, -232.41234284639359
 1.7075955381944466E9, -332.9408536553383, -617.0535734891891, -2044.3190733790398, -228.1039780974388
 1.7075955382080128E9, -346.58400869369507, -644.1005299687386, -2048.6274381279945, -251.0819234251976
 1.7075955382080128E9, -330.7866712808609, -654.6320882439613, -2110.3806661963463, -252.03933781385422
 1.707595538224017E9, -324.32412415742874, -623.7554742097855, -2065.8608971238136, -232.8910500407219
 1.707595538224017E9, -347.30206948518753, -624.7128885984421, -2036.1810510754585, -247.4916194677353
 1.7075955382245264E9, -335.3343896269798, -652.2385522723198, -2079.5040521621704, -236.9600611925125
 1.7075955382245264E9, -315.46804106235504, -621.1225846409798, -2071.126676261425, -215.1788838505745
 1.707595538238302E9, -334.13762164115906, -604.8465400338173, -2020.8624208569527, -224.75302773714066
 1.707595538238302E9, -339.88210797309875, -642.4250547885895, -2063.7067147493362, -241.26842594146729
 1.7075955382531064E9, -318.8189914226532, -643.1431155800819, -2088.8388424515724, -224.0349669456482
 1.7075955382531064E9, -329.58990329504013, -616.0961591005325, -2040.4894158244133, -231.45492845773697
 1.7075955382690303E9, -317.8615770339966, -640.9889332056046, -2081.658234536648, -223.31690615415573
 1.7075955382690303E9, -316.1861018538475, -613.4632695317268, -2054.8506316542625, -220.20530939102173
 1.707595538269529E9, -336.5311576128006, -616.5748662948608, -2024.2133712172508, -236.4813539981842
 1.707595538269529E9, -316.90416264533997, -628.3031925559044, -2077.589223384857, -232.17298924922943
 1.70759553828331E9, -306.61195796728134, -617.0535734891891, -2062.7493003606796, -200.33896082639694
 1.70759553828331E9, -335.81309682130814, -608.4368439912796, -2008.894740998745, -214.70017665624619
 1.7075955382991676E9, -340.83952236175537, -641.2282868027687, -2053.6538636684418, -236.4813539981842
 1.7075955382991676E9, -318.3402842283249, -631.6541429162025, -2083.812416911125, -218.2904806137085
 1.7075955382994506E9, -324.5634777545929, -603.8891256451607, -2030.675918340683, -215.1788838505745
 1.7075955382994506E9, -342.51499754190445, -634.7657396793365, -2032.8301007151604, -229.06139248609543
 1.7075955383129442E9, -315.2286874651909, -636.9199220538139, -2093.147207200527, -223.31690615415573
 1.7075955383129442E9, -314.5106266736984, -607.9581367969513, -2054.3719244599342, -216.37565183639526
 1.7075955383287292E9, -339.88210797309875, -617.2929270863533, -2026.3675535917282, -233.60911083221436
 1.7075955383287292E9, -325.9995993375778, -640.9889332056046, -2078.3072841763496, -228.82203888893127
 1.707595538329478E9, -308.7661403417587, -617.0535734891891, -2071.126676261425, -207.99827593564987
 1.707595538329478E9, -339.1640471816063, -617.0535734891891, -2022.0591888427734, -221.64143097400665
 1.7075955383434489E9, -339.6427543759346, -643.1431155800819, -2052.457095682621, -230.49751406908035
 1.7075955383434489E9, -317.1435162425041, -634.0476788878441, -2087.6420744657516, -218.05112701654434
 1.707595538359138E9, -341.0788759589195, -610.591026365757, -2029.9578575491905, -212.0672870874405
 1.707595538359138E9, -350.6530198454857, -629.0212533473969, -2056.0473996400833, -252.03933781385422
 1.70759553835966E9, -324.5634777545929, -650.3237234950066, -2096.4981575608253, -234.08781802654266
 1.70759553835966E9, -316.6648090481758, -616.814219892025, -2049.345498919487, -210.3918119072914
 1.707595538373353E9, -331.02602487802505, -615.8568055033684, -2028.7610895633698, -237.67812198400497
 1.707595538373353E9, -318.8189914226532, -639.0741044282913, -2082.136941730976, -243.18325471878052
 1.7075955383886652E9, -298.23458206653595, -619.2077558636665, -2081.1795273423195, -224.9923813343048
 1.7075955383886652E9, -319.05834501981735, -607.2400760054588, -2023.2559568285942, -231.93363565206528
 1.7075955384200795E9, -322.8880025744438, -636.6805684566498, -2071.366029858589, -250.84256982803345
 1.7075955384200795E9, -296.08039969205856, -628.3031925559044, -2101.0458759069443, -237.91747558116913
 1.707595538420804E9, -304.45777559280396, -603.1710648536682, -2047.909377336502, -236.24200040102005
 1.707595538420804E9, -336.77051120996475, -636.6805684566498, -2055.329338848591, -261.85283529758453
 1.707595538421558E9, -320.73382019996643, -657.9830386042595, -2112.2954949736595, -248.20968025922775
 1.707595538421558E9, -313.79256588220596, -618.0109878778458, -2065.3821899294853, -227.6252709031105
 1.7075955384223E9, -336.29180401563644, -623.7554742097855, -2036.899111866951, -246.53420507907867
 1.7075955384223E9, -325.76024574041367, -654.8714418411255, -2083.812416911125, -240.55036514997482
 1.7075955384330564E9, -306.8513115644455, -628.3031925559044, -2089.796256840229, -234.56652522087097
 1.7075955384330564E9, -323.84541696310043, -606.5220152139664, -2038.0958798527718, -244.3800227046013
 1.7075955384491532E9, -338.92469358444214, -657.9830386042595, -2077.110516190529, -253.236105799675
 1.7075955384491532E9, -315.94674825668335, -636.9199220538139, -2099.6097543239594, -233.3697572350502
 1.707595538449564E9, -320.4944666028023, -612.0271479487419, -2050.0635597109795, -239.1142435669899
 1.707595538449564E9, -337.72792559862137, -643.6218227744102, -2050.781620502472, -255.39028817415237
 1.707595538463076E9, -323.84541696310043, -657.5043314099312, -2101.0458759069443, -236.4813539981842
 1.707595538463076E9, -325.9995993375778, -619.925816655159, -2069.69055467844, -233.13040363788605
 1.707595538479108E9, -337.72792559862137, -618.0109878778458, -2038.5745870471, -252.75739860534668
 1.707595538479108E9, -325.76024574041367, -644.818590760231, -2098.891693532467, -254.91158097982407
 1.7075955384937096E9, -319.7764058113098, -630.2180213332176, -2093.147207200527, -226.18914932012558
 1.7075955384937096E9, -339.88210797309875, -625.9096565842628, -2037.6171726584435, -241.98648673295975
 1.7075955384944637E9, -340.83952236175537, -656.3075634241104, -2070.1692618727684, -250.84256982803345
 1.7075955384944637E9, -316.90416264533997, -635.483800470829, -2098.6523399353027, -228.34333169460297
 1.707595538508966E9, -322.64864897727966, -606.5220152139664, -2042.6435981988907, -222.12013816833496
 1.707595538508966E9, -339.1640471816063, -634.5263860821724, -2045.7551949620247, -247.4916194677353
 1.7075955385094652E9, -309.4842011332512, -631.1754357218742, -2095.0620359778404, -230.7368676662445
 1.7075955385094652E9, -315.7073946595192, -612.9845623373985, -2062.031239569187, -222.59884536266327
 1.7075955385232017E9, -335.3343896269798, -621.6012918353081, -2032.351393520832, -243.18325471878052
 1.7075955385232017E9, -331.50473207235336, -652.7172594666481, -2093.6259143948555, -252.99675220251083
 1.7075955385390108E9, -309.24484753608704, -623.9948278069496, -2085.009184896946, -229.30074608325958
 1.7075955385390108E9, -320.2551130056381, -605.8039544224739, -2025.8888463974, -231.93363565206528
 1.7075955385395296E9, -336.77051120996475, -646.9727731347084, -2065.142836332321, -248.92774105072021
 1.7075955385395296E9, -308.5267867445946, -633.3296180963516, -2092.1897928118706, -232.8910500407219
 1.7075955385530221E9, -325.5208921432495, -608.1974903941154, -2037.6171726584435, -232.41234284639359
 1.7075955385530221E9, -338.2066327929497, -630.6967285275459, -2050.3029133081436, -256.10834896564484
 1.7075955385686953E9, -317.3828698396683, -647.4514803290367, -2099.6097543239594, -233.8484644293785
 1.7075955385686953E9, -312.35644429922104, -613.9419767260551, -2062.2705931663513, -223.55625975131989
 1.7075955385694883E9, -344.1904727220535, -625.6703029870987, -2036.4204046726227, -244.61937630176544
 1.7075955385694883E9, -332.46214646101, -646.4940659403801, -2082.8550025224686, -235.76329320669174
 1.7075955385832975E9, -307.09066516160965, -618.7290486693382, -2066.8183115124702, -212.0672870874405
 1.7075955385832975E9, -340.1214615702629, -613.2239159345627, -2030.4365647435188, -234.56652522087097
 1.7075955385988967E9, -334.13762164115906, -636.9199220538139, -2058.440935611725, -246.77355867624283
 1.7075955385988967E9, -311.15967631340027, -632.8509109020233, -2094.343975186348, -227.38591730594635
 1.7075955385994515E9, -323.12735617160797, -609.8729655742645, -2040.4894158244133, -224.9923813343048
 1.7075955385994515E9, -340.6001687645912, -629.260606944561, -2045.5158413648605, -243.66196191310883
 1.70759553861301E9, -323.3667097687721, -646.4940659403801, -2096.7375111579895, -236.4813539981842
 1.70759553861301E9, -315.7073946595192, -613.2239159345627, -2064.664129137993, -220.9233701825142
 1.7075955386286514E9, -335.81309682130814, -619.925816655159, -2033.5481615066528, -247.73097306489944
 1.7075955386286514E9, -328.87184250354767, -651.5204914808273, -2085.7272456884384, -245.57679069042206
 1.707595538629467E9, -303.7397148013115, -614.6600375175476, -2079.7434057593346, -218.2904806137085
 1.707595538629467E9, -336.0524504184723, -612.0271479487419, -2029.7185039520264, -230.49751406908035
 1.7075955386432612E9, -344.908533513546, -649.6056627035141, -2063.467361152172, -248.4490338563919
 1.7075955386432612E9, -315.7073946595192, -646.0153587460518, -2095.5407431721687, -229.06139248609543
 1.7075955386589408E9, -321.69123458862305, -612.7452087402344, -2045.9945485591888, -225.23173493146896
 1.7075955386589408E9, -341.0788759589195, -629.0212533473969, -2050.5422669053078, -245.8161442875862
 1.707595538659446E9, -311.3990299105644, -639.3134580254555, -2093.6259143948555, -228.1039780974388
 1.707595538659446E9, -312.1170907020569, -616.0961591005325, -2057.4835212230682, -213.0247014760971
 1.70759553867334E9, -329.8292568922043, -607.9581367969513, -2032.351393520832, -242.2258403301239
 1.70759553867334E9, -325.5208921432495, -647.4514803290367, -2083.573063313961, -236.72070759534836
 1.7075955386889298E9, -311.3990299105644, -626.149010181427, -2074.477626621723, -212.30664068460464
 1.7075955386889298E9, -324.80283135175705, -605.0858936309814, -2020.1443600654602, -219.96595579385757
 1.7075955386895952E9, -330.3079640865326, -633.8083252906799, -2063.467361152172, -243.66196191310883
 1.7075955386895952E9, -304.93648278713226, -628.3031925559044, -2089.3175496459007, -225.23173493146896
 1.707595538703599E9, -321.9305881857872, -611.7877943515778, -2042.8829517960548, -223.07755255699158
 1.707595538703599E9, -347.30206948518753, -647.6908339262009, -2043.3616589903831, -238.6355363726616
 1.7075955387186818E9, -317.8615770339966, -645.5366515517235, -2099.370400726795, -233.8484644293785
 1.7075955387186818E9, -312.1170907020569, -612.0271479487419, -2055.329338848591, -210.3918119072914
 1.7075955387195413E9, -330.06861048936844, -615.8568055033684, -2023.01660323143, -228.82203888893127
 1.7075955387195413E9, -313.79256588220596, -634.5263860821724, -2077.589223384857, -235.04523241519928
 1.707595538733349E9, -303.50036120414734, -609.3942583799362, -2081.1795273423195, -223.55625975131989
 1.707595538733349E9, -334.61632883548737, -618.7290486693382, -2024.6920784115791, -224.27432054281235
 1.7075955387489436E9, -331.98343926668167, -635.0050932765007, -2060.8344715833664, -241.26842594146729
 1.7075955387489436E9, -311.6383835077286, -634.0476788878441, -2097.694925546646, -230.97622126340866
 1.70759553874951E9, -326.7176601290703, -619.2077558636665, -2039.0532942414284, -217.8117734193802
 1.70759553874951E9, -350.6530198454857, -641.4676403999329, -2046.7126093506813, -246.05549788475037
 1.7075955387631495E9, -320.73382019996643, -647.4514803290367, -2091.471732020378, -231.93363565206528
 1.7075955387631495E9, -317.3828698396683, -610.8303799629211, -2060.355764389038, -216.61500543355942
 1.707595538779166E9, -343.2330583333969, -628.3031925559044, -2042.4042446017265, -251.32127702236176
 1.707595538779166E9, -342.99370473623276, -670.4294256567955, -2100.80652230978, -253.236105799675
 1.707595538779672E9, -319.7764058113098, -633.0902644991875, -2078.785991370678, -213.26405507326126
 1.707595538779672E9, -327.1963673233986, -595.9904569387436, -2017.9901776909828, -209.9131047129631
 1.7075955387931173E9, -343.7117655277252, -636.9199220538139, -2053.893217265606, -227.6252709031105
 1.7075955387931173E9, -321.4518809914589, -627.3457781672478, -2073.5202122330666, -195.55188888311386
 1.707595538808675E9, -336.29180401563644, -604.8465400338173, -2021.5804816484451, -191.2435241341591
 1.707595538808675E9, -347.30206948518753, -613.9419767260551, -2018.9475920796394, -198.90283924341202
 1.7075955388094714E9, -325.28153854608536, -626.3883637785912, -2073.7595658302307, -196.26994967460632
 1.7075955388094714E9, -326.4783065319061, -592.4001529812813, -2030.4365647435188, -170.65911477804184
 1.7075955388232E9, -349.21689826250076, -605.0858936309814, -2001.7141330838203, -196.74865686893463
 1.7075955388232E9, -337.24921840429306, -628.5425461530685, -2053.6538636684418, -202.25378960371017
 1.7075955388389971E9, -321.4518809914589, -601.4955896735191, -2046.7126093506813, -175.44618672132492
 1.7075955388389971E9, -342.7543511390686, -599.5807608962059, -2002.910901069641, -189.32869535684586
 1.707595538839622E9, -344.4298263192177, -626.149010181427, -2031.8726863265038, -199.86025363206863
 1.707595538839622E9, -322.64864897727966, -615.3780983090401, -2070.4086154699326, -188.37128096818924
 1.7075955388531249E9, -344.1904727220535, -607.2400760054588, -2019.905006468296, -189.32869535684586
 1.7075955388531249E9, -351.37108063697815, -626.149010181427, -2023.7346640229225, -211.10987269878387
 1.707595538868898E9, -324.32412415742874, -623.037413418293, -2075.674394607544, -201.0570216178894
 1.707595538868898E9, -328.6324889063835, -604.367832839489, -2041.686183810234, -186.21709859371185
 1.7075955388694482E9, -347.0627158880234, -610.1123191714287, -2007.2192658185959, -205.84409356117249
 1.7075955388694482E9, -340.83952236175537, -641.706993997097, -2061.791885972023, -208.9556903243065
 1.707595538882975E9, -312.83515149354935, -602.4530040621758, -2052.9358028769493, -181.90873384475708
 1.707595538882975E9, -345.8659479022026, -606.7613688111305, -2005.3044370412827, -198.4241320490837
 1.70759553889888E9, -357.11556696891785, -635.2444468736649, -2042.8829517960548, -213.74276226758957
 1.70759553889888E9, -325.9995993375778, -627.3457781672478, -2076.3924553990364, -196.26994967460632
 1.7075955388995025E9, -331.50473207235336, -601.0168824791908, -2029.7185039520264, -198.90283924341202
 1.7075955388995025E9, -352.0891414284706, -626.149010181427, -2034.2662222981453, -223.07755255699158
 1.7075955389130583E9, -340.83952236175537, -652.7172594666481, -2076.1531018018723, -207.2802151441574
 1.7075955389130583E9, -335.3343896269798, -618.7290486693382, -2049.584852516651, -196.74865686893463
 1.707595538928935E9, -355.6794453859329, -621.8406454324722, -2020.3837136626244, -220.20530939102173
 1.707595538928935E9, -337.4885720014572, -637.8773364424706, -2068.9724938869476, -220.20530939102173
 1.7075955389296064E9, -323.12735617160797, -620.6438774466515, -2066.578957915306, -197.22736406326294
 1.7075955389296064E9, -339.40340077877045, -606.5220152139664, -2017.2721168994904, -209.9131047129631
 1.7075955389430065E9, -345.14788711071014, -635.483800470829, -2042.1648910045624, -222.83819895982742
 1.7075955389430065E9, -332.2227928638458, -642.9037619829178, -2076.3924553990364, -198.18477845191956
 1.7075955389751048E9, -335.573743224144, -605.3252472281456, -2023.01660323143, -198.4241320490837
 1.7075955389751048E9, -350.41366624832153, -626.6277173757553, -2024.9314320087433, -224.5136741399765
 1.707595538975803E9, -334.8556824326515, -647.4514803290367, -2085.009184896946, -217.09371262788773
 1.707595538975803E9, -320.4944666028023, -602.2136504650116, -2043.8403661847115, -195.07318168878555
 1.7075955389765716E9, -342.03629034757614, -610.591026365757, -2008.894740998745, -215.41823744773865
 1.7075955389765716E9, -345.3872407078743, -641.4676403999329, -2073.0415050387383, -220.9233701825142
 1.7075955389773085E9, -327.1963673233986, -618.9684022665024, -2070.887322664261, -204.40797197818756
 1.7075955389773085E9, -347.78077667951584, -609.6336119771004, -2018.9475920796394, -212.30664068460464
 1.7075955389883187E9, -348.25948387384415, -641.4676403999329, -2052.9358028769493, -230.7368676662445
 1.7075955389883187E9, -319.53705221414566, -629.7393141388893, -2090.035610437393, -216.37565183639526
 1.7075955390033135E9, -336.29180401563644, -615.6174519062042, -2036.6597582697868, -206.56215435266495
 1.7075955390033135E9, -358.3123349547386, -638.3560436367989, -2039.0532942414284, -231.21557486057281
 1.707595539018678E9, -328.6324889063835, -639.7921652197838, -2084.2911241054535, -213.26405507326126
 1.707595539018678E9, -337.9672791957855, -624.4735350012779, -2065.142836332321, -213.50340867042542
 1.7075955390196795E9, -358.55168855190277, -620.8832310438156, -2029.239796757698, -230.97622126340866
 1.7075955390196795E9, -344.908533513546, -652.7172594666481, -2079.7434057593346, -232.17298924922943
 1.7075955390331006E9, -334.3769752383232, -642.4250547885895, -2080.700820147991, -209.67375111579895
 1.7075955390331006E9, -340.6001687645912, -619.6864630579948, -2030.675918340683, -225.94979572296143
 1.7075955390488963E9, -351.6104342341423, -650.8024306893349, -2064.4247755408287, -248.4490338563919
 1.7075955390488963E9, -323.12735617160797, -639.7921652197838, -2096.019450366497, -226.90721011161804
 1.707595539049544E9, -338.2066327929497, -621.1225846409798, -2049.106145322323, -223.31690615415573
 1.707595539049544E9, -354.7220309972763, -638.8347508311272, -2046.9519629478455, -246.53420507907867
 1.7075955390634303E9, -340.6001687645912, -667.7965360879898, -2109.4232518076897, -245.57679069042206
