 Timestamp, EXG Channel 0, EXG Channel 1, EXG Channel 2, EXG Channel 3
 1.7063895891138666E9, -439.93191158771515, -367.8864788413048, -303.7397148013115, -216.1362982392311
 1.7063895891138666E9, -396.60891050100327, -361.6632853150368, -284.352073431015, -211.82793349027634
 1.7063895891286085E9, -309.0054939389229, -378.1786835193634, -322.64864897727966, -142.1760367155075
 1.7063895891286085E9, -397.80567848682404, -367.8864788413048, -299.6707036495209, -176.16424751281738
 1.7063895891585057E9, -420.7836238145828, -348.25948387384415, -272.8631007671356, -220.9233701825142
 1.7063895891585057E9, -314.27127307653427, -371.4767827987671, -305.1758363842964, -160.12755650281906
 1.706389589174506E9, -362.38134610652924, -381.2902802824974, -328.87184250354767, -161.80303168296814
 1.706389589174506E9, -441.1286795735359, -355.44009178876877, -280.2830622792244, -229.06139248609543
 1.7063895891750655E9, -345.62659430503845, -360.466517329216, -292.49009573459625, -189.56804895401
 1.7063895891750655E9, -326.7176601290703, -374.34902596473694, -325.9995993375778, -135.23478239774704
 1.7063895891758263E9, -427.246170938015, -359.0303957462311, -290.8146205544472, -195.55188888311386
 1.7063895891758263E9, -387.9921810030937, -357.8336277604103, -280.7617694735527, -201.5357288122177
 1.7063895891766248E9, -315.94674825668335, -385.5986450314522, -328.87184250354767, -141.6973295211792
 1.7063895891766248E9, -407.3798223733902, -373.87031877040863, -303.50036120414734, -168.98363959789276
 1.7063895891872475E9, -427.96423172950745, -362.1419925093651, -276.45340472459793, -215.89694464206696
 1.7063895891872475E9, -328.6324889063835, -377.6999763250351, -315.94674825668335, -158.9307885169983
 1.7063895892033355E9, -359.9878101348877, -376.7425619363785, -320.2551130056381, -148.15987664461136
 1.7063895892033355E9, -434.66613245010376, -349.21689826250076, -275.73534393310547, -207.51956874132156
 1.7063895892037268E9, -352.8072022199631, -368.8438932299614, -307.56937235593796, -183.10550183057785
 1.7063895892037268E9, -334.8556824326515, -385.359291434288, -331.50473207235336, -134.99542880058289
 1.706389589250121E9, -424.37392777204514, -354.243323802948, -289.6178525686264, -198.18477845191956
 1.706389589250121E9, -388.94959539175034, -361.6632853150368, -290.575266957283, -210.63116550445557
 1.7063895892516315E9, -318.8189914226532, -387.0347666144371, -336.0524504184723, -152.94694858789444
 1.7063895892516315E9, -404.2682256102562, -371.23742920160294, -302.5429468154907, -167.54751801490784
 1.706389589251887E9, -423.8952205777168, -356.8762133717537, -272.14503997564316, -212.78534787893295
 1.706389589251887E9, -317.8615770339966, -372.912904381752, -309.4842011332512, -154.38307017087936
 1.7063895892521772E9, -366.2110036611557, -376.024501144886, -318.57963782548904, -151.0321198105812
 1.7063895892521772E9, -451.6602378487587, -364.7748820781708, -285.78819501399994, -219.72660219669342
 1.7063895893103013E9, -365.7322964668274, -381.7689874768257, -311.87773710489273, -190.52546334266663
 1.7063895893103013E9, -330.3079640865326, -380.3328658938408, -321.9305881857872, -140.50056153535843
 1.706389589313243E9, -423.17715978622437, -351.37108063697815, -283.3946590423584, -189.0893417596817
 1.706389589313243E9, -389.90700978040695, -359.5091029405594, -281.9585374593735, -200.33896082639694
 1.7063895893136456E9, -327.43572092056274, -393.49731373786926, -336.5311576128006, -151.75018060207367
 1.7063895893136456E9, -413.6030158996582, -384.4018770456314, -320.4944666028023, -182.3874410390854
 1.7063895893137443E9, -410.4914191365242, -348.25948387384415, -267.59732162952423, -203.2112039923668
 1.7063895893137443E9, -292.2507421374321, -348.4988374710083, -296.08039969205856, -137.14961117506027
 1.7063895893245168E9, -344.1904727220535, -359.5091029405594, -302.7823004126549, -138.82508635520935
 1.7063895893245168E9, -433.9480716586113, -346.3446550965309, -268.794089615345, -207.51956874132156
 1.7063895893251116E9, -341.0788759589195, -351.6104342341423, -282.9159518480301, -174.72812592983246
 1.7063895893251116E9, -326.7176601290703, -375.78514754772186, -325.28153854608536, -134.75607520341873
 1.7063895893257952E9, -428.92164611816406, -360.70587092638016, -289.37849897146225, -198.66348564624786
 1.7063895893257952E9, -380.8115730881691, -351.6104342341423, -283.15530544519424, -204.1686183810234
 1.7063895893265777E9, -301.1068252325058, -373.87031877040863, -315.2286874651909, -133.55930721759796
 1.7063895893265777E9, -390.1463633775711, -361.18457812070847, -299.4313500523567, -164.675274848938
 1.7063895893376567E9, -417.6720270514488, -349.69560545682907, -276.45340472459793, -218.52983421087265
 1.7063895893376567E9, -315.46804106235504, -368.3651860356331, -313.31385868787766, -161.80303168296814
 1.7063895893693755E9, -351.37108063697815, -371.71613639593124, -315.46804106235504, -149.59599822759628
 1.7063895893693755E9, -422.4590989947319, -338.92469358444214, -266.87926083803177, -207.75892233848572
 1.7063895893851638E9, -342.51499754190445, -354.243323802948, -294.16557091474533, -181.43002665042877
 1.7063895893851638E9, -323.6060633659363, -370.04066121578217, -315.46804106235504, -135.4741359949112
 1.7063895893852572E9, -418.3900878429413, -348.25948387384415, -282.9159518480301, -191.48287773132324
 1.7063895893852572E9, -372.19484359025955, -343.2330583333969, -281.240476667881, -202.73249679803848
 1.706389589385908E9, -301.1068252325058, -373.15225797891617, -320.4944666028023, -142.41539031267166
 1.706389589385908E9, -388.94959539175034, -356.63685977458954, -302.0642396211624, -170.65911477804184
 1.7063895893867464E9, -417.911380648613, -353.0465558171272, -278.6075870990753, -217.57241982221603
 1.7063895893867464E9, -311.87773710489273, -367.8864788413048, -313.79256588220596, -161.32432448863983
 1.706389589397329E9, -348.73819106817245, -370.2800148129463, -315.46804106235504, -153.42565578222275
 1.706389589397329E9, -428.2035853266716, -340.1214615702629, -268.07602882385254, -213.74276226758957
 1.7063895894129856E9, -337.24921840429306, -351.6104342341423, -291.2933277487755, -184.06291621923447
 1.7063895894129856E9, -320.01575940847397, -367.8864788413048, -316.6648090481758, -139.0644399523735
 1.7063895894137113E9, -423.8952205777168, -354.243323802948, -282.9159518480301, -202.97185039520264
 1.7063895894137113E9, -389.90700978040695, -354.00397020578384, -284.11271983385086, -217.57241982221603
 1.706389589443714E9, -309.24484753608704, -374.34902596473694, -325.28153854608536, -152.22888779640198
 1.706389589443714E9, -393.01860654354095, -365.01423567533493, -303.7397148013115, -184.54162341356277
 1.7063895894444222E9, -417.6720270514488, -350.89237344264984, -280.52241587638855, -233.13040363788605
 1.7063895894444222E9, -314.5106266736984, -366.689710855484, -316.1861018538475, -169.94105398654938
 1.7063895894451382E9, -345.3872407078743, -365.01423567533493, -315.94674825668335, -158.45208132266998
 1.7063895894451382E9, -430.8364748954773, -347.30206948518753, -275.4959903359413, -227.1465637087822
 1.7063895894572456E9, -338.2066327929497, -353.7646166086197, -291.53268134593964, -186.93515938520432
 1.7063895894572456E9, -321.4518809914589, -372.4341971874237, -333.4195608496666, -152.70759499073029
 1.7063895894734342E9, -423.17715978622437, -356.15815258026123, -292.01138854026794, -211.34922629594803
 1.7063895894734342E9, -385.83799862861633, -349.4562518596649, -285.78819501399994, -218.05112701654434
 1.7063895895207055E9, -306.61195796728134, -372.912904381752, -327.6750745177269, -159.4094957113266
 1.7063895895207055E9, -394.69408172369003, -363.81746768951416, -305.41518998146057, -181.66938024759293
 1.706389589521433E9, -420.7836238145828, -352.5678486227989, -279.0862942934036, -229.54009968042374
 1.706389589521433E9, -324.80283135175705, -380.57221949100494, -323.84541696310043, -179.27584427595139
 1.7063895895221813E9, -366.2110036611557, -383.68381625413895, -330.06861048936844, -173.5313579440117
 1.7063895895221813E9, -438.7351436018944, -353.0465558171272, -279.3256478905678, -225.47108852863312
 1.706389589522899E9, -342.03629034757614, -354.48267740011215, -291.7720349431038, -184.54162341356277
 1.706389589522899E9, -315.94674825668335, -370.2800148129463, -313.31385868787766, -138.34637916088104
 1.706389589534044E9, -430.8364748954773, -359.26974934339523, -292.49009573459625, -205.60473996400833
 1.706389589534044E9, -386.31670582294464, -354.7220309972763, -289.6178525686264, -220.68401658535004
 1.706389589534547E9, -312.5957978963852, -382.4870482683182, -330.06861048936844, -159.17014211416245
 1.706389589534547E9, -399.9598608613014, -371.23742920160294, -307.56937235593796, -183.344855427742
 1.706389589535385E9, -425.0919885635376, -359.9878101348877, -276.93211191892624, -232.41234284639359
 1.706389589535385E9, -318.8189914226532, -372.4341971874237, -315.2286874651909, -171.13782197237015
 1.7063895895472815E9, -373.87031877040863, -384.8805842399597, -324.32412415742874, -166.82945722341537
 1.7063895895472815E9, -453.8144202232361, -372.912904381752, -298.71328926086426, -251.0819234251976
 1.7063895895643833E9, -325.5208921432495, -349.69560545682907, -283.15530544519424, -187.89257377386093
 1.7063895895643833E9, -309.9629083275795, -367.40777164697647, -320.01575940847397, -148.87793743610382
 1.7063895895940633E9, -396.8482640981674, -340.6001687645912, -278.6075870990753, -205.36538636684418
 1.7063895895940633E9, -338.2066327929497, -319.53705221414566, -257.3051169514656, -206.8015079498291
 1.706389589594782E9, -260.17736011743546, -345.8659479022026, -306.8513115644455, -154.1437165737152
 1.706389589594782E9, -338.44598639011383, -327.1963673233986, -282.67659825086594, -177.83972269296646
 1.7063895896093447E9, -360.70587092638016, -311.3990299105644, -251.0819234251976, -220.9233701825142
 1.7063895896093447E9, -245.8161442875862, -320.01575940847397, -273.82051515579224, -148.87793743610382
 1.7063895896100993E9, -281.00112307071686, -322.16994178295135, -286.74560940265656, -150.79276621341705
 1.7063895896100993E9, -370.7587220072746, -303.02165400981903, -242.46519392728806, -214.70017665624619
 1.7063895896108377E9, -284.11271983385086, -321.69123458862305, -267.8366752266884, -182.62679463624954
 1.7063895896108377E9, -272.8631007671356, -339.40340077877045, -302.7823004126549, -145.2876334786415
 1.7063895896115396E9, -369.801307618618, -323.3667097687721, -266.87926083803177, -200.5783144235611
 1.7063895896115396E9, -332.70150005817413, -322.4092953801155, -268.07602882385254, -216.61500543355942
 1.7063895896225865E9, -254.91158097982407, -347.30206948518753, -310.68096911907196, -156.7766061425209
 1.7063895896225865E9, -342.03629034757614, -336.5311576128006, -295.3623389005661, -186.69580578804016
 1.7063895896374707E9, -374.1096723675728, -325.28153854608536, -264.0070176720619, -231.69428205490112
 1.7063895896374707E9, -276.45340472459793, -348.73819106817245, -298.9526428580284, -175.20683312416077
 1.7063895896534507E9, -310.20226192474365, -348.73819106817245, -307.56937235593796, -164.43592125177383
 1.7063895896534507E9, -393.49731373786926, -331.02602487802505, -269.99085760116577, -224.5136741399765
 1.7063895896537988E9, -306.3726043701172, -341.55758315324783, -291.2933277487755, -196.74865686893463
 1.7063895896537988E9, -277.88952630758286, -351.37108063697815, -315.7073946595192, -151.75018060207367
 1.7063895896673987E9, -384.16252344846725, -336.0524504184723, -287.463670194149, -214.70017665624619
 1.7063895896673987E9, -351.84978783130646, -330.7866712808609, -284.8307806253433, -224.5136741399765
 1.7063895896829963E9, -277.88952630758286, -362.38134610652924, -332.9408536553383, -165.87204283475876
 1.7063895896829963E9, -359.5091029405594, -350.1743126511574, -303.50036120414734, -186.69580578804016
 1.7063895896838057E9, -385.83799862861633, -340.1214615702629, -275.73534393310547, -233.8484644293785
 1.7063895896838057E9, -282.9159518480301, -353.2859094142914, -309.4842011332512, -175.92489391565323
 1.7063895896973245E9, -337.72792559862137, -370.2800148129463, -326.7176601290703, -173.77071154117584
 1.7063895896973245E9, -414.799783885479, -342.51499754190445, -284.11271983385086, -234.32717162370682
 1.7063895897127988E9, -320.9731737971306, -349.21689826250076, -297.9952284693718, -195.07318168878555
 1.7063895897127988E9, -292.7294493317604, -355.6794453859329, -320.4944666028023, -150.31405901908875
 1.7063895897281125E9, -400.91727524995804, -349.4562518596649, -285.30948781967163, -210.87051910161972
 1.7063895897281125E9, -360.9452245235443, -347.78077667951584, -281.9585374593735, -216.85435903072357
 1.7063895897288103E9, -287.463670194149, -375.0670867562294, -326.238952934742, -162.0423852801323
 1.7063895897288103E9, -367.40777164697647, -356.3975061774254, -307.8087259531021, -186.456452190876
 1.706389589742984E9, -400.43856805562973, -348.4988374710083, -282.1978910565376, -237.43876838684082
 1.706389589742984E9, -313.5532122850418, -381.7689874768257, -335.3343896269798, -192.2009385228157
 1.706389589743713E9, -348.02013027668, -371.23742920160294, -322.64864897727966, -175.20683312416077
 1.706389589743713E9, -414.799783885479, -345.8659479022026, -279.8043550848961, -233.13040363788605
 1.7063895897574928E9, -325.0421849489212, -354.96138459444046, -301.34617882966995, -204.1686183810234
 1.7063895897574928E9, -313.0745050907135, -376.7425619363785, -333.4195608496666, -168.02622520923615
 1.7063895897908273E9, -410.0127119421959, -354.96138459444046, -298.9526428580284, -222.12013816833496
 1.7063895897908273E9, -369.3226004242897, -346.58400869369507, -291.2933277487755, -222.12013816833496
 1.706389589791267E9, -282.1978910565376, -361.9026389122009, -318.3402842283249, -147.68116945028305
 1.706389589791267E9, -372.19484359025955, -358.3123349547386, -297.5165212750435, -180.95131945610046
 1.7063895897922225E9, -398.76309287548065, -344.1904727220535, -277.88952630758286, -231.45492845773697
 1.7063895897922225E9, -303.02165400981903, -371.4767827987671, -324.80283135175705, -187.17451298236847
 1.7063895898030708E9, -349.21689826250076, -374.82773315906525, -332.70150005817413, -177.6003690958023
 1.7063895898030708E9, -419.8262094259262, -346.10530149936676, -283.63401263952255, -235.76329320669174
 1.706389589803745E9, -336.0524504184723, -366.45035725831985, -303.97906839847565, -208.23762953281403
 1.706389589803745E9, -328.87184250354767, -393.01860654354095, -346.10530149936676, -173.05265074968338
 1.7063895898650877E9, -425.33134216070175, -367.6471252441406, -307.56937235593796, -227.38591730594635
 1.7063895898650877E9, -379.3754515051842, -358.55168855190277, -301.34617882966995, -232.65169644355774
 1.706389589865812E9, -299.19199645519257, -374.1096723675728, -334.3769752383232, -166.1113964319229
 1.706389589865812E9, -391.1037777662277, -372.67355078458786, -321.4518809914589, -200.33896082639694
 1.706389589866567E9, -420.54427021741867, -363.81746768951416, -294.64427810907364, -248.92774105072021
 1.706389589866567E9, -303.02165400981903, -369.801307618618, -318.3402842283249, -182.3874410390854
 1.7063895898673198E9, -349.21689826250076, -374.34902596473694, -326.4783065319061, -172.57394355535507
 1.7063895898673198E9, -436.1022540330887, -358.3123349547386, -294.16557091474533, -241.98648673295975
 1.7063895898794305E9, -341.796936750412, -364.5355284810066, -311.3990299105644, -206.08344715833664
 1.7063895898794305E9, -320.4944666028023, -380.8115730881691, -340.83952236175537, -166.82945722341537
 1.70638958988019E9, -421.022977411747, -365.97165006399155, -303.97906839847565, -224.5136741399765
 1.70638958988019E9, -384.64123064279556, -362.86005330085754, -297.0378140807152, -235.76329320669174
 1.70638958988102E9, -299.910057246685, -377.93932992219925, -329.8292568922043, -168.2655788064003
 1.70638958988102E9, -389.6676561832428, -363.57811409235, -309.9629083275795, -198.90283924341202
 1.7063895898817115E9, -406.4224079847336, -351.37108063697815, -281.9585374593735, -245.8161442875862
 1.7063895898817115E9, -313.31385868787766, -376.7425619363785, -320.9731737971306, -193.39770650863647
 1.7063895898926256E9, -352.0891414284706, -380.8115730881691, -335.573743224144, -184.78097701072693
 1.7063895898926256E9, -433.70871806144714, -361.6632853150368, -293.9262173175812, -254.1935201883316
 1.7063895899408057E9, -351.37108063697815, -375.30644035339355, -309.72355473041534, -220.44466298818588
 1.7063895899408057E9, -327.43572092056274, -387.75282740592957, -337.72792559862137, -172.81329715251923
 1.7063895899415293E9, -428.6822925209999, -372.19484359025955, -304.2184219956398, -230.01880687475204
 1.7063895899415293E9, -375.5457939505577, -353.52526301145554, -293.2081565260887, -232.8910500407219
 1.7063895899422407E9, -301.34617882966995, -381.2902802824974, -337.4885720014572, -172.81329715251923
 1.7063895899422407E9, -385.359291434288, -368.3651860356331, -321.9305881857872, -202.25378960371017
 1.7063895899433112E9, -410.73077273368835, -355.2007381916046, -283.15530544519424, -243.66196191310883
 1.7063895899433112E9, -305.1758363842964, -367.1684180498123, -321.4518809914589, -184.06291621923447
 1.7063895899532394E9, -350.6530198454857, -378.1786835193634, -332.2227928638458, -178.55778348445892
 1.7063895899532394E9, -427.48552453517914, -348.9775446653366, -284.11271983385086, -235.04523241519928
 1.7063895899537706E9, -341.55758315324783, -363.0994068980217, -306.61195796728134, -211.10987269878387
 1.7063895899537706E9, -319.05834501981735, -379.13609790802, -331.50473207235336, -159.64884930849075
 1.7063895899673665E9, -420.06556302309036, -359.9878101348877, -304.93648278713226, -225.94979572296143
 1.7063895899673665E9, -377.46062272787094, -353.7646166086197, -289.85720616579056, -227.6252709031105
 1.7063895899829872E9, -296.3197532892227, -370.7587220072746, -329.350549697876, -164.91462844610214
 1.7063895899829872E9, -383.20510905981064, -361.4239317178726, -307.8087259531021, -186.69580578804016
 1.7063895899837456E9, -404.7469328045845, -350.1743126511574, -278.6075870990753, -237.67812198400497
 1.7063895899837456E9, -318.10093063116074, -375.5457939505577, -322.8880025744438, -178.07907629013062
 1.7063895899974725E9, -359.74845653772354, -383.4444626569748, -327.43572092056274, -178.55778348445892
 1.7063895899974725E9, -439.45320439338684, -359.9878101348877, -295.12298530340195, -242.46519392728806
 1.7063895900129948E9, -351.84978783130646, -374.82773315906525, -310.68096911907196, -210.3918119072914
 1.7063895900129948E9, -326.95701372623444, -386.31670582294464, -340.83952236175537, -165.6326892375946
 1.7063895900137718E9, -423.8952205777168, -367.1684180498123, -304.45777559280396, -225.47108852863312
 1.7063895900137718E9, -382.9657554626465, -364.29617488384247, -304.2184219956398, -230.97622126340866
 1.706389590058848E9, -307.56937235593796, -383.20510905981064, -336.0524504184723, -159.64884930849075
 1.706389590058848E9, -395.4121425151825, -369.08324682712555, -315.94674825668335, -192.91899931430817
 1.7063895900750499E9, -402.1140432357788, -345.8659479022026, -274.77792954444885, -233.3697572350502
 1.7063895900750499E9, -306.8513115644455, -365.97165006399155, -318.8189914226532, -180.233258664608
 1.706389590075816E9, -360.22716373205185, -382.4870482683182, -334.3769752383232, -178.31842988729477
 1.706389590075816E9, -444.2402763366699, -365.01423567533493, -300.1494108438492, -252.75739860534668
 1.7063895900764925E9, -352.8072022199631, -372.4341971874237, -316.6648090481758, -213.50340867042542
 1.7063895900764925E9, -320.73382019996643, -376.5032083392143, -333.8982680439949, -162.28173887729645
 1.7063895900772123E9, -418.62944144010544, -349.21689826250076, -294.8836317062378, -213.26405507326126
 1.7063895900772123E9, -378.89674431085587, -353.0465558171272, -281.00112307071686, -216.1362982392311
 1.7063895900880675E9, -297.0378140807152, -371.4767827987671, -328.1537817120552, -157.97337412834167
 1.7063895900880675E9, -386.0773522257805, -366.92906445264816, -306.13325077295303, -190.76481693983078
 1.7063895900888624E9, -411.9275407195091, -351.37108063697815, -280.52241587638855, -238.6355363726616
 1.7063895900888624E9, -318.10093063116074, -371.71613639593124, -321.69123458862305, -183.8235626220703
 1.7063895901023524E9, -363.57811409235, -376.5032083392143, -331.50473207235336, -173.29200434684753
 1.7063895901023524E9, -433.70871806144714, -355.9187989830971, -290.33591336011887, -236.9600611925125
 1.706389590150741E9, -325.9995993375778, -378.89674431085587, -330.54731768369675, -162.76044607162476
 1.706389590150741E9, -438.0170828104019, -365.01423567533493, -298.4739356637001, -219.72660219669342
 1.7063895901514716E9, -386.31670582294464, -361.6632853150368, -295.60169249773026, -229.30074608325958
 1.7063895901514716E9, -298.9526428580284, -380.3328658938408, -336.5311576128006, -165.6326892375946
 1.7063895901522107E9, -384.4018770456314, -364.0568212866783, -314.27127307653427, -187.65322017669678
 1.7063895901522107E9, -416.2359054684639, -353.52526301145554, -288.42108458280563, -231.69428205490112
 1.7063895901529305E9, -314.98933386802673, -372.4341971874237, -322.8880025744438, -172.09523636102676
 1.7063895901529305E9, -347.78077667951584, -370.5193684101105, -320.4944666028023, -159.64884930849075
 1.7063895901634147E9, -417.911380648613, -341.0788759589195, -270.70891839265823, -213.98211586475372
 1.7063895901634147E9, -320.9731737971306, -345.62659430503845, -288.89979177713394, -178.31842988729477
 1.7063895901786408E9, -313.0745050907135, -369.56195402145386, -314.5106266736984, -142.89409750699997
 1.7063895901786408E9, -418.15073424577713, -351.37108063697815, -286.74560940265656, -197.9454248547554
 1.7063895901794443E9, -357.11556696891785, -336.0524504184723, -268.07602882385254, -196.26994967460632
 1.7063895901794443E9, -276.93211191892624, -349.69560545682907, -308.5267867445946, -130.44771045446396
 1.7063895901801496E9, -373.15225797891617, -352.5678486227989, -294.4049245119095, -171.61652916669846
 1.7063895901801496E9, -402.83210402727127, -342.03629034757614, -267.8366752266884, -222.35949176549911
 1.7063895901924455E9, -306.61195796728134, -370.04066121578217, -315.94674825668335, -170.41976118087769
 1.7063895901924455E9, -349.21689826250076, -372.19484359025955, -319.53705221414566, -158.69143491983414
 1.7063895902081943E9, -432.7513036727905, -352.0891414284706, -282.4372446537018, -221.64143097400665
 1.7063895902081943E9, -329.58990329504013, -353.52526301145554, -286.9849629998207, -185.4990378022194
 1.7063895902087438E9, -311.87773710489273, -369.801307618618, -317.3828698396683, -143.37280470132828
 1.7063895902087438E9, -417.1933198571205, -355.9187989830971, -283.3946590423584, -205.12603276968002
 1.706389590222349E9, -380.09351229667664, -353.7646166086197, -277.6501727104187, -213.98211586475372
 1.706389590222349E9, -314.5106266736984, -383.9231698513031, -326.238952934742, -156.7766061425209
 1.7063895902380855E9, -395.17278891801834, -367.8864788413048, -311.15967631340027, -186.456452190876
 1.7063895902380855E9, -423.17715978622437, -363.57811409235, -280.52241587638855, -236.24200040102005
 1.7063895902387288E9, -317.3828698396683, -377.46062272787094, -318.10093063116074, -182.14808744192123
 1.7063895902387288E9, -362.1419925093651, -381.05092668533325, -331.02602487802505, -174.4887723326683
 1.7063895902855675E9, -450.4634698629379, -369.08324682712555, -294.16557091474533, -241.02907234430313
 1.7063895902855675E9, -357.354920566082, -375.0670867562294, -304.45777559280396, -195.3125352859497
 1.7063895902859309E9, -338.92469358444214, -385.359291434288, -329.1111961007118, -155.57983815670013
 1.7063895902859309E9, -450.4634698629379, -379.6148051023483, -309.72355473041534, -219.2478950023651
 1.7063895902868097E9, -412.1668943166733, -373.15225797891617, -290.33591336011887, -220.44466298818588
 1.7063895902868097E9, -306.3726043701172, -374.5883795619011, -318.10093063116074, -143.13345110416412
 1.7063895902872825E9, -398.28438568115234, -366.92906445264816, -301.82488602399826, -178.07907629013062
 1.7063895902872825E9, -418.3900878429413, -354.243323802948, -271.18762558698654, -224.9923813343048
 1.7063895902979918E9, -323.3667097687721, -376.024501144886, -316.42545545101166, -170.41976118087769
 1.7063895902979918E9, -363.57811409235, -379.13609790802, -326.95701372623444, -162.76044607162476
 1.7063895902987063E9, -441.3680331707001, -354.7220309972763, -287.9423773884773, -222.35949176549911
 1.7063895902987063E9, -346.10530149936676, -366.92906445264816, -300.6281180381775, -189.32869535684586
 1.7063895903125343E9, -335.3343896269798, -388.2315346002579, -333.65891444683075, -156.2978989481926
 1.7063895903125343E9, -428.92164611816406, -370.7587220072746, -290.0965597629547, -205.12603276968002
 1.706389590343428E9, -394.4547281265259, -363.81746768951416, -286.74560940265656, -213.74276226758957
 1.706389590343428E9, -323.3667097687721, -386.5560594201088, -328.6324889063835, -148.63858383893967
 1.7063895903594124E9, -408.57659035921097, -380.57221949100494, -315.46804106235504, -179.27584427595139
 1.7063895903594124E9, -430.59712129831314, -367.1684180498123, -285.0701342225075, -222.59884536266327
 1.7063895903601005E9, -331.02602487802505, -387.9921810030937, -324.0847705602646, -167.54751801490784
 1.7063895903601005E9, -375.5457939505577, -388.2315346002579, -334.13762164115906, -161.56367808580399
 1.7063895903608792E9, -463.86727130413055, -382.00834107398987, -298.71328926086426, -232.65169644355774
 1.7063895903608792E9, -380.8115730881691, -399.24180006980896, -324.5634777545929, -209.4343975186348
 1.7063895903616903E9, -365.97165006399155, -412.40624791383743, -349.21689826250076, -157.97337412834167
 1.7063895903616903E9, -442.3254475593567, -375.0670867562294, -301.1068252325058, -197.9454248547554
 1.7063895904030607E9, -379.13609790802, -348.4988374710083, -268.07602882385254, -190.52546334266663
 1.7063895904030607E9, -304.93648278713226, -367.8864788413048, -315.46804106235504, -132.12318563461304
 1.706389590420071E9, -399.9598608613014, -369.3226004242897, -298.71328926086426, -164.675274848938
 1.706389590420071E9, -427.96423172950745, -360.22716373205185, -284.59142702817917, -221.8807845711708
 1.706389590420774E9, -320.01575940847397, -375.0670867562294, -315.2286874651909, -160.12755650281906
 1.706389590420774E9, -363.57811409235, -376.5032083392143, -325.9995993375778, -153.1863021850586
 1.70638959042151E9, -438.97449719905853, -352.8072022199631, -274.5385759472847, -216.85435903072357
 1.70638959042151E9, -340.83952236175537, -362.38134610652924, -297.5165212750435, -180.95131945610046
 1.7063895904347548E9, -324.80283135175705, -377.46062272787094, -324.5634777545929, -140.26120793819427
 1.7063895904347548E9, -424.6132813692093, -359.74845653772354, -283.63401263952255, -194.3551208972931
 1.706389590435268E9, -380.8115730881691, -353.7646166086197, -283.8733662366867, -201.5357288122177
 1.706389590435268E9, -307.8087259531021, -375.78514754772186, -329.58990329504013, -143.85151189565659
 1.7063895904360645E9, -399.4811536669731, -374.82773315906525, -312.35644429922104, -176.16424751281738
 1.7063895904360645E9, -427.48552453517914, -364.0568212866783, -283.63401263952255, -222.59884536266327
 1.706389590436898E9, -315.7073946595192, -369.3226004242897, -310.9203227162361, -160.12755650281906
 1.706389590436898E9, -354.96138459444046, -373.3916115760803, -319.53705221414566, -150.5534126162529
 1.7063895904474728E9, -439.2138507962227, -358.3123349547386, -286.26690220832825, -221.64143097400665
 1.7063895904474728E9, -348.9775446653366, -368.8438932299614, -303.97906839847565, -190.76481693983078
 1.7063895904950275E9, -339.1640471816063, -393.01860654354095, -336.77051120996475, -151.51082700490952
 1.7063895904950275E9, -442.3254475593567, -376.024501144886, -301.5855324268341, -210.87051910161972
 1.7063895904957664E9, -403.55016481876373, -373.3916115760803, -297.0378140807152, -218.7691878080368
 1.7063895904957664E9, -322.4092953801155, -389.90700978040695, -335.81309682130814, -154.62242376804352
 1.7063895904965112E9, -410.4914191365242, -379.6148051023483, -313.5532122850418, -180.95131945610046
 1.7063895904965112E9, -427.7248781323433, -362.6206997036934, -281.9585374593735, -224.0349669456482
 1.7063895904972737E9, -327.43572092056274, -377.6999763250351, -318.10093063116074, -162.76044607162476
 1.7063895904972737E9, -374.5883795619011, -392.06119215488434, -332.46214646101, -168.7442860007286
 1.7063895905082045E9, -458.12278497219086, -371.23742920160294, -290.33591336011887, -242.46519392728806
 1.7063895905082045E9, -356.8762133717537, -376.7425619363785, -303.7397148013115, -197.9454248547554
 1.7063895905088449E9, -335.3343896269798, -385.11993783712387, -334.8556824326515, -153.1863021850586
 1.7063895905088449E9, -434.18742525577545, -367.40777164697647, -295.60169249773026, -217.57241982221603
 1.7063895905223298E9, -391.8218385577202, -362.38134610652924, -286.9849629998207, -218.52983421087265
 1.7063895905223298E9, -308.2874331474304, -379.13609790802, -327.1963673233986, -149.11729103326797
 1.7063895905551016E9, -397.5663248896599, -370.04066121578217, -308.04807955026627, -185.02033060789108
 1.7063895905551016E9, -422.4590989947319, -356.63685977458954, -283.8733662366867, -234.80587881803513
 1.706389590555812E9, -328.87184250354767, -385.359291434288, -320.2551130056381, -180.7119658589363
 1.706389590555812E9, -368.12583243846893, -393.2579601407051, -331.50473207235336, -167.30816441774368
 1.7063895905565097E9, -448.0699338912964, -362.6206997036934, -291.2933277487755, -234.80587881803513
 1.7063895905565097E9, -366.2110036611557, -385.11993783712387, -315.7073946595192, -209.67375111579895
 1.706389590557325E9, -350.41366624832153, -404.2682256102562, -343.47241193056107, -165.1539820432663
 1.706389590557325E9, -440.88932597637177, -372.4341971874237, -304.2184219956398, -222.12013816833496
 1.7063895905673387E9, -380.57221949100494, -355.44009178876877, -283.63401263952255, -213.26405507326126
 1.7063895905673387E9, -306.3726043701172, -376.26385474205017, -324.32412415742874, -150.0747054219246
 1.706389590630806E9, -395.17278891801834, -366.689710855484, -301.1068252325058, -176.88230830430984
 1.706389590630806E9, -414.5604302883148, -352.32849502563477, -270.4695647954941, -222.59884536266327
 1.7063895906315255E9, -315.94674825668335, -372.19484359025955, -308.7661403417587, -158.69143491983414
 1.7063895906315255E9, -349.21689826250076, -369.56195402145386, -309.4842011332512, -145.76634067296982
 1.706389590632225E9, -426.5281101465225, -347.30206948518753, -262.81024968624115, -212.0672870874405
 1.706389590632225E9, -339.6427543759346, -357.354920566082, -284.59142702817917, -179.27584427595139
 1.706389590633036E9, -320.4944666028023, -376.5032083392143, -322.16994178295135, -140.97926872968674
 1.706389590633036E9, -408.8159439563751, -341.796936750412, -272.62374716997147, -187.17451298236847
 1.7063895906443973E9, -369.56195402145386, -337.72792559862137, -258.02317774295807, -188.84998816251755
 1.7063895906443973E9, -272.62374716997147, -346.10530149936676, -294.8836317062378, -120.15550577640533
 1.7063895906451025E9, -347.78077667951584, -321.69123458862305, -260.4167137145996, -135.23478239774704
 1.7063895906451025E9, -379.13609790802, -317.8615770339966, -242.7045475244522, -190.52546334266663
 1.7063895906458592E9, -274.29922235012054, -335.573743224144, -278.36823350191116, -125.89999210834503
 1.7063895906458592E9, -319.2976986169815, -344.4298263192177, -285.78819501399994, -119.91615217924118
 1.7063895906466527E9, -398.76309287548065, -316.1861018538475, -238.15682917833328, -185.25968420505524
 1.7063895906466527E9, -300.1494108438492, -319.53705221414566, -254.91158097982407, -146.24504786729813
 1.7063895906573267E9, -290.8146205544472, -342.2756439447403, -296.3197532892227, -110.34200829267502
 1.7063895906573267E9, -392.06119215488434, -323.84541696310043, -249.16709464788437, -164.675274848938
 1.706389590689054E9, -361.4239317178726, -330.3079640865326, -262.33154249191284, -180.47261226177216
 1.706389590689054E9, -292.01138854026794, -360.70587092638016, -306.61195796728134, -124.94257771968842
 1.706389590689536E9, -386.5560594201088, -357.354920566082, -286.5062558054924, -159.4094957113266
 1.706389590689536E9, -406.1830543875694, -338.92469358444214, -260.17736011743546, -199.86025363206863
 1.7063895906902883E9, -310.4416155219078, -362.86005330085754, -304.2184219956398, -152.22888779640198
 1.7063895906902883E9, -343.7117655277252, -363.57811409235, -311.3990299105644, -146.9631086587906
 1.70638959071944E9, -430.59712129831314, -346.8233622908592, -272.8631007671356, -213.50340867042542
 1.70638959071944E9, -323.84541696310043, -337.0098648071289, -275.73534393310547, -168.2655788064003
 1.7063895907201877E9, -318.3402842283249, -368.12583243846893, -310.4416155219078, -133.79866081476212
 1.7063895907201877E9, -429.1609997153282, -361.9026389122009, -291.7720349431038, -201.0570216178894
 1.7063895907208912E9, -396.13020330667496, -365.01423567533493, -291.0539741516113, -218.52983421087265
 1.7063895907208912E9, -318.3402842283249, -388.2315346002579, -333.4195608496666, -155.10113096237183
 1.7063895907322884E9, -397.80567848682404, -370.04066121578217, -308.7661403417587, -189.32869535684586
 1.7063895907322884E9, -414.0817230939865, -351.84978783130646, -283.15530544519424, -228.58268529176712
 1.7063895907651343E9, -322.8880025744438, -378.1786835193634, -320.9731737971306, -174.24941873550415
 1.7063895907651343E9, -371.4767827987671, -386.0773522257805, -329.8292568922043, -171.3771755695343
 1.7063895907656813E9, -444.2402763366699, -362.6206997036934, -286.74560940265656, -234.08781802654266
 1.7063895907656813E9, -354.00397020578384, -365.01423567533493, -302.30359321832657, -193.39770650863647
 1.7063895907665465E9, -326.95701372623444, -376.024501144886, -323.84541696310043, -151.0321198105812
 1.7063895907665465E9, -437.29902201890945, -364.7748820781708, -293.44751012325287, -213.50340867042542
 1.70638959077804E9, -396.13020330667496, -365.7322964668274, -301.34617882966995, -233.3697572350502
 1.70638959077804E9, -309.4842011332512, -384.4018770456314, -333.8982680439949, -159.64884930849075
 1.7063895907787552E9, -399.72050726413727, -373.3916115760803, -307.8087259531021, -185.9777449965477
 1.7063895907787552E9, -427.246170938015, -359.5091029405594, -284.11271983385086, -236.24200040102005
 1.7063895907924237E9, -327.1963673233986, -386.5560594201088, -325.0421849489212, -179.03649067878723
 1.7063895907924237E9, -373.6309651732445, -394.4547281265259, -332.70150005817413, -172.81329715251923
 1.706389590823477E9, -452.138945043087, -368.12583243846893, -302.0642396211624, -242.2258403301239
 1.706389590823477E9, -364.29617488384247, -384.16252344846725, -316.42545545101166, -211.82793349027634
 1.7063895908394136E9, -343.2330583333969, -396.13020330667496, -348.02013027668, -166.35075002908707
 1.7063895908394136E9, -439.692557990551, -372.912904381752, -302.7823004126549, -219.48724859952927
 1.706389590840184E9, -382.9657554626465, -359.26974934339523, -290.33591336011887, -218.05112701654434
 1.706389590840184E9, -309.24484753608704, -383.20510905981064, -334.3769752383232, -157.01595973968506
 1.7063895908409443E9, -395.8908497095108, -368.3651860356331, -313.79256588220596, -188.13192737102509
 1.7063895908409443E9, -427.7248781323433, -363.0994068980217, -290.0965597629547, -237.67812198400497
 1.7063895908416464E9, -320.2551130056381, -377.2212691307068, -326.7176601290703, -180.95131945610046
 1.7063895908416464E9, -359.5091029405594, -379.13609790802, -328.6324889063835, -164.675274848938
 1.7063895908527043E9, -433.469364464283, -351.37108063697815, -281.00112307071686, -225.94979572296143
 1.7063895908527043E9, -345.8659479022026, -369.3226004242897, -298.23458206653595, -191.96158492565155
 1.7063895908680303E9, -328.87184250354767, -384.16252344846725, -327.1963673233986, -150.5534126162529
 1.7063895908680303E9, -436.1022540330887, -370.04066121578217, -297.9952284693718, -213.98211586475372
 1.7063895908687043E9, -394.9334353208542, -367.8864788413048, -296.3197532892227, -230.49751406908035
 1.7063895908687043E9, -322.8880025744438, -395.8908497095108, -337.9672791957855, -163.71786046028137
 1.7063895908984785E9, -402.83210402727127, -374.5883795619011, -316.1861018538475, -194.11576730012894
 1.7063895908984785E9, -427.7248781323433, -363.81746768951416, -291.2933277487755, -243.90131551027298
 1.7063895909144635E9, -325.5208921432495, -383.68381625413895, -317.6222234368324, -183.10550183057785
 1.7063895909144635E9, -363.33876049518585, -384.16252344846725, -320.4944666028023, -170.898468375206
 1.7063895909151323E9, -438.7351436018944, -358.55168855190277, -281.47983026504517, -236.24200040102005
 1.7063895909151323E9, -348.9775446653366, -368.60453963279724, -311.87773710489273, -208.47698312997818
 1.7063895909158857E9, -333.8982680439949, -384.4018770456314, -334.13762164115906, -168.7442860007286
 1.7063895909158857E9, -423.6558669805527, -358.55168855190277, -295.12298530340195, -218.7691878080368
 1.7063895909166348E9, -379.3754515051842, -353.2859094142914, -284.11271983385086, -225.71044212579727
 1.7063895909166348E9, -299.910057246685, -374.34902596473694, -317.8615770339966, -153.90436297655106
 1.7063895909279354E9, -396.60891050100327, -370.5193684101105, -304.2184219956398, -193.63706010580063
 1.7063895909279354E9, -417.6720270514488, -350.41366624832153, -276.45340472459793, -235.76329320669174
 1.7063895909586575E9, -309.0054939389229, -364.5355284810066, -316.42545545101166, -179.7545514702797
 1.7063895909586575E9, -352.0891414284706, -370.7587220072746, -323.12735617160797, -168.2655788064003
 1.706389590975177E9, -438.25643640756607, -354.96138459444046, -286.9849629998207, -241.7471331357956
 1.706389590975177E9, -346.10530149936676, -362.38134610652924, -299.6707036495209, -202.97185039520264
 1.7063895909756167E9, -323.6060633659363, -374.5883795619011, -326.95701372623444, -157.01595973968506
 1.7063895909756167E9, -433.70871806144714, -368.3651860356331, -296.08039969205856, -222.12013816833496
 1.7063895909764383E9, -396.8482640981674, -365.49294286966324, -292.2507421374321, -230.2581604719162
 1.7063895909764383E9, -313.31385868787766, -378.41803711652756, -330.54731768369675, -165.6326892375946
 1.706389590988016E9, -393.97602093219757, -366.45035725831985, -307.3300187587738, -186.21709859371185
 1.706389590988016E9, -425.5706957578659, -363.0994068980217, -278.84694069623947, -238.6355363726616
 1.7063895909887457E9, -329.8292568922043, -387.5134738087654, -327.43572092056274, -184.30226981639862
 1.7063895909887457E9, -366.45035725831985, -384.4018770456314, -326.7176601290703, -172.33458995819092
 1.7063895910023692E9, -439.692557990551, -361.6632853150368, -284.8307806253433, -232.8910500407219
 1.7063895910023692E9, -344.908533513546, -361.6632853150368, -297.75587487220764, -194.59447449445724
 1.7063895910503254E9, -325.5208921432495, -376.26385474205017, -326.238952934742, -156.05854535102844
 1.7063895910503254E9, -426.7674637436867, -364.0568212866783, -292.7294493317604, -215.1788838505745
 1.706389591050886E9, -382.72640186548233, -356.63685977458954, -283.8733662366867, -216.1362982392311
 1.706389591050886E9, -303.2610076069832, -372.19484359025955, -318.3402842283249, -150.5534126162529
 1.706389591051577E9, -389.1889489889145, -361.18457812070847, -298.71328926086426, -179.03649067878723
 1.706389591051577E9, -408.8159439563751, -343.2330583333969, -264.7250784635544, -224.9923813343048
 1.706389591052405E9, -309.0054939389229, -365.7322964668274, -306.8513115644455, -166.82945722341537
 1.706389591052405E9, -336.29180401563644, -357.11556696891785, -304.93648278713226, -146.48440146446228
 1.7063895910630307E9, -422.4590989947319, -342.03629034757614, -268.07602882385254, -210.3918119072914
 1.7063895910630307E9, -335.573743224144, -358.3123349547386, -293.686863720417, -187.89257377386093
 1.7063895910637257E9, -323.12735617160797, -378.41803711652756, -319.2976986169815, -156.2978989481926
 1.7063895910637257E9, -410.25206553936005, -352.32849502563477, -285.0701342225075, -210.3918119072914
 1.706389591078185E9, -369.08324682712555, -343.47241193056107, -271.4269791841507, -211.34922629594803
 1.706389591078185E9, -294.8836317062378, -378.6573907136917, -332.2227928638458, -157.97337412834167
 1.7063895910787587E9, -384.16252344846725, -361.9026389122009, -305.41518998146057, -182.62679463624954
 1.7063895910787587E9, -396.3695569038391, -340.83952236175537, -269.03344321250916, -215.89694464206696
 1.7063895911080823E9, -298.23458206653595, -356.3975061774254, -305.41518998146057, -170.898468375206
 1.7063895911080823E9, -325.0421849489212, -350.41366624832153, -310.68096911907196, -151.75018060207367
 1.706389591108903E9, -389.90700978040695, -315.2286874651909, -252.27869141101837, -200.5783144235611
 1.706389591108903E9, -279.8043550848961, -302.7823004126549, -245.57679069042206, -143.37280470132828
 1.7063895911230512E9, -323.6060633659363, -266.40055364370346, -206.56215435266495, -127.0967600941658
 1.7063895911230512E9, -284.352073431015, -261.3741281032562, -205.12603276968002, -140.97926872968674
 1.70638959112376E9, -207.99827593564987, -285.5488414168358, -241.50777953863144, -72.04543274641037
 1.70638959112376E9, -291.7720349431038, -267.8366752266884, -217.33306622505188, -95.74143886566162
 1.706389591154971E9, -324.32412415742874, -261.13477450609207, -192.2009385228157, -142.41539031267166
 1.706389591154971E9, -207.99827593564987, -266.87926083803177, -222.12013816833496, -78.02927267551422
 1.7063895911557508E9, -262.33154249191284, -285.78819501399994, -242.46519392728806, -80.66216224431992
 1.7063895911557508E9, -356.3975061774254, -274.77792954444885, -205.36538636684418, -147.68116945028305
 1.7063895911684585E9, -257.06576335430145, -281.9585374593735, -217.33306622505188, -114.41101944446564
 1.7063895911684585E9, -244.8587298989296, -299.19199645519257, -252.75739860534668, -75.15702950954437
 1.706389591183771E9, -357.8336277604103, -291.7720349431038, -232.65169644355774, -147.4418158531189
 1.706389591183771E9, -326.238952934742, -298.71328926086426, -231.45492845773697, -161.08497089147568
 1.7063895911844895E9, -262.570896089077, -332.70150005817413, -287.463670194149, -106.51235073804855
 1.7063895911844895E9, -361.18457812070847, -337.9672791957855, -275.25663673877716, -146.00569427013397
 1.7063895911852233E9, -392.7792529463768, -331.50473207235336, -252.75739860534668, -202.01443600654602
 1.7063895911852233E9, -299.19199645519257, -357.59427416324615, -303.02165400981903, -150.79276621341705
 1.7063895911973612E9, -354.7220309972763, -379.13609790802, -315.46804106235504, -155.10113096237183
 1.7063895911973612E9, -448.78799468278885, -369.08324682712555, -287.9423773884773, -227.6252709031105
 1.7063895912132845E9, -366.92906445264816, -388.470888197422, -312.83515149354935, -200.33896082639694
 1.7063895912132845E9, -357.354920566082, -409.29465115070343, -350.89237344264984, -168.98363959789276
 1.706389591213865E9, -464.1066249012947, -401.39598244428635, -313.0745050907135, -226.90721011161804
 1.706389591213865E9, -424.37392777204514, -395.17278891801834, -311.6383835077286, -235.76329320669174
 1.7063895912606685E9, -338.2066327929497, -405.9437007904053, -347.78077667951584, -167.786871612072
 1.7063895912606685E9, -426.5281101465225, -399.0024464726448, -322.16994178295135, -196.26994967460632
 1.7063895912612398E9, -456.2079561948776, -391.8218385577202, -306.8513115644455, -252.51804500818253
 1.7063895912612398E9, -358.3123349547386, -412.6456015110016, -349.21689826250076, -200.5783144235611
 1.706389591261937E9, -389.1889489889145, -408.3372367620468, -347.78077667951584, -184.06291621923447
 1.706389591261937E9, -470.808525621891, -391.58248496055603, -304.45777559280396, -243.66196191310883
 1.7063895912626915E9, -376.26385474205017, -398.0450320839882, -320.73382019996643, -210.3918119072914
 1.7063895912626915E9, -357.59427416324615, -413.6030158996582, -349.69560545682907, -172.81329715251923
 1.7063895912735064E9, -464.34597849845886, -396.8482640981674, -317.6222234368324, -235.76329320669174
 1.7063895912735064E9, -430.11841410398483, -403.3108112215996, -311.6383835077286, -246.53420507907867
 1.7063895912738185E9, -347.0627158880234, -420.54427021741867, -357.11556696891785, -184.54162341356277
 1.7063895912738185E9, -432.03324288129807, -405.46499359607697, -336.77051120996475, -213.98211586475372
 1.7063895912873793E9, -452.138945043087, -390.6250705718994, -305.41518998146057, -256.10834896564484
 1.7063895912873793E9, -345.14788711071014, -406.1830543875694, -341.0788759589195, -195.3125352859497
 1.706389591302777E9, -382.72640186548233, -404.7469328045845, -344.908533513546, -187.89257377386093
 1.706389591302777E9, -469.13305044174194, -389.90700978040695, -306.61195796728134, -253.47545939683914
 1.7063895913185492E9, -374.34902596473694, -392.3005457520485, -317.6222234368324, -213.98211586475372
 1.7063895913185492E9, -353.7646166086197, -399.24180006980896, -346.10530149936676, -174.24941873550415
 1.7063895913341684E9, -449.9847626686096, -381.52963387966156, -312.83515149354935, -234.32717162370682
 1.7063895913341684E9, -412.40624791383743, -384.16252344846725, -309.24484753608704, -243.42260831594467
 1.7063895913346043E9, -333.4195608496666, -406.4224079847336, -347.30206948518753, -175.44618672132492
 1.7063895913346043E9, -431.3151820898056, -404.02887201309204, -341.3182295560837, -215.1788838505745
 1.7063895913353603E9, -449.027348279953, -387.75282740592957, -310.4416155219078, -259.9380065202713
 1.7063895913353603E9, -343.2330583333969, -404.50757920742035, -343.7117655277252, -200.33896082639694
 1.7063895913474572E9, -377.93932992219925, -400.91727524995804, -339.6427543759346, -183.8235626220703
 1.7063895913474572E9, -460.9950281381607, -381.2902802824974, -302.30359321832657, -251.5606306195259
 1.70638959139514E9, -375.78514754772186, -393.97602093219757, -322.64864897727966, -222.12013816833496
 1.70638959139514E9, -353.2859094142914, -409.0552975535393, -346.58400869369507, -172.81329715251923
 1.7063895913958151E9, -447.83058029413223, -385.83799862861633, -312.83515149354935, -228.82203888893127
 1.7063895913958151E9, -413.84236949682236, -390.38571697473526, -311.3990299105644, -243.66196191310883
 1.706389591396737E9, -331.98343926668167, -405.9437007904053, -345.8659479022026, -171.13782197237015
 1.706389591396737E9, -411.9275407195091, -385.359291434288, -322.64864897727966, -198.4241320490837
 1.7063895913973403E9, -436.580961227417, -373.15225797891617, -292.96880292892456, -242.94390112161636
 1.7063895913973403E9, -333.18020725250244, -389.42830258607864, -320.9731737971306, -179.51519787311554
 1.7063895914081917E9, -381.05092668533325, -396.60891050100327, -330.06861048936844, -175.92489391565323
 1.7063895914081917E9, -456.4473097920418, -370.7587220072746, -286.74560940265656, -237.91747558116913
 1.7063895914087813E9, -361.4239317178726, -378.6573907136917, -307.56937235593796, -202.25378960371017
 1.7063895914087813E9, -338.44598639011383, -388.2315346002579, -335.3343896269798, -164.91462844610214
 1.7063895914230485E9, -428.6822925209999, -366.2110036611557, -288.42108458280563, -215.89694464206696
 1.7063895914230485E9, -397.0876176953316, -371.9554899930954, -291.7720349431038, -233.8484644293785
 1.7063895914238195E9, -318.3402842283249, -391.58248496055603, -330.7866712808609, -168.02622520923615
 1.7063895914238195E9, -404.02887201309204, -374.5883795619011, -311.3990299105644, -197.4667176604271
 1.7063895914703228E9, -428.92164611816406, -368.12583243846893, -290.575266957283, -250.12450903654099
 1.7063895914703228E9, -337.0098648071289, -393.2579601407051, -328.6324889063835, -193.39770650863647
 1.7063895914708228E9, -372.4341971874237, -397.80567848682404, -342.51499754190445, -190.52546334266663
 1.7063895914708228E9, -454.05377382040024, -379.6148051023483, -305.1758363842964, -263.76766407489777
 1.706389591471554E9, -358.55168855190277, -381.7689874768257, -316.42545545101166, -217.57241982221603
 1.706389591471554E9, -350.89237344264984, -404.98628640174866, -352.8072022199631, -184.30226981639862
 1.706389591472453E9, -447.5912266969681, -381.7689874768257, -308.5267867445946, -236.9600611925125
 1.706389591472453E9, -400.91727524995804, -371.71613639593124, -300.38876444101334, -240.78971874713898
 1.70638959151382E9, -318.10093063116074, -393.49731373786926, -334.13762164115906, -166.59010362625122
 1.70638959151382E9, -401.39598244428635, -377.46062272787094, -317.8615770339966, -200.81766802072525
 1.7063895915307753E9, -435.6235468387604, -370.7587220072746, -290.8146205544472, -247.4916194677353
 1.7063895915307753E9, -331.98343926668167, -388.470888197422, -331.7440856695175, -194.11576730012894
 1.706389591531471E9, -369.56195402145386, -391.58248496055603, -342.03629034757614, -189.32869535684586
 1.706389591531471E9, -459.0801993608475, -375.5457939505577, -299.910057246685, -251.0819234251976
 1.7063895915322397E9, -369.801307618618, -392.3005457520485, -319.2976986169815, -223.79561334848404
 1.7063895915322397E9, -349.21689826250076, -406.66176158189774, -353.0465558171272, -176.88230830430984
 1.7063895915329742E9, -437.5383756160736, -376.98191553354263, -305.6545435786247, -235.04523241519928
 1.7063895915329742E9, -397.3269712924957, -376.98191553354263, -301.82488602399826, -242.7045475244522
 1.7063895915439858E9, -317.1435162425041, -391.58248496055603, -346.10530149936676, -178.31842988729477
 1.7063895915439858E9, -407.14046877622604, -387.0347666144371, -323.84541696310043, -207.51956874132156
 1.7063895915444632E9, -431.07582849264145, -374.1096723675728, -298.71328926086426, -254.43287378549576
 1.7063895915444632E9, -324.80283135175705, -386.0773522257805, -320.73382019996643, -185.25968420505524
 1.7063895915451972E9, -359.74845653772354, -386.0773522257805, -321.4518809914589, -174.4887723326683
 1.7063895915451972E9, -440.41061878204346, -365.01423567533493, -285.0701342225075, -238.87488996982574
 1.706389591557464E9, -350.41366624832153, -372.19484359025955, -309.0054939389229, -212.78534787893295
 1.706389591557464E9, -333.4195608496666, -389.42830258607864, -342.7543511390686, -171.13782197237015
 1.706389591573031E9, -429.6397069096565, -364.7748820781708, -299.910057246685, -225.47108852863312
 1.706389591573031E9, -393.49731373786926, -366.45035725831985, -289.6178525686264, -233.8484644293785
 1.7063895915737395E9, -323.84541696310043, -395.17278891801834, -334.8556824326515, -167.786871612072
 1.7063895915737395E9, -422.9378061890602, -395.17278891801834, -330.3079640865326, -206.08344715833664
 1.7063895915873432E9, -453.8144202232361, -390.6250705718994, -308.7661403417587, -263.76766407489777
 1.7063895915873432E9, -341.3182295560837, -397.5663248896599, -335.81309682130814, -195.55188888311386
 1.706389591603276E9, -376.98191553354263, -398.28438568115234, -332.9408536553383, -179.51519787311554
 1.706389591603276E9, -455.01118820905685, -369.801307618618, -291.0539741516113, -244.8587298989296
 1.706389591603834E9, -355.2007381916046, -376.024501144886, -304.2184219956398, -204.40797197818756
 1.706389591603834E9, -347.30206948518753, -398.5237392783165, -337.4885720014572, -168.98363959789276
 1.7063895916173797E9, -454.2931274175644, -384.4018770456314, -310.20226192474365, -233.60911083221436
 1.7063895916173797E9, -408.8159439563751, -379.8541586995125, -303.2610076069832, -239.5929507613182
 1.7063895916329944E9, -317.1435162425041, -392.06119215488434, -339.6427543759346, -171.8558827638626
 1.7063895916329944E9, -414.5604302883148, -392.53989934921265, -327.6750745177269, -207.75892233848572
 1.7063895916336925E9, -438.97449719905853, -374.1096723675728, -299.6707036495209, -254.91158097982407
 1.7063895916336925E9, -328.6324889063835, -387.9921810030937, -325.76024574041367, -187.89257377386093
 1.7063895916479585E9, -352.5678486227989, -377.2212691307068, -321.4518809914589, -170.65911477804184
 1.7063895916479585E9, -444.4796299338341, -361.6632853150368, -285.30948781967163, -239.1142435669899
 1.7063895916635036E9, -355.2007381916046, -376.5032083392143, -309.0054939389229, -210.63116550445557
 1.7063895916635036E9, -330.54731768369675, -385.83799862861633, -339.6427543759346, -159.8882029056549
 1.7063895916781735E9, -432.7513036727905, -364.7748820781708, -295.3623389005661, -222.35949176549911
 1.7063895916781735E9, -386.79541301727295, -358.3123349547386, -285.30948781967163, -227.38591730594635
 1.706389591678727E9, -315.2286874651909, -386.5560594201088, -337.4885720014572, -167.06881082057953
 1.706389591678727E9, -410.73077273368835, -384.16252344846725, -317.1435162425041, -193.63706010580063
 1.7063895917403755E9, -436.1022540330887, -370.7587220072746, -284.59142702817917, -234.32717162370682
 1.7063895917403755E9, -325.0421849489212, -385.5986450314522, -321.4518809914589, -170.898468375206
 1.706389591740985E9, -375.30644035339355, -389.90700978040695, -330.06861048936844, -168.98363959789276
 1.706389591740985E9, -461.473735332489, -373.15225797891617, -296.08039969205856, -246.05549788475037
 1.7063895917417996E9, -361.9026389122009, -382.9657554626465, -314.0319194793701, -210.63116550445557
 1.7063895917417996E9, -343.47241193056107, -393.01860654354095, -341.3182295560837, -167.30816441774368
 1.7063895917424724E9, -436.580961227417, -369.801307618618, -295.12298530340195, -217.8117734193802
 1.7063895917424724E9, -393.01860654354095, -360.466517329216, -279.3256478905678, -211.82793349027634
 1.7063895917545033E9, -315.46804106235504, -383.4444626569748, -323.84541696310043, -148.15987664461136
 1.7063895917545033E9, -400.91727524995804, -375.0670867562294, -303.97906839847565, -179.7545514702797
 1.7063895917551548E9, -424.85263496637344, -360.466517329216, -275.4959903359413, -227.6252709031105
 1.7063895917551548E9, -324.80283135175705, -381.2902802824974, -314.5106266736984, -168.2655788064003
 1.7063895917559352E9, -365.49294286966324, -383.68381625413895, -323.3667097687721, -166.35075002908707
 1.7063895917559352E9, -444.4796299338341, -362.38134610652924, -280.7617694735527, -228.34333169460297
 1.7063895917566752E9, -355.44009178876877, -372.912904381752, -303.97906839847565, -201.29637521505356
 1.7063895917566752E9, -332.46214646101, -390.86442416906357, -331.02602487802505, -152.70759499073029
 1.706389591767338E9, -436.1022540330887, -376.7425619363785, -300.86747163534164, -214.93953025341034
 1.706389591767338E9, -397.80567848682404, -375.5457939505577, -297.0378140807152, -230.49751406908035
 1.706389591783707E9, -315.7073946595192, -391.58248496055603, -338.44598639011383, -165.87204283475876
 1.706389591783707E9, -396.60891050100327, -369.801307618618, -309.4842011332512, -188.84998816251755
 1.706389591798071E9, -417.43267345428467, -355.6794453859329, -274.5385759472847, -226.18914932012558
 1.706389591798071E9, -309.4842011332512, -366.92906445264816, -319.7764058113098, -165.87204283475876
 1.70638959179876E9, -352.32849502563477, -371.4767827987671, -324.80283135175705, -160.36691009998322
 1.70638959179876E9, -441.6073867678642, -363.33876049518585, -281.47983026504517, -228.82203888893127
 1.7063895918131034E9, -351.131727039814, -368.8438932299614, -295.12298530340195, -191.00417053699493
 1.7063895918131034E9, -337.0098648071289, -387.27412021160126, -328.87184250354767, -153.42565578222275
 1.7063895918137412E9, -443.2828619480133, -374.1096723675728, -298.71328926086426, -213.98211586475372
 1.7063895918137412E9, -402.5927504301071, -369.56195402145386, -299.19199645519257, -228.58268529176712
 1.7063895918273451E9, -333.4195608496666, -402.5927504301071, -341.3182295560837, -167.786871612072
 1.7063895918273451E9, -417.43267345428467, -385.5986450314522, -319.53705221414566, -193.15835291147232
 1.7063895918430145E9, -422.69845259189606, -356.3975061774254, -282.1978910565376, -230.97622126340866
 1.7063895918430145E9, -334.13762164115906, -390.6250705718994, -323.3667097687721, -175.68554031848907
 1.7063895918437357E9, -370.2800148129463, -384.4018770456314, -314.98933386802673, -156.7766061425209
 1.7063895918437357E9, -448.78799468278885, -361.4239317178726, -282.1978910565376, -228.34333169460297
 1.7063895918739216E9, -367.1684180498123, -385.11993783712387, -311.15967631340027, -200.0996072292328
 1.7063895918739216E9, -343.47241193056107, -390.6250705718994, -339.1640471816063, -158.69143491983414
 1.706389591874571E9, -440.1712651848793, -372.67355078458786, -299.4313500523567, -213.0247014760971
 1.706389591874571E9, -397.5663248896599, -367.1684180498123, -289.6178525686264, -216.1362982392311
 1.7063895918752615E9, -319.53705221414566, -392.7792529463768, -333.18020725250244, -157.49466693401337
 1.7063895918752615E9, -413.84236949682236, -383.9231698513031, -314.5106266736984, -185.73839139938354
 1.706389591887331E9, -437.77772921323776, -370.04066121578217, -281.00112307071686, -232.17298924922943
 1.706389591887331E9, -339.6427543759346, -394.2153745293617, -329.8292568922043, -184.06291621923447
 1.7063895919035823E9, -385.359291434288, -400.91727524995804, -342.2756439447403, -183.8235626220703
 1.7063895919035823E9, -462.6705033183098, -378.89674431085587, -302.0642396211624, -248.92774105072021
 1.7063895919038372E9, -358.7910421490669, -381.05092668533325, -317.6222234368324, -204.64732557535172
 1.7063895919038372E9, -331.02602487802505, -380.09351229667664, -328.87184250354767, -151.98953419923782
 1.7063895919174511E9, -430.8364748954773, -366.92906445264816, -289.6178525686264, -210.63116550445557
 1.7063895919174511E9, -396.60891050100327, -371.9554899930954, -296.798460483551, -231.45492845773697
 1.70638959194977E9, -307.3300187587738, -384.8805842399597, -332.46214646101, -155.8191917538643
 1.70638959194977E9, -392.3005457520485, -365.97165006399155, -295.8410460948944, -176.16424751281738
 1.7063895919502633E9, -424.37392777204514, -359.0303957462311, -277.41081911325455, -230.2581604719162
 1.7063895919502633E9, -324.5634777545929, -380.09351229667664, -319.05834501981735, -176.40360110998154
 1.7063895919509523E9, -357.59427416324615, -375.78514754772186, -326.4783065319061, -164.43592125177383
 1.7063895919509523E9, -437.29902201890945, -356.8762133717537, -276.93211191892624, -229.06139248609543
 1.7063895919517667E9, -353.0465558171272, -372.4341971874237, -296.55910688638687, -195.79124248027802
 1.7063895919517667E9, -332.70150005817413, -386.31670582294464, -330.7866712808609, -154.62242376804352
 1.7063895919623797E9, -433.70871806144714, -362.6206997036934, -287.9423773884773, -208.71633672714233
 1.7063895919623797E9, -398.28438568115234, -367.40777164697647, -283.3946590423584, -221.4020773768425
 1.7063895919774427E9, -324.32412415742874, -392.3005457520485, -329.1111961007118, -157.49466693401337
 1.7063895919774427E9, -407.14046877622604, -377.93932992219925, -311.87773710489273, -190.52546334266663
 1.7063895919934907E9, -425.5706957578659, -362.6206997036934, -289.37849897146225, -237.43876838684082
 1.7063895919934907E9, -324.80283135175705, -378.41803711652756, -314.98933386802673, -168.50493240356445
 1.7063895920084603E9, -365.7322964668274, -384.8805842399597, -324.0847705602646, -162.5210924744606
 1.7063895920084603E9, -446.15510511398315, -361.9026389122009, -286.26690220832825, -233.60911083221436
 1.7063895920241027E9, -356.63685977458954, -375.5457939505577, -297.9952284693718, -197.22736406326294
 1.7063895920241027E9, -326.238952934742, -381.52963387966156, -320.73382019996643, -149.83535182476044
 1.7063895920245345E9, -434.18742525577545, -368.60453963279724, -292.96880292892456, -217.09371262788773
 1.7063895920245345E9, -396.13020330667496, -369.56195402145386, -286.5062558054924, -225.47108852863312
 1.7063895920252917E9, -317.3828698396683, -393.7366673350334, -334.13762164115906, -165.6326892375946
 1.7063895920252917E9, -413.1243087053299, -382.4870482683182, -314.7499802708626, -191.00417053699493
 1.7063895920858183E9, -425.5706957578659, -364.29617488384247, -280.2830622792244, -235.5239396095276
 1.7063895920858183E9, -331.2653784751892, -384.4018770456314, -314.0319194793701, -174.9674795269966
 1.7063895920864947E9, -368.12583243846893, -389.1889489889145, -319.7764058113098, -173.29200434684753
 1.7063895920864947E9, -447.83058029413223, -365.49294286966324, -287.70302379131317, -242.7045475244522
 1.7063895920872095E9, -358.3123349547386, -378.41803711652756, -309.0054939389229, -213.26405507326126
 1.7063895920872095E9, -339.40340077877045, -388.470888197422, -330.7866712808609, -164.43592125177383
 1.706389592087953E9, -428.6822925209999, -362.6206997036934, -289.1391453742981, -214.46082305908203
 1.706389592087953E9, -384.16252344846725, -353.0465558171272, -277.41081911325455, -217.33306622505188
 1.7063895920997071E9, -301.5855324268341, -375.30644035339355, -313.31385868787766, -146.24504786729813
 1.7063895920997071E9, -387.0347666144371, -362.38134610652924, -288.89979177713394, -181.43002665042877
 1.706389592100335E9, -415.99655187129974, -353.52526301145554, -269.99085760116577, -236.24200040102005
 1.706389592100335E9, -314.98933386802673, -368.3651860356331, -313.79256588220596, -177.6003690958023
 1.7063895921010919E9, -359.74845653772354, -374.5883795619011, -313.31385868787766, -171.13782197237015
 1.7063895921010919E9, -446.63381230831146, -358.07298135757446, -270.2302111983299, -229.54009968042374
 1.706389592101859E9, -348.4988374710083, -363.81746768951416, -299.4313500523567, -193.39770650863647
 1.706389592101859E9, -340.83952236175537, -388.470888197422, -328.39313530921936, -157.2553133368492
 1.7063895921600766E9, -400.1992144584656, -373.6309651732445, -292.01138854026794, -227.1465637087822
 1.7063895921600766E9, -319.7764058113098, -390.38571697473526, -335.573743224144, -164.19656765460968
 1.7063895921608565E9, -407.3798223733902, -376.5032083392143, -304.2184219956398, -191.2435241341591
 1.7063895921608565E9, -431.07582849264145, -360.70587092638016, -283.8733662366867, -241.7471331357956
 1.7063895921751032E9, -321.9305881857872, -379.3754515051842, -314.7499802708626, -177.83972269296646
 1.7063895921751032E9, -365.97165006399155, -381.52963387966156, -316.90416264533997, -167.786871612072
 1.7063895921758463E9, -454.2931274175644, -368.12583243846893, -284.11271983385086, -242.46519392728806
 1.7063895921758463E9, -354.00397020578384, -371.9554899930954, -301.82488602399826, -203.6899111866951
 1.7063895921766305E9, -324.32412415742874, -375.0670867562294, -319.2976986169815, -151.98953419923782
 1.7063895921766305E9, -429.40035331249237, -361.4239317178726, -282.1978910565376, -206.8015079498291
 1.7063895921774673E9, -405.2256399989128, -371.9554899930954, -290.33591336011887, -230.97622126340866
 1.7063895921774673E9, -294.64427810907364, -370.2800148129463, -320.9731737971306, -155.8191917538643
 1.7063895921883233E9, -382.00834107398987, -356.15815258026123, -286.9849629998207, -171.13782197237015
 1.7063895921883233E9, -393.2579601407051, -333.8982680439949, -257.54447054862976, -216.61500543355942
 1.706389592188984E9, -300.38876444101334, -362.38134610652924, -304.93648278713226, -167.30816441774368
 1.706389592188984E9, -338.2066327929497, -360.70587092638016, -305.8938971757889, -166.1113964319229
 1.7063895922024095E9, -414.799783885479, -338.92469358444214, -264.96443206071854, -230.7368676662445
 1.7063895922024095E9, -329.8292568922043, -361.6632853150368, -292.2507421374321, -204.1686183810234
 1.7063895922191472E9, -303.7397148013115, -370.2800148129463, -316.42545545101166, -159.8882029056549
 1.7063895922191472E9, -407.14046877622604, -357.11556696891785, -284.352073431015, -221.16272377967834
 1.7063895922333574E9, -368.3651860356331, -360.70587092638016, -287.463670194149, -236.0026468038559
 1.7063895922333574E9, -271.905686378479, -359.5091029405594, -314.0319194793701, -162.9997996687889
 1.7063895922340431E9, -358.07298135757446, -350.6530198454857, -291.53268134593964, -197.70607125759125
 1.7063895922340431E9, -390.6250705718994, -347.5414230823517, -271.4269791841507, -249.88515543937683
 1.7063895922644446E9, -294.64427810907364, -372.19484359025955, -314.98933386802673, -191.00417053699493
 1.7063895922644446E9, -333.65891444683075, -366.689710855484, -316.1861018538475, -182.3874410390854
 1.7063895922950928E9, -425.5706957578659, -356.3975061774254, -289.85720616579056, -259.9380065202713
 1.7063895922950928E9, -330.3079640865326, -367.1684180498123, -298.4739356637001, -215.89694464206696
 1.7063895922958245E9, -318.10093063116074, -386.0773522257805, -332.70150005817413, -176.6429547071457
 1.7063895922958245E9, -414.799783885479, -362.6206997036934, -296.3197532892227, -232.17298924922943
 1.7063895922965505E9, -372.67355078458786, -364.7748820781708, -285.0701342225075, -238.6355363726616
 1.7063895922965505E9, -289.37849897146225, -374.82773315906525, -315.7073946595192, -164.19656765460968
 1.706389592297358E9, -375.5457939505577, -361.6632853150368, -298.23458206653595, -198.18477845191956
 1.706389592297358E9, -399.4811536669731, -353.52526301145554, -269.03344321250916, -238.39618277549744
 1.706389592309169E9, -307.8087259531021, -372.19484359025955, -315.2286874651909, -184.54162341356277
 1.706389592309169E9, -351.131727039814, -381.52963387966156, -326.7176601290703, -182.8661482334137
 1.7063895923097768E9, -430.11841410398483, -358.7910421490669, -283.3946590423584, -247.01291227340698
 1.7063895923097768E9, -329.1111961007118, -363.57811409235, -297.27716767787933, -211.82793349027634
 1.7063895923102858E9, -320.01575940847397, -386.79541301727295, -332.9408536553383, -172.33458995819092
 1.7063895923102858E9, -413.36366230249405, -360.466517329216, -294.4049245119095, -225.23173493146896
 1.706389592322412E9, -374.82773315906525, -352.8072022199631, -277.6501727104187, -224.9923813343048
 1.706389592322412E9, -292.01138854026794, -377.46062272787094, -327.43572092056274, -162.9997996687889
 1.7063895923385177E9, -386.0773522257805, -372.67355078458786, -312.1170907020569, -205.60473996400833
 1.7063895923385177E9, -410.25206553936005, -361.4239317178726, -287.9423773884773, -251.5606306195259
 1.706389592353339E9, -313.79256588220596, -380.57221949100494, -325.28153854608536, -190.28610974550247
 1.706389592353339E9, -344.1904727220535, -370.2800148129463, -322.64864897727966, -171.8558827638626
 1.7063895923538437E9, -417.911380648613, -343.2330583333969, -269.03344321250916, -226.42850291728973
 1.7063895923538437E9, -321.9305881857872, -354.00397020578384, -286.74560940265656, -188.6106345653534
 1.7063895923683984E9, -310.68096911907196, -372.67355078458786, -323.12735617160797, -157.49466693401337
 1.7063895923683984E9, -409.0552975535393, -352.0891414284706, -280.7617694735527, -210.87051910161972
 1.7063895923690093E9, -372.912904381752, -354.7220309972763, -280.52241587638855, -220.44466298818588
 1.7063895923690093E9, -296.3197532892227, -371.71613639593124, -317.1435162425041, -157.01595973968506
 1.7063895923987975E9, -391.1037777662277, -373.6309651732445, -299.19199645519257, -192.2009385228157
 1.7063895923987975E9, -410.9701263308525, -357.354920566082, -280.2830622792244, -241.98648673295975
 1.7063895923995228E9, -329.350549697876, -392.06119215488434, -337.4885720014572, -202.25378960371017
 1.7063895923995228E9, -364.7748820781708, -388.470888197422, -331.7440856695175, -172.09523636102676
 1.706389592400302E9, -427.246170938015, -347.5414230823517, -264.2463712692261, -217.57241982221603
 1.706389592400302E9, -350.6530198454857, -364.5355284810066, -292.2507421374321, -181.19067305326462
 1.7063895924296432E9, -335.0950360298157, -374.34902596473694, -311.6383835077286, -135.9528431892395
 1.7063895924296432E9, -441.8467403650284, -360.22716373205185, -281.7191838622093, -190.76481693983078
 1.7063895924302385E9, -408.8159439563751, -362.1419925093651, -280.04370868206024, -200.81766802072525
 1.7063895924302385E9, -323.6060633659363, -374.34902596473694, -314.7499802708626, -129.01158887147903
 1.7063895924310842E9, -407.14046877622604, -360.466517329216, -286.0275486111641, -158.21272772550583
 1.7063895924310842E9, -414.5604302883148, -335.573743224144, -253.47545939683914, -195.79124248027802
 1.7063895924429045E9, -327.91442811489105, -368.12583243846893, -300.6281180381775, -144.3302190899849
 1.7063895924429045E9, -370.5193684101105, -371.4767827987671, -303.2610076069832, -138.1070255637169
 1.706389592458289E9, -458.8408457636833, -356.3975061774254, -269.2727968096733, -210.15245831012726
 1.706389592458289E9, -369.56195402145386, -368.8438932299614, -296.08039969205856, -180.233258664608
 1.7063895924588988E9, -356.15815258026123, -383.9231698513031, -327.6750745177269, -144.09086549282074
 1.7063895924588988E9, -449.74540907144547, -366.689710855484, -289.85720616579056, -198.4241320490837
 1.7063895925051565E9, -405.46499359607697, -360.22716373205185, -276.6927583217621, -203.2112039923668
 1.7063895925051565E9, -322.16994178295135, -380.3328658938408, -313.79256588220596, -138.5857327580452
 1.7063895925058796E9, -410.9701263308525, -366.689710855484, -295.60169249773026, -171.61652916669846
 1.7063895925058796E9, -429.8790605068207, -354.00397020578384, -262.0921888947487, -210.87051910161972
 1.7063895925066156E9, -331.50473207235336, -373.6309651732445, -304.45777559280396, -154.86177736520767
 1.7063895925066156E9, -376.5032083392143, -373.15225797891617, -310.20226192474365, -148.63858383893967
 1.7063895925074284E9, -454.7718346118927, -359.26974934339523, -271.4269791841507, -211.58857989311218
 1.7063895925074284E9, -371.23742920160294, -373.87031877040863, -295.12298530340195, -184.06291621923447
 1.7063895925182E9, -355.6794453859329, -401.87468963861465, -334.8556824326515, -153.42565578222275
 1.7063895925182E9, -457.8834313750267, -376.26385474205017, -293.2081565260887, -207.2802151441574
 1.7063895925188248E9, -406.66176158189774, -363.57811409235, -284.352073431015, -207.99827593564987
 1.7063895925188248E9, -324.0847705602646, -382.00834107398987, -323.3667097687721, -147.20246225595474
 1.7063895925327911E9, -412.1668943166733, -369.801307618618, -303.7397148013115, -176.40360110998154
 1.7063895925327911E9, -424.134574174881, -354.96138459444046, -275.017283141613, -220.20530939102173
 1.7063895925491307E9, -329.58990329504013, -375.0670867562294, -311.15967631340027, -164.19656765460968
 1.7063895925491307E9, -367.6471252441406, -371.9554899930954, -305.6545435786247, -147.9205230474472
 1.706389592563449E9, -443.2828619480133, -349.4562518596649, -266.40055364370346, -216.85435903072357
 1.706389592563449E9, -354.48267740011215, -361.18457812070847, -287.463670194149, -177.83972269296646
 1.7063895925787628E9, -344.1904727220535, -379.8541586995125, -322.16994178295135, -143.37280470132828
 1.7063895925787628E9, -443.04350835084915, -358.07298135757446, -281.47983026504517, -195.55188888311386
 1.7063895925795016E9, -398.76309287548065, -362.6206997036934, -276.6927583217621, -202.25378960371017
 1.7063895925795016E9, -323.12735617160797, -383.4444626569748, -321.9305881857872, -145.2876334786415
 1.7063895925802805E9, -406.9011151790619, -366.45035725831985, -296.3197532892227, -170.65911477804184
 1.7063895925802805E9, -432.2725964784622, -353.7646166086197, -273.5811615586281, -217.09371262788773
 1.7063895926095142E9, -333.4195608496666, -375.30644035339355, -317.8615770339966, -165.87204283475876
 1.7063895926095142E9, -374.1096723675728, -378.41803711652756, -320.2551130056381, -162.9997996687889
 1.7063895926411846E9, -454.7718346118927, -363.0994068980217, -276.45340472459793, -228.58268529176712
 1.7063895926411846E9, -357.8336277604103, -363.57811409235, -290.8146205544472, -187.65322017669678
 1.7063895926416676E9, -324.5634777545929, -363.0994068980217, -309.0054939389229, -141.45797592401505
 1.7063895926416676E9, -425.5706957578659, -347.78077667951584, -269.2727968096733, -194.8338280916214
 1.706389592642338E9, -386.5560594201088, -344.66917991638184, -266.40055364370346, -199.38154643774033
 1.706389592642338E9, -308.5267867445946, -373.3916115760803, -314.5106266736984, -148.15987664461136
 1.7063895926430228E9, -409.77335834503174, -369.56195402145386, -309.24484753608704, -190.52546334266663
 1.7063895926430228E9, -433.9480716586113, -363.33876049518585, -281.47983026504517, -232.41234284639359
 1.706389592653088E9, -336.0524504184723, -387.5134738087654, -314.98933386802673, -174.01006513834
 1.706389592653088E9, -368.3651860356331, -378.1786835193634, -312.35644429922104, -156.05854535102844
 1.7063895926538258E9, -451.1815306544304, -360.9452245235443, -272.3843935728073, -224.27432054281235
 1.7063895926538258E9, -364.5355284810066, -373.3916115760803, -297.75587487220764, -196.50930327177048
 1.7063895926682787E9, -342.51499754190445, -384.4018770456314, -325.5208921432495, -159.17014211416245
 1.7063895926682787E9, -451.42088425159454, -377.2212691307068, -308.2874331474304, -229.54009968042374
 1.706389592668794E9, -395.65149611234665, -359.5091029405594, -283.63401263952255, -221.16272377967834
 1.706389592668794E9, -302.5429468154907, -362.86005330085754, -313.0745050907135, -146.72375506162643
 1.70638959271508E9, -388.2315346002579, -356.8762133717537, -287.70302379131317, -171.13782197237015
 1.70638959271508E9, -408.3372367620468, -340.6001687645912, -262.81024968624115, -216.1362982392311
 1.7063895927157807E9, -307.3300187587738, -359.0303957462311, -303.97906839847565, -165.39333564043045
 1.7063895927157807E9, -354.96138459444046, -362.86005330085754, -297.75587487220764, -148.63858383893967
 1.7063895927165873E9, -437.0596684217453, -343.47241193056107, -269.51215040683746, -222.59884536266327
 1.7063895927165873E9, -346.3446550965309, -354.243323802948, -285.78819501399994, -187.65322017669678
 1.7063895927172885E9, -327.91442811489105, -372.912904381752, -317.6222234368324, -148.15987664461136
 1.7063895927172885E9, -420.54427021741867, -343.2330583333969, -271.905686378479, -201.29637521505356
 1.7063895927280767E9, -392.3005457520485, -360.466517329216, -280.52241587638855, -216.1362982392311
 1.7063895927280767E9, -328.87184250354767, -386.79541301727295, -325.5208921432495, -152.22888779640198
 1.7063895927288096E9, -410.25206553936005, -365.7322964668274, -295.12298530340195, -175.44618672132492
 1.7063895927288096E9, -427.7248781323433, -352.32849502563477, -265.2037856578827, -217.8117734193802
 1.706389592742345E9, -332.9408536553383, -379.13609790802, -305.6545435786247, -159.17014211416245
 1.706389592742345E9, -371.71613639593124, -378.6573907136917, -315.7073946595192, -155.34048455953598
 1.7063895927745025E9, -454.2931274175644, -357.354920566082, -270.9482719898224, -224.5136741399765
 1.7063895927745025E9, -364.0568212866783, -370.04066121578217, -299.19199645519257, -191.48287773132324
 1.7063895927752268E9, -342.99370473623276, -381.05092668533325, -321.69123458862305, -145.76634067296982
 1.7063895927752268E9, -435.86290043592453, -359.74845653772354, -284.59142702817917, -203.2112039923668
 1.7063895927759147E9, -390.1463633775711, -350.41366624832153, -269.03344321250916, -196.50930327177048
 1.7063895927759147E9, -299.4313500523567, -358.7910421490669, -306.3726043701172, -129.49029606580734
 1.7063895927766683E9, -394.2153745293617, -349.9349590539932, -288.89979177713394, -165.87204283475876
 1.7063895927766683E9, -415.2784910798073, -342.7543511390686, -261.85283529758453, -219.00854140520096
 1.7063895927876716E9, -318.10093063116074, -366.92906445264816, -304.45777559280396, -161.56367808580399
 1.7063895927876716E9, -353.2859094142914, -363.81746768951416, -304.45777559280396, -148.87793743610382
 1.7063895928191893E9, -442.08609396219254, -350.41366624832153, -271.66633278131485, -219.72660219669342
 1.7063895928191893E9, -349.69560545682907, -357.8336277604103, -289.6178525686264, -184.30226981639862
 1.7063895928198977E9, -335.573743224144, -374.5883795619011, -317.3828698396683, -145.04827988147736
 1.7063895928198977E9, -440.6499723792076, -359.9878101348877, -285.5488414168358, -203.92926478385925
 1.7063895928339329E9, -384.64123064279556, -344.908533513546, -264.7250784635544, -198.18477845191956
 1.7063895928339329E9, -326.7176601290703, -386.31670582294464, -323.12735617160797, -151.51082700490952
 1.7063895928489108E9, -407.8585295677185, -367.40777164697647, -300.6281180381775, -177.121661901474
 1.7063895928489108E9, -425.81004935503006, -355.9187989830971, -270.70891839265823, -219.00854140520096
 1.7063895928496044E9, -321.4518809914589, -364.7748820781708, -300.38876444101334, -156.7766061425209
 1.7063895928496044E9, -365.01423567533493, -371.4767827987671, -310.68096911907196, -158.21272772550583
 1.706389592850298E9, -449.9847626686096, -356.3975061774254, -275.017283141613, -223.31690615415573
 1.706389592850298E9, -360.70587092638016, -371.4767827987671, -293.686863720417, -193.63706010580063
 1.7063895928625836E9, -336.29180401563644, -379.3754515051842, -319.05834501981735, -148.15987664461136
 1.7063895928625836E9, -441.3680331707001, -361.6632853150368, -283.63401263952255, -203.6899111866951
 1.706389592878325E9, -398.0450320839882, -361.9026389122009, -278.36823350191116, -207.75892233848572
 1.706389592878325E9, -330.7866712808609, -387.27412021160126, -327.43572092056274, -148.15987664461136
 1.7063895928788493E9, -416.2359054684639, -374.1096723675728, -305.6545435786247, -179.51519787311554
 1.7063895928788493E9, -418.62944144010544, -345.8659479022026, -264.0070176720619, -205.12603276968002
 1.7063895928924377E9, -322.8880025744438, -364.7748820781708, -305.41518998146057, -153.42565578222275
 1.7063895928924377E9, -365.97165006399155, -368.12583243846893, -306.13325077295303, -140.50056153535843
 1.7063895929087465E9, -442.804154753685, -347.78077667951584, -262.33154249191284, -207.51956874132156
 1.7063895929087465E9, -336.5311576128006, -348.25948387384415, -274.5385759472847, -169.22299319505692
 1.70638959292304E9, -318.3402842283249, -359.9878101348877, -300.86747163534164, -126.37869930267334
 1.70638959292304E9, -427.96423172950745, -354.243323802948, -274.29922235012054, -190.52546334266663
 1.7063895929238615E9, -387.9921810030937, -353.0465558171272, -276.6927583217621, -198.4241320490837
 1.7063895929238615E9, -310.9203227162361, -370.9980756044388, -312.5957978963852, -139.30379354953766
 1.7063895929380429E9, -409.0552975535393, -371.71613639593124, -299.19199645519257, -174.4887723326683
 1.7063895929380429E9, -458.362138569355, -383.20510905981064, -296.08039969205856, -236.9600611925125
 1.7063895929388084E9, -344.66917991638184, -399.24180006980896, -334.3769752383232, -180.47261226177216
 1.7063895929388084E9, -359.74845653772354, -374.34902596473694, -312.1170907020569, -154.38307017087936
 1.706389592952694E9, -400.43856805562973, -320.9731737971306, -249.64580184221268, -202.49314320087433
 1.706389592952694E9, -314.7499802708626, -340.1214615702629, -278.128879904747, -179.51519787311554
 1.7063895929855692E9, -294.16557091474533, -351.84978783130646, -310.20226192474365, -140.50056153535843
 1.7063895929855692E9, -390.6250705718994, -335.81309682130814, -273.82051515579224, -200.33896082639694
 1.7063895929863968E9, -349.9349590539932, -336.29180401563644, -268.55473601818085, -207.99827593564987
 1.7063895929863968E9, -282.1978910565376, -366.45035725831985, -312.5957978963852, -149.35664463043213
 1.7063895929870577E9, -371.4767827987671, -355.6794453859329, -293.2081565260887, -184.54162341356277
 1.7063895929870577E9, -390.86442416906357, -340.36081516742706, -271.66633278131485, -232.65169644355774
 1.706389592998355E9, -288.6604381799698, -359.5091029405594, -309.24484753608704, -171.3771755695343
 1.706389592998355E9, -331.2653784751892, -359.26974934339523, -308.5267867445946, -157.97337412834167
 1.706389592998783E9, -413.36366230249405, -344.66917991638184, -269.7515040040016, -229.54009968042374
 1.706389592998783E9, -322.64864897727966, -354.243323802948, -296.08039969205856, -201.5357288122177
 1.7063895930128205E9, -310.4416155219078, -370.7587220072746, -324.0847705602646, -158.69143491983414
 1.7063895930128205E9, -404.02887201309204, -346.8233622908592, -279.56500148773193, -207.51956874132156
 1.706389593029286E9, -352.0891414284706, -336.5311576128006, -259.9380065202713, -206.08344715833664
 1.706389593029286E9, -277.1714655160904, -359.0303957462311, -307.3300187587738, -143.85151189565659
 1.706389593060119E9, -368.8438932299614, -351.131727039814, -287.70302379131317, -177.6003690958023
 1.706389593060119E9, -391.1037777662277, -337.24921840429306, -261.6134817004204, -226.6678565144539
 1.7063895930608487E9, -286.5062558054924, -352.32849502563477, -300.6281180381775, -168.98363959789276
 1.7063895930608487E9, -336.0524504184723, -359.74845653772354, -319.53705221414566, -168.98363959789276
 1.706389593061586E9, -415.99655187129974, -345.8659479022026, -278.84694069623947, -233.60911083221436
 1.706389593061586E9, -331.2653784751892, -359.74845653772354, -291.0539741516113, -201.5357288122177
 1.706389593062436E9, -316.6648090481758, -372.67355078458786, -325.28153854608536, -155.10113096237183
 1.706389593062436E9, -414.799783885479, -356.15815258026123, -284.8307806253433, -215.1788838505745
 1.7063895930723815E9, -382.247694671154, -365.49294286966324, -292.01138854026794, -230.97622126340866
 1.7063895930723815E9, -302.7823004126549, -379.8541586995125, -328.1537817120552, -165.1539820432663
 1.7063895930883007E9, -389.6676561832428, -363.81746768951416, -302.5429468154907, -193.87641370296478
 1.7063895930883007E9, -404.98628640174866, -352.32849502563477, -277.41081911325455, -240.07165795564651
 1.7063895930888925E9, -303.7397148013115, -371.71613639593124, -313.0745050907135, -177.36101549863815
 1.7063895930888925E9, -352.0891414284706, -378.41803711652756, -320.4944666028023, -171.61652916669846
 1.706389593118236E9, -420.54427021741867, -348.25948387384415, -272.62374716997147, -226.6678565144539
 1.706389593118236E9, -325.76024574041367, -358.07298135757446, -285.30948781967163, -193.87641370296478
 1.706389593118724E9, -315.46804106235504, -375.5457939505577, -324.0847705602646, -155.34048455953598
 1.706389593118724E9, -419.8262094259262, -359.26974934339523, -290.8146205544472, -221.8807845711708
 1.7063895931336913E9, -302.0642396211624, -380.8115730881691, -328.39313530921936, -166.35075002908707
 1.7063895931336913E9, -399.72050726413727, -380.3328658938408, -311.3990299105644, -210.63116550445557
 1.7063895931338975E9, -415.0391374826431, -358.7910421490669, -288.1817309856415, -251.5606306195259
 1.7063895931338975E9, -315.2286874651909, -374.34902596473694, -321.21252739429474, -192.91899931430817
 1.706389593195108E9, -365.01423567533493, -388.470888197422, -329.8292568922043, -186.93515938520432
 1.706389593195108E9, -459.3195529580116, -381.7689874768257, -298.23458206653595, -260.65606731176376
 1.7063895931958237E9, -373.6309651732445, -398.5237392783165, -328.6324889063835, -231.45492845773697
 1.7063895931958237E9, -332.2227928638458, -390.1463633775711, -340.83952236175537, -171.8558827638626
 1.7063895931966355E9, -425.5706957578659, -366.689710855484, -294.4049245119095, -230.97622126340866
 1.7063895931966355E9, -392.06119215488434, -370.2800148129463, -294.4049245119095, -241.02907234430313
 1.7063895931974375E9, -319.53705221414566, -395.8908497095108, -341.0788759589195, -184.54162341356277
 1.7063895931974375E9, -409.77335834503174, -386.0773522257805, -320.73382019996643, -214.22146946191788
 1.7063895932096245E9, -427.246170938015, -372.19484359025955, -292.2507421374321, -255.62964177131653
 1.7063895932096245E9, -326.7176601290703, -391.1037777662277, -318.57963782548904, -197.22736406326294
 1.7063895932102787E9, -367.6471252441406, -391.3431313633919, -331.2653784751892, -187.41386657953262
 1.7063895932102787E9, -447.11251950263977, -370.9980756044388, -294.4049245119095, -259.9380065202713
 1.7063895932110426E9, -353.52526301145554, -376.98191553354263, -313.31385868787766, -223.07755255699158
 1.7063895932110426E9, -328.6324889063835, -387.0347666144371, -337.0098648071289, -177.36101549863815
 1.7063895932117808E9, -424.37392777204514, -364.5355284810066, -295.8410460948944, -225.23173493146896
 1.7063895932117808E9, -377.6999763250351, -359.9878101348877, -282.1978910565376, -230.2581604719162
 1.7063895932224092E9, -309.0054939389229, -387.5134738087654, -328.87184250354767, -169.46234679222107
 1.7063895932224092E9, -397.80567848682404, -378.41803711652756, -308.2874331474304, -198.18477845191956
 1.7063895932708025E9, -421.5016846060753, -365.7322964668274, -288.6604381799698, -248.92774105072021
 1.7063895932708025E9, -338.44598639011383, -394.4547281265259, -329.350549697876, -200.0996072292328
 1.7063895932713153E9, -381.2902802824974, -401.39598244428635, -331.98343926668167, -187.65322017669678
 1.7063895932713153E9, -452.6176522374153, -375.30644035339355, -299.6707036495209, -254.43287378549576
 1.7063895932720575E9, -358.55168855190277, -384.4018770456314, -313.79256588220596, -213.50340867042542
 1.7063895932720575E9, -335.573743224144, -393.01860654354095, -333.8982680439949, -163.95721405744553
 1.7063895932727177E9, -433.9480716586113, -370.7587220072746, -298.9526428580284, -227.38591730594635
 1.7063895932727177E9, -386.31670582294464, -360.466517329216, -284.352073431015, -227.86462450027466
 1.7063895932831185E9, -305.8938971757889, -379.3754515051842, -326.238952934742, -162.5210924744606
 1.7063895932831185E9, -400.6779216527939, -375.78514754772186, -311.3990299105644, -201.29637521505356
 1.7063895932838297E9, -423.4165133833885, -366.92906445264816, -281.9585374593735, -246.29485148191452
 1.7063895932838297E9, -321.69123458862305, -381.7689874768257, -324.32412415742874, -185.4990378022194
 1.7063895932974017E9, -366.45035725831985, -387.9921810030937, -326.95701372623444, -174.24941873550415
 1.7063895932974017E9, -442.804154753685, -368.3651860356331, -287.9423773884773, -237.67812198400497
 1.7063895933137424E9, -355.6794453859329, -374.1096723675728, -306.61195796728134, -207.2802151441574
 1.7063895933137424E9, -328.6324889063835, -381.7689874768257, -325.0421849489212, -156.05854535102844
 1.7063895933144724E9, -424.85263496637344, -365.01423567533493, -288.6604381799698, -216.61500543355942
 1.7063895933144724E9, -379.3754515051842, -353.2859094142914, -280.52241587638855, -224.9923813343048
 1.7063895933276153E9, -320.73382019996643, -392.53989934921265, -331.2653784751892, -169.94105398654938
 1.7063895933276153E9, -405.2256399989128, -382.72640186548233, -319.05834501981735, -208.23762953281403
 1.7063895933430676E9, -440.6499723792076, -378.41803711652756, -294.16557091474533, -262.0921888947487
 1.7063895933430676E9, -351.6104342341423, -410.0127119421959, -340.83952236175537, -202.49314320087433
 1.706389593343768E9, -380.3328658938408, -404.98628640174866, -344.66917991638184, -198.4241320490837
 1.706389593343768E9, -439.692557990551, -363.81746768951416, -285.30948781967163, -246.53420507907867
 1.706389593388472E9, -344.66917991638184, -368.60453963279724, -297.5165212750435, -203.45055758953094
 1.706389593388472E9, -328.6324889063835, -383.68381625413895, -323.84541696310043, -162.9997996687889
 1.7063895934040952E9, -431.3151820898056, -364.29617488384247, -288.1817309856415, -224.75302773714066
 1.7063895934040952E9, -392.7792529463768, -370.7587220072746, -288.42108458280563, -231.45492845773697
 1.7063895934204404E9, -322.64864897727966, -395.17278891801834, -332.46214646101, -167.786871612072
 1.7063895934204404E9, -417.911380648613, -388.470888197422, -316.1861018538475, -204.88667917251587
 1.7063895934208934E9, -427.96423172950745, -371.4767827987671, -290.575266957283, -247.4916194677353
 1.7063895934208934E9, -323.12735617160797, -381.7689874768257, -320.01575940847397, -183.344855427742
 1.706389593421795E9, -350.41366624832153, -374.5883795619011, -311.15967631340027, -166.82945722341537
 1.706389593421795E9, -431.7938892841339, -354.7220309972763, -282.67659825086594, -231.45492845773697
 1.7063895934224243E9, -343.9511191248894, -371.71613639593124, -301.5855324268341, -199.62090003490448
 1.7063895934224243E9, -338.2066327929497, -393.2579601407051, -335.3343896269798, -162.9997996687889
 1.7063895934338012E9, -429.6397069096565, -364.5355284810066, -291.7720349431038, -214.46082305908203
 1.7063895934338012E9, -383.4444626569748, -357.59427416324615, -284.8307806253433, -219.2478950023651
 1.706389593434492E9, -306.13325077295303, -380.57221949100494, -330.06861048936844, -158.69143491983414
 1.706389593434492E9, -398.28438568115234, -371.9554899930954, -309.24484753608704, -186.69580578804016
 1.7063895934352465E9, -416.47525906562805, -357.11556696891785, -277.6501727104187, -232.8910500407219
 1.7063895934352465E9, -312.5957978963852, -368.8438932299614, -313.79256588220596, -175.44618672132492
 1.7063895934476242E9, -346.8233622908592, -369.801307618618, -317.1435162425041, -169.70170038938522
 1.7063895934476242E9, -430.8364748954773, -351.37108063697815, -277.6501727104187, -231.93363565206528
 1.706389593464183E9, -340.1214615702629, -361.4239317178726, -296.55910688638687, -196.74865686893463
 1.706389593464183E9, -330.54731768369675, -383.9231698513031, -326.95701372623444, -161.80303168296814
 1.7063895934780507E9, -436.1022540330887, -373.6309651732445, -291.7720349431038, -223.31690615415573
 1.7063895934780507E9, -387.5134738087654, -362.6206997036934, -284.352073431015, -227.86462450027466
 1.7063895934788437E9, -305.8938971757889, -378.89674431085587, -322.8880025744438, -160.36691009998322
 1.7063895934788437E9, -387.5134738087654, -365.49294286966324, -292.01138854026794, -181.66938024759293
 1.7063895934931605E9, -415.7571982741356, -355.44009178876877, -272.14503997564316, -233.3697572350502
 1.7063895934931605E9, -310.9203227162361, -369.3226004242897, -309.0054939389229, -168.02622520923615
 1.706389593493752E9, -356.3975061774254, -373.15225797891617, -315.46804106235504, -163.23915326595306
 1.706389593493752E9, -434.4267788529396, -353.52526301145554, -271.66633278131485, -227.38591730594635
 1.7063895935083947E9, -342.99370473623276, -367.1684180498123, -292.96880292892456, -195.3125352859497
 1.7063895935083947E9, -326.4783065319061, -384.16252344846725, -332.46214646101, -160.84561729431152
 1.7063895935230572E9, -426.7674637436867, -361.6632853150368, -290.33591336011887, -216.37565183639526
 1.7063895935230572E9, -377.6999763250351, -354.48267740011215, -273.82051515579224, -219.96595579385757
 1.7063895935237756E9, -304.45777559280396, -378.6573907136917, -321.4518809914589, -162.76044607162476
 1.7063895935237756E9, -393.7366673350334, -371.23742920160294, -303.2610076069832, -191.2435241341591
 1.706389593553834E9, -422.21974539756775, -361.18457812070847, -285.0701342225075, -241.7471331357956
 1.706389593553834E9, -323.6060633659363, -386.79541301727295, -329.58990329504013, -188.84998816251755
 1.7063895935545497E9, -364.29617488384247, -383.20510905981064, -325.9995993375778, -177.83972269296646
 1.7063895935545497E9, -429.1609997153282, -348.4988374710083, -265.44313925504684, -222.35949176549911
 1.7063895935552237E9, -341.796936750412, -359.5091029405594, -288.89979177713394, -187.89257377386093
 1.7063895935552237E9, -330.06861048936844, -386.5560594201088, -321.9305881857872, -151.27147340774536
 1.7063895935674367E9, -424.6132813692093, -358.7910421490669, -285.78819501399994, -206.3228007555008
 1.7063895935674367E9, -373.3916115760803, -351.6104342341423, -276.45340472459793, -206.8015079498291
 1.7063895935834887E9, -297.5165212750435, -371.71613639593124, -315.46804106235504, -145.2876334786415
 1.7063895935834887E9, -398.76309287548065, -371.23742920160294, -308.2874331474304, -184.06291621923447
 1.7063895936000912E9, -420.54427021741867, -364.29617488384247, -275.25663673877716, -226.90721011161804
 1.7063895936000912E9, -319.53705221414566, -381.2902802824974, -314.98933386802673, -168.7442860007286
 1.7063895936006887E9, -358.55168855190277, -377.2212691307068, -313.5532122850418, -166.1113964319229
 1.7063895936006887E9, -438.0170828104019, -362.38134610652924, -273.3418079614639, -233.8484644293785
 1.7063895936130855E9, -346.10530149936676, -373.3916115760803, -299.19199645519257, -200.0996072292328
 1.7063895936130855E9, -330.7866712808609, -388.94959539175034, -326.4783065319061, -157.97337412834167
 1.70638959361383E9, -423.8952205777168, -355.2007381916046, -283.15530544519424, -214.22146946191788
 1.70638959361383E9, -378.6573907136917, -360.466517329216, -283.3946590423584, -221.64143097400665
 1.7063895936276746E9, -293.2081565260887, -367.6471252441406, -309.4842011332512, -140.50056153535843
 1.7063895936276746E9, -384.8805842399597, -359.9878101348877, -300.38876444101334, -182.3874410390854
 1.7063895936434135E9, -401.39598244428635, -342.51499754190445, -260.17736011743546, -216.1362982392311
 1.7063895936434135E9, -303.2610076069832, -360.466517329216, -302.7823004126549, -157.49466693401337
 1.7063895936439395E9, -342.03629034757614, -359.74845653772354, -292.96880292892456, -145.2876334786415
 1.7063895936439395E9, -422.69845259189606, -341.796936750412, -261.3741281032562, -217.33306622505188
 1.7063895936573706E9, -335.0950360298157, -356.63685977458954, -281.47983026504517, -183.8235626220703
 1.7063895936573706E9, -334.3769752383232, -381.2902802824974, -323.12735617160797, -151.75018060207367
 1.7063895936734705E9, -430.357767701149, -359.9878101348877, -283.8733662366867, -212.78534787893295
 1.7063895936734705E9, -387.27412021160126, -358.55168855190277, -274.5385759472847, -216.1362982392311
 1.7063895936880856E9, -309.24484753608704, -379.8541586995125, -325.28153854608536, -156.2978989481926
 1.7063895936880856E9, -394.2153745293617, -364.29617488384247, -298.71328926086426, -187.17451298236847
 1.706389593688742E9, -408.8159439563751, -347.0627158880234, -261.85283529758453, -225.47108852863312
 1.706389593688742E9, -304.6971291899681, -365.2535892724991, -299.4313500523567, -164.43592125177383
 1.7063895937507355E9, -345.14788711071014, -363.33876049518585, -303.2610076069832, -154.86177736520767
 1.7063895937507355E9, -427.246170938015, -341.3182295560837, -258.9805921316147, -219.96595579385757
 1.706389593751465E9, -346.8233622908592, -365.97165006399155, -292.7294493317604, -195.55188888311386
 1.706389593751465E9, -342.7543511390686, -396.60891050100327, -342.2756439447403, -174.72812592983246
 1.70638959375221E9, -427.7248781323433, -361.6632853150368, -287.70302379131317, -210.87051910161972
 1.70638959375221E9, -368.12583243846893, -343.7117655277252, -260.65606731176376, -198.90283924341202
 1.7063895937530544E9, -289.6178525686264, -362.6206997036934, -315.46804106235504, -138.5857327580452
 1.7063895937530544E9, -378.1786835193634, -351.131727039814, -284.352073431015, -167.06881082057953
 1.7063895937644787E9, -406.1830543875694, -345.3872407078743, -271.18762558698654, -225.47108852863312
 1.7063895937644787E9, -316.42545545101166, -375.5457939505577, -308.2874331474304, -172.33458995819092
 1.7063895937652185E9, -359.74845653772354, -376.7425619363785, -318.10093063116074, -168.50493240356445
 1.7063895937652185E9, -436.580961227417, -354.00397020578384, -270.9482719898224, -229.7794532775879
 1.7063895937659652E9, -337.72792559862137, -362.1419925093651, -290.8146205544472, -193.63706010580063
 1.7063895937659652E9, -334.3769752383232, -384.64123064279556, -324.0847705602646, -154.38307017087936
 1.7063895937667909E9, -428.6822925209999, -362.1419925093651, -285.30948781967163, -209.4343975186348
 1.7063895937667909E9, -386.5560594201088, -356.3975061774254, -285.30948781967163, -215.1788838505745
 1.7063895937945316E9, -314.98933386802673, -383.4444626569748, -328.39313530921936, -156.7766061425209
 1.7063895937945316E9, -407.8585295677185, -378.1786835193634, -308.7661403417587, -188.37128096818924
 1.7063895937952669E9, -416.47525906562805, -355.6794453859329, -273.5811615586281, -230.01880687475204
 1.7063895937952669E9, -314.5106266736984, -376.024501144886, -309.4842011332512, -173.05265074968338
 1.7063895937959332E9, -351.37108063697815, -370.5193684101105, -305.41518998146057, -161.08497089147568
 1.7063895937959332E9, -438.7351436018944, -355.2007381916046, -277.41081911325455, -231.21557486057281
 1.7063895938073895E9, -350.1743126511574, -368.3651860356331, -301.1068252325058, -201.5357288122177
 1.7063895938073895E9, -329.58990329504013, -382.4870482683182, -333.65891444683075, -158.45208132266998
 1.7063895938230646E9, -424.6132813692093, -360.466517329216, -286.74560940265656, -218.7691878080368
 1.7063895938230646E9, -384.64123064279556, -355.44009178876877, -282.1978910565376, -218.7691878080368
 1.7063895938238008E9, -308.5267867445946, -381.52963387966156, -327.43572092056274, -158.69143491983414
 1.7063895938238008E9, -400.1992144584656, -372.67355078458786, -305.1758363842964, -194.8338280916214
 1.706389593837865E9, -408.8159439563751, -348.25948387384415, -269.03344321250916, -222.35949176549911
 1.706389593837865E9, -309.9629083275795, -370.7587220072746, -304.6971291899681, -161.08497089147568
 1.706389593853122E9, -352.8072022199631, -375.30644035339355, -313.0745050907135, -153.1863021850586
 1.706389593853122E9, -434.66613245010376, -353.7646166086197, -269.99085760116577, -216.85435903072357
 1.70638959385403E9, -346.58400869369507, -368.3651860356331, -291.0539741516113, -187.89257377386093
 1.70638959385403E9, -328.1537817120552, -383.9231698513031, -322.16994178295135, -144.56957268714905
 1.7063895938844757E9, -432.2725964784622, -365.97165006399155, -283.3946590423584, -206.08344715833664
 1.7063895938844757E9, -389.6676561832428, -362.38134610652924, -287.22431659698486, -219.72660219669342
 1.7063895938850205E9, -311.3990299105644, -379.6148051023483, -323.3667097687721, -154.86177736520767
 1.7063895938850205E9, -391.58248496055603, -361.18457812070847, -298.71328926086426, -179.27584427595139
 1.706389593898114E9, -419.3475022315979, -355.6794453859329, -273.82051515579224, -231.45492845773697
 1.706389593898114E9, -326.7176601290703, -380.8115730881691, -315.94674825668335, -176.88230830430984
 1.7063895938988347E9, -356.63685977458954, -375.78514754772186, -308.5267867445946, -157.73402053117752
 1.7063895938988347E9, -438.97449719905853, -356.63685977458954, -270.9482719898224, -231.21557486057281
 1.706389593960108E9, -348.73819106817245, -367.6471252441406, -297.27716767787933, -192.91899931430817
 1.706389593960108E9, -327.43572092056274, -376.7425619363785, -319.2976986169815, -146.72375506162643
 1.706389593960838E9, -418.8687950372696, -351.84978783130646, -275.4959903359413, -204.40797197818756
 1.706389593960838E9, -380.57221949100494, -353.7646166086197, -273.1024543642998, -211.82793349027634
 1.7063895939615884E9, -312.35644429922104, -384.4018770456314, -326.7176601290703, -152.46824139356613
 1.7063895939615884E9, -401.39598244428635, -368.60453963279724, -300.1494108438492, -180.47261226177216
 1.7063895939623816E9, -426.28875654935837, -365.7322964668274, -276.93211191892624, -231.93363565206528
 1.7063895939623816E9, -333.8982680439949, -392.06119215488434, -330.06861048936844, -181.19067305326462
 1.7063895939747448E9, -378.1786835193634, -393.7366673350334, -332.9408536553383, -181.90873384475708
 1.7063895939747448E9, -440.41061878204346, -354.96138459444046, -278.36823350191116, -238.6355363726616
 1.7063895939752116E9, -338.44598639011383, -358.3123349547386, -291.7720349431038, -205.60473996400833
 1.7063895939752116E9, -327.6750745177269, -378.6573907136917, -315.2286874651909, -158.45208132266998
 1.7063895939759257E9, -436.82031482458115, -365.01423567533493, -287.22431659698486, -219.00854140520096
 1.7063895939759257E9, -385.359291434288, -354.00397020578384, -280.7617694735527, -225.94979572296143
 1.70638959397663E9, -315.7073946595192, -380.8115730881691, -324.32412415742874, -160.60626369714737
 1.70638959397663E9, -395.4121425151825, -361.6632853150368, -292.49009573459625, -183.8235626220703
 1.706389593987385E9, -417.911380648613, -346.8233622908592, -272.3843935728073, -231.45492845773697
 1.706389593987385E9, -303.02165400981903, -358.7910421490669, -299.19199645519257, -160.84561729431152
 1.7063895940351224E9, -354.48267740011215, -368.3651860356331, -307.56937235593796, -165.1539820432663
 1.7063895940351224E9, -437.5383756160736, -354.243323802948, -275.017283141613, -230.01880687475204
 1.706389594035817E9, -343.2330583333969, -363.81746768951416, -298.9526428580284, -197.9454248547554
 1.706389594035817E9, -319.53705221414566, -367.6471252441406, -312.5957978963852, -147.68116945028305
 1.706389594036559E9, -430.8364748954773, -364.29617488384247, -283.8733662366867, -216.1362982392311
 1.706389594036559E9, -392.53989934921265, -364.29617488384247, -283.3946590423584, -224.9923813343048
 1.706389594037346E9, -313.5532122850418, -385.11993783712387, -323.6060633659363, -158.9307885169983
 1.706389594037346E9, -410.25206553936005, -375.0670867562294, -308.04807955026627, -195.07318168878555
 1.70638959404839E9, -428.44293892383575, -363.0994068980217, -276.93211191892624, -238.6355363726616
 1.70638959404839E9, -322.4092953801155, -378.1786835193634, -315.7073946595192, -179.7545514702797
 1.7063895940489044E9, -362.6206997036934, -378.41803711652756, -311.15967631340027, -167.786871612072
 1.7063895940489044E9, -440.1712651848793, -350.41366624832153, -269.03344321250916, -234.80587881803513
 1.7063895940631764E9, -345.8659479022026, -366.2110036611557, -293.2081565260887, -203.2112039923668
 1.7063895940631764E9, -329.350549697876, -379.8541586995125, -321.9305881857872, -155.57983815670013
 1.7063895940638573E9, -418.8687950372696, -344.1904727220535, -268.794089615345, -202.25378960371017
 1.7063895940638573E9, -369.3226004242897, -340.6001687645912, -265.682492852211, -211.58857989311218
 1.7063895940774283E9, -301.34617882966995, -371.9554899930954, -313.0745050907135, -149.35664463043213
 1.7063895940774283E9, -396.8482640981674, -364.7748820781708, -297.0378140807152, -182.3874410390854
 1.7063895940931156E9, -420.7836238145828, -352.8072022199631, -269.99085760116577, -228.34333169460297
 1.7063895940931156E9, -321.9305881857872, -372.67355078458786, -304.2184219956398, -169.94105398654938
 1.7063895940937932E9, -368.8438932299614, -380.8115730881691, -316.6648090481758, -166.1113964319229
 1.7063895940937932E9, -444.9583371281624, -356.3975061774254, -280.52241587638855, -233.3697572350502
 1.7063895941074452E9, -347.0627158880234, -364.5355284810066, -289.85720616579056, -192.2009385228157
 1.7063895941074452E9, -336.77051120996475, -386.31670582294464, -330.06861048936844, -155.34048455953598
 1.7063895941224532E9, -440.1712651848793, -370.04066121578217, -293.9262173175812, -212.5459942817688
 1.7063895941224532E9, -396.60891050100327, -368.3651860356331, -288.89979177713394, -216.85435903072357
 1.7063895941708603E9, -402.1140432357788, -370.7587220072746, -296.55910688638687, -178.31842988729477
 1.7063895941708603E9, -409.5340047478676, -346.10530149936676, -265.92184644937515, -214.93953025341034
 1.706389594171029E9, -309.9629083275795, -364.5355284810066, -306.3726043701172, -160.60626369714737
 1.706389594171029E9, -359.74845653772354, -373.15225797891617, -309.24484753608704, -162.28173887729645
 1.706389594171606E9, -438.25643640756607, -353.7646166086197, -265.682492852211, -224.75302773714066
 1.706389594171606E9, -349.9349590539932, -365.49294286966324, -293.2081565260887, -193.63706010580063
 1.7063895941725483E9, -333.18020725250244, -381.52963387966156, -322.4092953801155, -148.3992302417755
 1.7063895941725483E9, -428.44293892383575, -357.59427416324615, -284.59142702817917, -204.88667917251587
 1.7063895941830423E9, -393.2579601407051, -364.5355284810066, -282.1978910565376, -213.98211586475372
 1.7063895941830423E9, -315.46804106235504, -382.4870482683182, -326.238952934742, -158.69143491983414
 1.706389594183794E9, -403.3108112215996, -371.9554899930954, -300.86747163534164, -190.52546334266663
 1.706389594183794E9, -413.84236949682236, -348.9775446653366, -261.3741281032562, -225.47108852863312
 1.7063895941982615E9, -317.3828698396683, -370.7587220072746, -305.1758363842964, -166.1113964319229
 1.7063895941982615E9, -372.19484359025955, -383.68381625413895, -323.12735617160797, -170.65911477804184
 1.7063895941989305E9, -449.26670187711716, -357.354920566082, -281.7191838622093, -231.21557486057281
 1.7063895941989305E9, -339.88210797309875, -357.59427416324615, -294.64427810907364, -186.69580578804016
 1.7063895942288103E9, -329.1111961007118, -379.6148051023483, -320.2551130056381, -148.87793743610382
 1.7063895942288103E9, -434.4267788529396, -367.40777164697647, -285.30948781967163, -213.98211586475372
 1.706389594229532E9, -391.8218385577202, -362.1419925093651, -278.6075870990753, -217.57241982221603
 1.706389594229532E9, -311.6383835077286, -383.20510905981064, -322.4092953801155, -153.1863021850586
 1.7063895942302816E9, -401.6353360414505, -369.08324682712555, -303.2610076069832, -184.78097701072693
 1.7063895942302816E9, -415.99655187129974, -351.6104342341423, -269.99085760116577, -222.83819895982742
 1.7063895942424865E9, -306.61195796728134, -366.92906445264816, -308.5267867445946, -163.71786046028137
 1.7063895942424865E9, -352.32849502563477, -370.7587220072746, -319.7764058113098, -159.64884930849075
 1.7063895943051655E9, -430.59712129831314, -349.4562518596649, -272.14503997564316, -220.20530939102173
 1.7063895943051655E9, -341.55758315324783, -362.1419925093651, -292.7294493317604, -191.00417053699493
 1.7063895943058877E9, -318.8189914226532, -370.9980756044388, -313.0745050907135, -142.41539031267166
 1.7063895943058877E9, -423.17715978622437, -361.6632853150368, -286.0275486111641, -203.45055758953094
 1.7063895943066123E9, -374.82773315906525, -348.73819106817245, -276.6927583217621, -212.0672870874405
 1.7063895943066123E9, -303.97906839847565, -372.4341971874237, -321.69123458862305, -152.22888779640198
 1.7063895943074121E9, -393.49731373786926, -370.04066121578217, -303.2610076069832, -192.2009385228157
 1.7063895943074121E9, -405.46499359607697, -350.89237344264984, -260.65606731176376, -225.23173493146896
 1.7063895943197048E9, -304.6971291899681, -368.12583243846893, -302.30359321832657, -166.1113964319229
 1.7063895943197048E9, -351.84978783130646, -368.12583243846893, -317.1435162425041, -163.95721405744553
 1.7063895943202374E9, -429.6397069096565, -351.37108063697815, -274.0598687529564, -224.75302773714066
 1.7063895943202374E9, -354.243323802948, -374.82773315906525, -307.3300187587738, -203.92926478385925
 1.7063895943209493E9, -330.3079640865326, -384.4018770456314, -332.9408536553383, -163.47850686311722
 1.7063895943209493E9, -426.5281101465225, -360.9452245235443, -286.9849629998207, -216.61500543355942
 1.7063895943216655E9, -370.9980756044388, -348.02013027668, -267.1186144351959, -209.9131047129631
 1.7063895943216655E9, -305.6545435786247, -375.0670867562294, -314.5106266736984, -146.00569427013397
 1.7063895943329155E9, -393.97602093219757, -366.45035725831985, -294.64427810907364, -185.9777449965477
 1.7063895943329155E9, -405.9437007904053, -348.73819106817245, -269.7515040040016, -227.6252709031105
 1.7063895943637693E9, -307.8087259531021, -370.2800148129463, -306.13325077295303, -169.22299319505692
 1.7063895943637693E9, -347.78077667951584, -368.12583243846893, -315.7073946595192, -167.786871612072
 1.7063895943794591E9, -433.9480716586113, -360.70587092638016, -281.240476667881, -236.72070759534836
 1.7063895943794591E9, -346.3446550965309, -373.15225797891617, -302.5429468154907, -200.33896082639694
 1.7063895943801825E9, -325.76024574041367, -383.4444626569748, -322.8880025744438, -151.27147340774536
 1.7063895943801825E9, -423.17715978622437, -362.38134610652924, -285.78819501399994, -214.46082305908203
 1.7063895943809395E9, -376.5032083392143, -352.32849502563477, -282.1978910565376, -219.00854140520096
 1.7063895943809395E9, -302.30359321832657, -375.30644035339355, -321.69123458862305, -159.17014211416245
 1.706389594381673E9, -391.58248496055603, -363.57811409235, -307.56937235593796, -189.32869535684586
 1.706389594381673E9, -408.09788316488266, -347.78077667951584, -272.3843935728073, -220.20530939102173
 1.7063895943927526E9, -302.5429468154907, -365.49294286966324, -304.45777559280396, -156.7766061425209
 1.7063895943927526E9, -349.9349590539932, -367.8864788413048, -311.87773710489273, -151.0321198105812
 1.7063895944080787E9, -440.41061878204346, -356.8762133717537, -276.6927583217621, -225.47108852863312
 1.7063895944080787E9, -352.32849502563477, -371.23742920160294, -309.72355473041534, -200.81766802072525
 1.70638959440885E9, -339.1640471816063, -390.86442416906357, -339.6427543759346, -162.0423852801323
 1.70638959440885E9, -437.29902201890945, -368.8438932299614, -299.910057246685, -219.96595579385757
 1.706389594439906E9, -376.98191553354263, -349.21689826250076, -274.77792954444885, -213.0247014760971
 1.706389594439906E9, -301.1068252325058, -370.2800148129463, -317.3828698396683, -149.35664463043213
 1.7063895944405787E9, -391.3431313633919, -360.22716373205185, -300.38876444101334, -179.27584427595139
 1.7063895944405787E9, -407.14046877622604, -343.47241193056107, -264.0070176720619, -220.9233701825142
 1.7063895944530864E9, -305.1758363842964, -363.57811409235, -305.1758363842964, -162.5210924744606
 1.7063895944530864E9, -357.11556696891785, -372.67355078458786, -310.20226192474365, -156.7766061425209
 1.7063895944537995E9, -438.0170828104019, -349.69560545682907, -281.9585374593735, -223.07755255699158
 1.7063895944537995E9, -345.8659479022026, -363.81746768951416, -300.86747163534164, -192.2009385228157
 1.7063895944682553E9, -338.685339987278, -382.9657554626465, -323.3667097687721, -156.05854535102844
 1.7063895944682553E9, -440.88932597637177, -374.5883795619011, -302.7823004126549, -233.8484644293785
 1.7063895944688122E9, -398.76309287548065, -370.2800148129463, -290.0965597629547, -232.65169644355774
 1.7063895944688122E9, -311.3990299105644, -379.3754515051842, -328.39313530921936, -157.01595973968506
 1.7063895945151224E9, -391.58248496055603, -361.6632853150368, -298.9526428580284, -188.13192737102509
 1.7063895945151224E9, -411.20947992801666, -350.41366624832153, -273.5811615586281, -233.3697572350502
 1.7063895945159564E9, -321.4518809914589, -379.3754515051842, -320.2551130056381, -169.94105398654938
 1.7063895945159564E9, -362.6206997036934, -377.6999763250351, -321.9305881857872, -164.43592125177383
 1.706389594516683E9, -440.41061878204346, -356.3975061774254, -275.25663673877716, -232.8910500407219
 1.706389594516683E9, -350.6530198454857, -367.6471252441406, -302.5429468154907, -203.45055758953094
 1.7063895945174956E9, -337.72792559862137, -389.90700978040695, -334.61632883548737, -163.95721405744553
 1.7063895945174956E9, -437.77772921323776, -365.49294286966324, -293.686863720417, -217.09371262788773
 1.7063895945280516E9, -394.2153745293617, -367.1684180498123, -291.0539741516113, -227.38591730594635
 1.7063895945280516E9, -316.90416264533997, -385.5986450314522, -325.9995993375778, -163.23915326595306
 1.7063895945288723E9, -394.2153745293617, -367.6471252441406, -308.04807955026627, -185.4990378022194
 1.7063895945288723E9, -396.13020330667496, -333.4195608496666, -256.8264097571373, -206.3228007555008
 1.7063895945427918E9, -293.9262173175812, -354.7220309972763, -288.1817309856415, -140.02185434103012
 1.7063895945427918E9, -349.21689826250076, -364.7748820781708, -309.0054939389229, -149.35664463043213
 1.7063895945593705E9, -439.45320439338684, -353.7646166086197, -277.88952630758286, -229.30074608325958
 1.7063895945593705E9, -353.2859094142914, -367.8864788413048, -296.55910688638687, -191.96158492565155
 1.706389594573106E9, -330.7866712808609, -383.20510905981064, -325.28153854608536, -155.34048455953598
 1.706389594573106E9, -437.77772921323776, -374.1096723675728, -300.86747163534164, -225.94979572296143
 1.7063895945738485E9, -393.7366673350334, -371.23742920160294, -294.4049245119095, -227.38591730594635
 1.7063895945738485E9, -317.6222234368324, -390.86442416906357, -331.98343926668167, -168.2655788064003
 1.7063895945880888E9, -385.83799862861633, -354.7220309972763, -286.9849629998207, -175.44618672132492
 1.7063895945880888E9, -402.35339683294296, -340.6001687645912, -257.3051169514656, -218.05112701654434
 1.7063895945888011E9, -308.7661403417587, -365.01423567533493, -310.9203227162361, -167.30816441774368
 1.7063895945888011E9, -351.84978783130646, -369.3226004242897, -315.2286874651909, -162.5210924744606
 1.7063895946024916E9, -436.34160763025284, -351.84978783130646, -276.93211191892624, -225.71044212579727
 1.7063895946024916E9, -335.573743224144, -359.26974934339523, -293.9262173175812, -191.96158492565155
 1.706389594618579E9, -312.35644429922104, -366.92906445264816, -312.5957978963852, -142.1760367155075
 1.706389594618579E9, -422.9378061890602, -355.2007381916046, -280.2830622792244, -206.3228007555008
 1.706389594618941E9, -376.26385474205017, -351.37108063697815, -272.8631007671356, -211.10987269878387
 1.706389594618941E9, -301.1068252325058, -368.60453963279724, -315.46804106235504, -147.4418158531189
 1.706389594650148E9, -387.9921810030937, -360.22716373205185, -292.01138854026794, -178.07907629013062
 1.706389594650148E9, -411.4488335251808, -351.37108063697815, -269.51215040683746, -220.20530939102173
 1.7063895946508896E9, -319.05834501981735, -375.0670867562294, -313.0745050907135, -165.1539820432663
 1.7063895946508896E9, -358.7910421490669, -374.82773315906525, -315.2286874651909, -154.86177736520767
 1.706389594651659E9, -440.88932597637177, -355.2007381916046, -277.41081911325455, -223.31690615415573
 1.706389594651659E9, -354.00397020578384, -369.08324682712555, -302.0642396211624, -194.59447449445724
 1.7063895946623764E9, -337.72792559862137, -388.94959539175034, -325.9995993375778, -148.3992302417755
 1.7063895946623764E9, -436.82031482458115, -365.7322964668274, -283.15530544519424, -196.26994967460632
 1.7063895946782928E9, -390.38571697473526, -357.354920566082, -281.240476667881, -200.5783144235611
 1.7063895946782928E9, -326.238952934742, -388.2315346002579, -329.350549697876, -147.68116945028305
 1.7063895946788256E9, -420.54427021741867, -374.5883795619011, -306.3726043701172, -171.13782197237015
 1.7063895946788256E9, -439.692557990551, -357.8336277604103, -267.3579680323601, -202.25378960371017
 1.7063895947088633E9, -346.8233622908592, -379.3754515051842, -306.3726043701172, -145.52698707580566
 1.7063895947088633E9, -397.3269712924957, -389.1889489889145, -312.35644429922104, -143.13345110416412
 1.706389594725179E9, -473.920122385025, -371.4767827987671, -275.25663673877716, -211.82793349027634
 1.706389594725179E9, -377.93932992219925, -368.3651860356331, -284.352073431015, -168.2655788064003
 1.706389594725878E9, -360.22716373205185, -388.2315346002579, -325.28153854608536, -130.2083568572998
 1.706389594725878E9, -451.89959144592285, -363.81746768951416, -285.5488414168358, -191.00417053699493
 1.706389594726686E9, -408.57659035921097, -360.22716373205185, -279.8043550848961, -195.07318168878555
 1.706389594726686E9, -330.54731768369675, -380.09351229667664, -320.9731737971306, -132.3625392317772
 1.7063895947274213E9, -417.6720270514488, -372.4341971874237, -300.38876444101334, -165.6326892375946
 1.7063895947274213E9, -439.45320439338684, -357.11556696891785, -274.77792954444885, -217.09371262788773
 1.7063895947532809E9, -342.2756439447403, -381.05092668533325, -319.05834501981735, -161.32432448863983
 1.7063895947532809E9, -379.6148051023483, -379.8541586995125, -311.15967631340027, -146.24504786729813
 1.7063895947538505E9, -453.3357130289078, -355.44009178876877, -264.4857248663902, -210.15245831012726
 1.7063895947538505E9, -361.4239317178726, -364.0568212866783, -290.8146205544472, -173.29200434684753
 1.70638959478515E9, -342.03629034757614, -376.5032083392143, -322.4092953801155, -136.19219678640366
 1.70638959478515E9, -444.00092273950577, -356.8762133717537, -287.70302379131317, -194.3551208972931
 1.7063895947858613E9, -411.4488335251808, -368.60453963279724, -285.0701342225075, -206.8015079498291
 1.7063895947858613E9, -332.46214646101, -389.6676561832428, -323.12735617160797, -137.62831836938858
 1.7063895947866008E9, -419.8262094259262, -378.6573907136917, -301.34617882966995, -163.95721405744553
 1.7063895947866008E9, -434.4267788529396, -352.0891414284706, -261.6134817004204, -200.5783144235611
 1.7063895947873476E9, -329.8292568922043, -367.8864788413048, -304.93648278713226, -140.97926872968674
 1.7063895947873476E9, -374.82773315906525, -372.4341971874237, -316.90416264533997, -148.3992302417755
 1.7063895947974424E9, -461.23438173532486, -358.7910421490669, -273.1024543642998, -211.82793349027634
 1.7063895947974424E9, -369.56195402145386, -371.71613639593124, -295.12298530340195, -179.99390506744385
 1.7063895948286536E9, -357.11556696891785, -392.53989934921265, -331.7440856695175, -151.0321198105812
 1.7063895948286536E9, -447.83058029413223, -369.08324682712555, -292.96880292892456, -201.77508240938187
 1.706389594860875E9, -406.1830543875694, -363.57811409235, -287.22431659698486, -208.71633672714233
 1.706389594860875E9, -332.70150005817413, -388.94959539175034, -331.98343926668167, -151.0321198105812
 1.7063895948615708E9, -427.7248781323433, -382.72640186548233, -319.53705221414566, -190.04675614833832
 1.7063895948615708E9, -451.42088425159454, -372.4341971874237, -288.42108458280563, -228.58268529176712
 1.7063895948622878E9, -344.908533513546, -385.11993783712387, -324.32412415742874, -164.19656765460968
 1.7063895948622878E9, -383.4444626569748, -387.5134738087654, -323.3667097687721, -152.70759499073029
 1.706389594863058E9, -459.3195529580116, -364.0568212866783, -275.25663673877716, -219.48724859952927
 1.706389594863058E9, -367.1684180498123, -375.5457939505577, -298.4739356637001, -187.89257377386093
 1.7063895948731024E9, -346.3446550965309, -388.7102417945862, -325.9995993375778, -152.22888779640198
 1.7063895948731024E9, -448.0699338912964, -372.912904381752, -287.70302379131317, -207.2802151441574
 1.706389594873808E9, -402.35339683294296, -365.49294286966324, -292.2507421374321, -212.5459942817688
 1.706389594873808E9, -326.4783065319061, -386.0773522257805, -332.2227928638458, -148.63858383893967
 1.706389594888271E9, -419.58685582876205, -377.93932992219925, -305.1758363842964, -176.88230830430984
 1.706389594888271E9, -438.4957900047302, -370.7587220072746, -280.2830622792244, -226.6678565144539
 1.7063895948889918E9, -331.2653784751892, -384.64123064279556, -311.3990299105644, -164.675274848938
 1.7063895948889918E9, -379.8541586995125, -390.1463633775711, -321.9305881857872, -157.01595973968506
 1.7063895949186325E9, -482.2974982857704, -391.58248496055603, -301.34617882966995, -243.66196191310883
 1.7063895949186325E9, -355.9187989830971, -365.49294286966324, -298.23458206653595, -183.8235626220703
 1.7063895949504032E9, -335.3343896269798, -380.8115730881691, -321.4518809914589, -139.30379354953766
 1.7063895949504032E9, -448.5486410856247, -374.5883795619011, -301.1068252325058, -206.8015079498291
 1.7063895949508588E9, -399.0024464726448, -363.81746768951416, -285.5488414168358, -204.1686183810234
 1.7063895949508588E9, -311.6383835077286, -375.30644035339355, -320.01575940847397, -134.03801441192627
