 Timestamp, EXG Channel 0, EXG Channel 1, EXG Channel 2, EXG Channel 3
 1.7063889050567148E9, -420.54427021741867, -465.3033928871155, -401.87468963861465, -196.50930327177048
 1.7063889050567148E9, 0.0, 0.0, 0.0, 0.0
 1.7063889051199293E9, -531.364985704422, -439.45320439338684, -349.9349590539932, -264.7250784635544
 1.7063889051199293E9, -441.8467403650284, -455.01118820905685, -381.05092668533325, -236.9600611925125
 1.7063889051213815E9, -422.69845259189606, -479.6646087169647, -421.74103820323944, -191.2435241341591
 1.7063889051213815E9, -533.7585216760635, -465.0640392899513, -380.3328658938408, -266.40055364370346
 1.706388905132168E9, -479.9039623141289, -452.85700583457947, -370.7587220072746, -274.5385759472847
 1.706388905132168E9, -379.3754515051842, -456.2079561948776, -410.9701263308525, -193.63706010580063
 1.7063889051480722E9, -484.69103425741196, -464.34597849845886, -393.2579601407051, -232.17298924922943
 1.7063889051480722E9, -526.0992065668106, -451.89959144592285, -368.60453963279724, -296.55910688638687
 1.7063889051488216E9, -399.24180006980896, -458.12278497219086, -411.4488335251808, -221.4020773768425
 1.7063889051488216E9, -430.11841410398483, -452.6176522374153, -397.0876176953316, -197.9454248547554
 1.706388905149582E9, -532.5617536902428, -443.52221554517746, -358.07298135757446, -279.8043550848961
 1.706388905149582E9, -430.8364748954773, -453.57506662607193, -387.75282740592957, -251.32127702236176
 1.706388905161333E9, -408.8159439563751, -472.72335439920425, -417.6720270514488, -194.8338280916214
 1.706388905161333E9, -530.8862785100937, -459.5589065551758, -374.34902596473694, -259.9380065202713
 1.706388905175979E9, -498.81289649009705, -459.0801993608475, -378.41803711652756, -272.3843935728073
 1.706388905175979E9, -392.53989934921265, -470.3298184275627, -422.4590989947319, -198.90283924341202
 1.7063889051917346E9, -488.99939900636673, -467.2182216644287, -390.6250705718994, -232.17298924922943
 1.7063889051917346E9, -525.6204993724823, -459.79826015233994, -364.29617488384247, -286.9849629998207
 1.7063889051924322E9, -401.6353360414505, -461.9524425268173, -400.1992144584656, -212.5459942817688
 1.7063889051924322E9, -440.6499723792076, -467.9362824559212, -407.3798223733902, -204.64732557535172
 1.7063889052064397E9, -540.4604223966599, -453.57506662607193, -363.81746768951416, -290.8146205544472
 1.7063889052064397E9, -432.5119500756264, -456.9260169863701, -386.31670582294464, -245.57679069042206
 1.7063889052217872E9, -399.72050726413727, -469.3724040389061, -409.77335834503174, -186.456452190876
 1.7063889052217872E9, -523.4663169980049, -456.9260169863701, -369.3226004242897, -253.47545939683914
 1.7063889052225316E9, -479.1859015226364, -452.138945043087, -376.024501144886, -277.1714655160904
 1.7063889052225316E9, -373.3916115760803, -454.2931274175644, -404.2682256102562, -185.02033060789108
 1.7063889052361166E9, -461.473735332489, -448.0699338912964, -376.98191553354263, -217.57241982221603
 1.7063889052361166E9, -508.8657475709915, -448.5486410856247, -354.00397020578384, -282.1978910565376
 1.7063889052518668E9, -390.86442416906357, -453.0963594317436, -397.5663248896599, -217.57241982221603
 1.7063889052518668E9, -422.21974539756775, -455.7292490005493, -393.49731373786926, -199.62090003490448
 1.7063889052525651E9, -527.0566209554672, -440.6499723792076, -352.8072022199631, -280.2830622792244
 1.7063889052525651E9, -416.95396625995636, -448.0699338912964, -379.6148051023483, -240.78971874713898
 1.7063889052660663E9, -389.6676561832428, -462.43114972114563, -406.9011151790619, -187.65322017669678
 1.7063889052660663E9, -505.99350440502167, -444.4796299338341, -363.0994068980217, -259.69865292310715
 1.7063889052817698E9, -461.71308892965317, -436.82031482458115, -362.1419925093651, -270.70891839265823
 1.7063889052817698E9, -365.49294286966324, -450.2241162657738, -404.02887201309204, -183.8235626220703
 1.7063889052824621E9, -465.54274648427963, -453.57506662607193, -384.64123064279556, -229.54009968042374
 1.7063889052824621E9, -507.9083331823349, -445.4370443224907, -356.63685977458954, -288.1817309856415
 1.7063889052961533E9, -385.11993783712387, -463.38856410980225, -408.09788316488266, -224.0349669456482
 1.7063889052961533E9, -407.8585295677185, -445.915751516819, -384.4018770456314, -193.39770650863647
 1.7063889053119311E9, -511.73799073696136, -440.41061878204346, -347.30206948518753, -276.45340472459793
 1.7063889053119311E9, -407.61917597055435, -438.4957900047302, -379.3754515051842, -242.7045475244522
 1.7063889053126194E9, -376.98191553354263, -446.8731659054756, -400.6779216527939, -183.10550183057785
 1.7063889053126194E9, -492.58970296382904, -433.70871806144714, -360.9452245235443, -252.51804500818253
 1.7063889053260236E9, -459.79826015233994, -439.93191158771515, -355.9187989830971, -263.0496032834053
 1.7063889053260236E9, -374.1096723675728, -463.38856410980225, -405.46499359607697, -186.456452190876
 1.7063889053417845E9, -468.8936968445778, -450.94217705726624, -375.0670867562294, -215.1788838505745
 1.7063889053417845E9, -494.7438853383064, -432.9906572699547, -346.3446550965309, -269.99085760116577
 1.7063889053424957E9, -384.4018770456314, -453.8144202232361, -392.53989934921265, -208.47698312997818
 1.7063889053424957E9, -422.4590989947319, -451.42088425159454, -390.6250705718994, -191.7222313284874
 1.7063889053563068E9, -509.10510116815567, -428.2035853266716, -339.1640471816063, -261.13477450609207
 1.7063889053563068E9, -410.25206553936005, -435.3841932415962, -372.19484359025955, -226.6678565144539
 1.7063889053717868E9, -374.5883795619011, -443.2828619480133, -402.35339683294296, -177.83972269296646
 1.7063889053717868E9, -493.7864709496498, -441.6073867678642, -364.29617488384247, -254.43287378549576
 1.7063889053724985E9, -448.78799468278885, -427.48552453517914, -347.0627158880234, -255.15093457698822
 1.7063889053724985E9, -349.4562518596649, -444.71898353099823, -397.5663248896599, -182.3874410390854
 1.7063889053860245E9, -455.7292490005493, -447.11251950263977, -382.9657554626465, -225.47108852863312
 1.7063889053860245E9, -491.6322885751724, -428.44293892383575, -352.32849502563477, -281.47983026504517
 1.7063889054025376E9, -358.3123349547386, -432.03324288129807, -384.8805842399597, -199.86025363206863
 1.7063889054025376E9, -402.83210402727127, -439.2138507962227, -384.16252344846725, -187.41386657953262
 1.7063889054172497E9, -503.360614836216, -427.7248781323433, -342.7543511390686, -271.18762558698654
 1.7063889054172497E9, -396.8482640981674, -427.96423172950745, -368.8438932299614, -231.45492845773697
 1.7063889054175875E9, -366.92906445264816, -439.93191158771515, -403.0714576244354, -180.95131945610046
 1.7063889054175875E9, -482.05814468860626, -430.8364748954773, -355.2007381916046, -253.236105799675
 1.7063889054317665E9, -438.97449719905853, -421.26233100891113, -346.3446550965309, -256.347702562809
 1.7063889054317665E9, -346.58400869369507, -435.6235468387604, -396.3695569038391, -181.90873384475708
 1.7063889054324448E9, -452.138945043087, -441.1286795735359, -380.09351229667664, -227.38591730594635
 1.7063889054324448E9, -485.4090950489044, -427.96423172950745, -349.4562518596649, -282.4372446537018
 1.7063889054462276E9, -376.26385474205017, -444.9583371281624, -396.3695569038391, -214.22146946191788
 1.7063889054462276E9, -411.20947992801666, -448.5486410856247, -401.87468963861465, -204.88667917251587
 1.706388905461816E9, -512.9347587227821, -446.63381230831146, -359.5091029405594, -289.85720616579056
 1.706388905461816E9, -418.8687950372696, -448.30928748846054, -376.7425619363785, -246.29485148191452
 1.7063889054625137E9, -396.8482640981674, -467.45757526159286, -416.95396625995636, -197.22736406326294
 1.7063889054625137E9, -535.9127040505409, -480.3826695084572, -407.8585295677185, -295.60169249773026
 1.7063889054761236E9, -449.9847626686096, -439.93191158771515, -363.0994068980217, -273.5811615586281
 1.7063889054761236E9, -344.4298263192177, -438.25643640756607, -395.17278891801834, -185.73839139938354
 1.7063889054915652E9, -422.69845259189606, -422.21974539756775, -357.8336277604103, -216.1362982392311
 1.7063889054915652E9, -452.138945043087, -410.25206553936005, -328.1537817120552, -278.36823350191116
 1.7063889055070748E9, -320.9731737971306, -406.1830543875694, -370.04066121578217, -205.84409356117249
 1.7063889055070748E9, -361.18457812070847, -417.6720270514488, -375.30644035339355, -200.5783144235611
 1.7063889055075555E9, -457.16537058353424, -402.83210402727127, -326.95701372623444, -285.0701342225075
 1.7063889055075555E9, -324.5634777545929, -378.6573907136917, -331.7440856695175, -225.94979572296143
 1.706388905521756E9, -291.2933277487755, -389.90700978040695, -362.38134610652924, -174.9674795269966
 1.706388905521756E9, -407.3798223733902, -379.13609790802, -317.3828698396683, -244.3800227046013
 1.7063889055224953E9, -364.0568212866783, -366.45035725831985, -311.6383835077286, -256.10834896564484
 1.7063889055224953E9, -262.81024968624115, -379.6148051023483, -349.9349590539932, -170.65911477804184
 1.7063889055361626E9, -369.56195402145386, -385.11993783712387, -335.3343896269798, -216.1362982392311
 1.7063889055361626E9, -405.46499359607697, -378.41803711652756, -311.87773710489273, -275.017283141613
 1.7063889055517955E9, -287.9423773884773, -390.86442416906357, -355.2007381916046, -208.47698312997818
 1.7063889055517955E9, -326.95701372623444, -393.97602093219757, -358.07298135757446, -193.39770650863647
 1.7063889055524867E9, -433.469364464283, -384.64123064279556, -315.7073946595192, -276.2140511274338
 1.7063889055524867E9, -340.83952236175537, -397.80567848682404, -353.0465558171272, -246.53420507907867
 1.706388905566077E9, -318.3402842283249, -416.47525906562805, -384.8805842399597, -197.4667176604271
 1.706388905566077E9, -429.6397069096565, -397.80567848682404, -338.44598639011383, -261.13477450609207
 1.7063889055819173E9, -383.9231698513031, -383.4444626569748, -327.91442811489105, -265.682492852211
 1.7063889055819173E9, -284.352073431015, -399.4811536669731, -367.6471252441406, -182.3874410390854
 1.7063889055824864E9, -386.79541301727295, -397.0876176953316, -350.6530198454857, -220.20530939102173
 1.7063889055824864E9, -439.692557990551, -405.2256399989128, -330.54731768369675, -284.11271983385086
 1.7063889055962873E9, -330.3079640865326, -413.6030158996582, -369.801307618618, -216.37565183639526
 1.7063889055962873E9, -365.97165006399155, -413.36366230249405, -376.26385474205017, -203.6899111866951
 1.706388905611797E9, -464.585332095623, -407.3798223733902, -330.3079640865326, -274.5385759472847
 1.706388905611797E9, -372.19484359025955, -417.6720270514488, -359.5091029405594, -248.4490338563919
 1.7063889056124933E9, -338.44598639011383, -425.33134216070175, -393.01860654354095, -193.87641370296478
 1.7063889056124933E9, -457.64407777786255, -424.6132813692093, -356.3975061774254, -265.92184644937515
 1.7063889056262057E9, -425.33134216070175, -425.33134216070175, -350.1743126511574, -279.0862942934036
 1.7063889056262057E9, -329.8292568922043, -433.23001086711884, -392.06119215488434, -199.14219284057617
 1.7063889056417353E9, -427.246170938015, -435.6235468387604, -376.98191553354263, -243.18325471878052
 1.7063889056417353E9, -462.6705033183098, -426.28875654935837, -352.8072022199631, -301.82488602399826
 1.706388905642468E9, -335.81309682130814, -426.5281101465225, -379.3754515051842, -215.6575910449028
 1.706388905642468E9, -364.7748820781708, -421.74103820323944, -377.2212691307068, -197.9454248547554
 1.7063889056560605E9, -467.9362824559212, -409.5340047478676, -341.55758315324783, -278.128879904747
 1.7063889056560605E9, -377.46062272787094, -421.74103820323944, -364.5355284810066, -247.73097306489944
 1.7063889056717896E9, -345.3872407078743, -435.3841932415962, -395.65149611234665, -194.59447449445724
 1.7063889056717896E9, -463.38856410980225, -425.0919885635376, -356.3975061774254, -265.2037856578827
 1.70638890567246E9, -429.1609997153282, -425.0919885635376, -359.9878101348877, -282.67659825086594
 1.70638890567246E9, -332.9408536553383, -432.9906572699547, -394.2153745293617, -195.3125352859497
 1.7063889056860979E9, -430.59712129831314, -432.7513036727905, -370.04066121578217, -228.1039780974388
 1.7063889056860979E9, -470.808525621891, -430.59712129831314, -352.5678486227989, -300.86747163534164
 1.706388905702159E9, -350.6530198454857, -434.66613245010376, -387.9921810030937, -226.90721011161804
 1.706388905702159E9, -391.58248496055603, -442.08609396219254, -390.6250705718994, -211.34922629594803
 1.7063889057168076E9, -485.4090950489044, -424.6132813692093, -343.47241193056107, -286.9849629998207
 1.7063889057168076E9, -384.8805842399597, -433.469364464283, -367.8864788413048, -250.6032162308693
 1.7063889057174385E9, -363.57811409235, -446.8731659054756, -406.4224079847336, -200.81766802072525
 1.7063889057174385E9, -473.4414151906967, -431.3151820898056, -359.9878101348877, -267.8366752266884
 1.7063889057317672E9, -424.134574174881, -416.7146126627922, -345.14788711071014, -270.4695647954941
 1.7063889057317672E9, -337.0098648071289, -434.66613245010376, -388.470888197422, -195.55188888311386
 1.7063889057324665E9, -441.8467403650284, -438.0170828104019, -375.78514754772186, -242.94390112161636
 1.7063889057324665E9, -462.1917961239815, -418.3900878429413, -341.796936750412, -287.9423773884773
 1.706388905762692E9, -340.6001687645912, -417.911380648613, -368.8438932299614, -211.82793349027634
 1.706388905762692E9, -378.41803711652756, -425.81004935503006, -381.2902802824974, -209.19504392147064
 1.7063889057631865E9, -479.9039623141289, -419.10814863443375, -347.78077667951584, -291.2933277487755
 1.7063889057631865E9, -388.2315346002579, -423.6558669805527, -366.92906445264816, -249.16709464788437
 1.7063889057640004E9, -345.62659430503845, -425.5706957578659, -393.49731373786926, -195.3125352859497
 1.7063889057640004E9, -450.4634698629379, -417.43267345428467, -350.1743126511574, -253.47545939683914
 1.7063889057761393E9, -434.4267788529396, -421.26233100891113, -349.21689826250076, -276.6927583217621
 1.7063889057761393E9, -344.908533513546, -437.5383756160736, -392.7792529463768, -200.0996072292328
 1.7063889057919686E9, -436.34160763025284, -437.29902201890945, -382.9657554626465, -236.4813539981842
 1.7063889057919686E9, -470.56917202472687, -428.44293892383575, -349.69560545682907, -292.2507421374321
 1.7063889057924523E9, -357.59427416324615, -432.9906572699547, -387.9921810030937, -226.6678565144539
 1.7063889057924523E9, -400.91727524995804, -450.2241162657738, -399.4811536669731, -217.57241982221603
 1.7063889058224092E9, -503.1212612390518, -442.08609396219254, -354.96138459444046, -286.26690220832825
 1.7063889058224092E9, -410.9701263308525, -445.67639791965485, -378.1786835193634, -257.7838241457939
 1.7063889058231726E9, -374.5883795619011, -452.37829864025116, -410.9701263308525, -207.04086154699326
 1.7063889058231726E9, -482.53685188293457, -438.4957900047302, -369.08324682712555, -266.1612000465393
 1.7063889058239255E9, -444.4796299338341, -430.357767701149, -352.5678486227989, -277.88952630758286
 1.7063889058239255E9, -353.2859094142914, -438.97449719905853, -397.80567848682404, -201.0570216178894
 1.706388905836324E9, -444.2402763366699, -442.08609396219254, -388.7102417945862, -238.6355363726616
 1.706388905836324E9, -488.28133821487427, -440.88932597637177, -359.26974934339523, -293.686863720417
 1.7063889058520553E9, -367.40777164697647, -437.0596684217453, -379.3754515051842, -223.55625975131989
 1.7063889058520553E9, -391.8218385577202, -435.86290043592453, -382.4870482683182, -203.92926478385925
 1.706388905852548E9, -486.6058630347252, -422.4590989947319, -346.3446550965309, -276.93211191892624
 1.706388905852548E9, -390.86442416906357, -420.7836238145828, -360.70587092638016, -243.18325471878052
 1.7063889058661976E9, -362.1419925093651, -437.5383756160736, -391.1037777662277, -190.28610974550247
 1.7063889058661976E9, -458.362138569355, -419.10814863443375, -343.47241193056107, -244.8587298989296
 1.7063889058817048E9, -436.580961227417, -417.43267345428467, -343.2330583333969, -264.7250784635544
 1.7063889058817048E9, -344.66917991638184, -430.8364748954773, -381.05092668533325, -190.28610974550247
 1.7063889058824162E9, -440.6499723792076, -433.9480716586113, -370.5193684101105, -225.47108852863312
 1.7063889058824162E9, -484.69103425741196, -432.7513036727905, -350.41366624832153, -290.8146205544472
 1.7063889058965013E9, -386.0773522257805, -454.2931274175644, -406.1830543875694, -239.35359716415405
 1.7063889058965013E9, -397.0876176953316, -444.2402763366699, -398.5237392783165, -217.33306622505188
 1.7063889059119952E9, -510.30186915397644, -449.027348279953, -365.49294286966324, -295.3623389005661
 1.7063889059119952E9, -421.5016846060753, -447.11251950263977, -378.41803711652756, -255.86899536848068
 1.706388905912512E9, -388.7102417945862, -459.79826015233994, -410.0127119421959, -205.12603276968002
 1.706388905912512E9, -493.06841015815735, -448.5486410856247, -373.3916115760803, -264.7250784635544
 1.70638890592621E9, -480.8613767027855, -463.38856410980225, -376.26385474205017, -289.85720616579056
 1.70638890592621E9, -372.19484359025955, -457.16537058353424, -410.4914191365242, -207.99827593564987
 1.7063889059421127E9, -468.65434324741364, -470.808525621891, -400.91727524995804, -249.40644824504852
 1.7063889059421127E9, -500.4883716702461, -451.89959144592285, -369.08324682712555, -298.4739356637001
 1.7063889059570684E9, -394.9334353208542, -467.696928858757, -404.50757920742035, -237.67812198400497
 1.7063889059570684E9, -420.54427021741867, -466.02145367860794, -416.47525906562805, -227.1465637087822
 1.7063889059574783E9, -520.1153666377068, -463.6279177069664, -377.46062272787094, -305.8938971757889
 1.7063889059574783E9, -445.19769072532654, -473.68076878786087, -398.0450320839882, -271.4269791841507
 1.7063889059719107E9, -399.0024464726448, -475.35624396800995, -421.26233100891113, -213.50340867042542
 1.7063889059719107E9, -496.8980677127838, -457.4047241806984, -376.98191553354263, -269.51215040683746
 1.7063889059725192E9, -463.86727130413055, -452.6176522374153, -370.9980756044388, -281.240476667881
 1.7063889059725192E9, -359.74845653772354, -451.42088425159454, -403.0714576244354, -199.14219284057617
 1.7063889059860451E9, -446.63381230831146, -448.0699338912964, -378.6573907136917, -227.6252709031105
 1.7063889059860451E9, -490.43552058935165, -444.00092273950577, -355.2007381916046, -292.49009573459625
 1.7063889060019152E9, -383.4444626569748, -453.57506662607193, -391.3431313633919, -226.6678565144539
 1.7063889060019152E9, -420.06556302309036, -463.6279177069664, -407.61917597055435, -220.20530939102173
 1.706388906002632E9, -515.807001888752, -451.89959144592285, -362.38134610652924, -289.85720616579056
 1.706388906002632E9, -420.06556302309036, -449.74540907144547, -385.5986450314522, -260.8954209089279
 1.7063889060161164E9, -376.26385474205017, -449.74540907144547, -404.2682256102562, -200.81766802072525
 1.7063889060161164E9, -488.5206918120384, -441.8467403650284, -368.3651860356331, -261.6134817004204
 1.7063889060317178E9, -449.5060554742813, -436.34160763025284, -362.86005330085754, -277.41081911325455
 1.7063889060317178E9, -361.18457812070847, -455.7292490005493, -405.7043471932411, -204.64732557535172
 1.7063889060324552E9, -456.2079561948776, -455.01118820905685, -391.1037777662277, -235.28458601236343
 1.7063889060324552E9, -486.84521663188934, -441.8467403650284, -357.59427416324615, -293.9262173175812
 1.7063889060628808E9, -386.5560594201088, -458.362138569355, -398.76309287548065, -227.1465637087822
 1.7063889060628808E9, -416.2359054684639, -455.7292490005493, -404.02887201309204, -214.22146946191788
 1.7063889060633228E9, -517.9611842632294, -451.89959144592285, -363.33876049518585, -295.60169249773026
 1.7063889060633228E9, -419.58685582876205, -450.2241162657738, -383.20510905981064, -259.69865292310715
 1.7063889060639503E9, -387.27412021160126, -462.90985691547394, -415.7571982741356, -205.60473996400833
 1.7063889060639503E9, -488.0419846177101, -445.67639791965485, -366.45035725831985, -258.02317774295807
 1.7063889060762205E9, -463.1492105126381, -449.027348279953, -370.9980756044388, -283.15530544519424
 1.7063889060762205E9, -382.00834107398987, -468.65434324741364, -419.10814863443375, -215.41823744773865
 1.7063889061076665E9, -472.72335439920425, -469.8511112332344, -406.66176158189774, -252.51804500818253
 1.7063889061076665E9, -499.0522500872612, -447.3518730998039, -364.7748820781708, -298.9526428580284
 1.706388906108122E9, -414.0817230939865, -455.7292490005493, -400.1992144584656, -208.9556903243065
 1.706388906108122E9, -513.4134659171104, -448.0699338912964, -365.2535892724991, -293.9262173175812
 1.7063889061089551E9, -421.5016846060753, -449.9847626686096, -391.8218385577202, -269.03344321250916
 1.7063889061089551E9, -385.83799862861633, -460.9950281381607, -414.799783885479, -207.04086154699326
 1.7063889061210527E9, -502.1638468503952, -456.2079561948776, -373.87031877040863, -268.3153824210167
 1.7063889061210527E9, -454.2931274175644, -440.41061878204346, -364.5355284810066, -280.2830622792244
 1.706388906136757E9, -358.07298135757446, -450.4634698629379, -401.39598244428635, -202.97185039520264
 1.706388906136757E9, -454.05377382040024, -453.57506662607193, -388.7102417945862, -240.07165795564651
 1.7063889061374967E9, -492.8290565609932, -441.3680331707001, -356.63685977458954, -291.53268134593964
 1.7063889061374967E9, -371.71613639593124, -444.4796299338341, -390.6250705718994, -227.6252709031105
 1.7063889061511998E9, -398.5237392783165, -444.71898353099823, -393.97602093219757, -207.75892233848572
 1.7063889061511998E9, -499.0522500872612, -438.0170828104019, -359.74845653772354, -288.6604381799698
 1.7063889061668348E9, -422.69845259189606, -458.362138569355, -385.5986450314522, -258.9805921316147
 1.7063889061668348E9, -403.0714576244354, -476.31365835666656, -425.5706957578659, -218.7691878080368
 1.706388906167626E9, -494.5045317411423, -445.915751516819, -371.4767827987671, -272.8631007671356
 1.706388906167626E9, -444.9583371281624, -430.59712129831314, -354.96138459444046, -273.5811615586281
 1.706388906181158E9, -358.3123349547386, -448.78799468278885, -407.3798223733902, -206.8015079498291
 1.706388906181158E9, -428.92164611816406, -429.8790605068207, -372.19484359025955, -226.42850291728973
 1.7063889061971197E9, -481.8187910914421, -437.77772921323776, -353.2859094142914, -294.4049245119095
 1.7063889061971197E9, -361.6632853150368, -435.6235468387604, -386.5560594201088, -219.96595579385757
 1.7063889061975453E9, -402.35339683294296, -442.804154753685, -389.90700978040695, -206.8015079498291
 1.7063889061975453E9, -506.2328580021858, -435.86290043592453, -359.5091029405594, -296.55910688638687
 1.7063889062110937E9, -408.8159439563751, -444.2402763366699, -376.98191553354263, -262.0921888947487
 1.7063889062110937E9, -372.4341971874237, -451.1815306544304, -405.2256399989128, -205.84409356117249
 1.7063889062436826E9, -478.46784073114395, -438.97449719905853, -369.3226004242897, -264.2463712692261
 1.7063889062436826E9, -434.18742525577545, -420.06556302309036, -349.9349590539932, -272.62374716997147
 1.706388906244307E9, -342.2756439447403, -436.580961227417, -392.7792529463768, -193.63706010580063
 1.706388906244307E9, -441.8467403650284, -438.0170828104019, -380.3328658938408, -236.0026468038559
 1.7063889062451105E9, -477.51042634248734, -428.2035853266716, -352.32849502563477, -293.9262173175812
 1.7063889062451105E9, -364.29617488384247, -438.4957900047302, -392.53989934921265, -224.9923813343048
 1.706388906258145E9, -396.60891050100327, -444.4796299338341, -397.80567848682404, -211.34922629594803
 1.706388906258145E9, -487.80263102054596, -427.246170938015, -342.2756439447403, -278.36823350191116
 1.7063889062719092E9, -389.6676561832428, -427.48552453517914, -370.9980756044388, -252.75739860534668
 1.7063889062719092E9, -366.92906445264816, -445.915751516819, -395.65149611234665, -198.18477845191956
 1.7063889062724893E9, -480.62202310562134, -436.1022540330887, -363.81746768951416, -256.58705615997314
 1.7063889062724893E9, -436.34160763025284, -421.5016846060753, -352.0891414284706, -268.07602882385254
 1.70638890628719E9, -346.58400869369507, -438.0170828104019, -397.80567848682404, -200.5783144235611
 1.70638890628719E9, -432.2725964784622, -431.3151820898056, -376.024501144886, -228.34333169460297
 1.7063889063017876E9, -472.72335439920425, -428.44293892383575, -346.10530149936676, -280.7617694735527
 1.7063889063017876E9, -361.4239317178726, -441.1286795735359, -378.1786835193634, -211.82793349027634
 1.7063889063024578E9, -408.3372367620468, -449.5060554742813, -392.06119215488434, -208.71633672714233
 1.7063889063024578E9, -502.1638468503952, -435.3841932415962, -352.8072022199631, -288.89979177713394
 1.7063889063168068E9, -403.55016481876373, -434.18742525577545, -376.26385474205017, -250.12450903654099
 1.7063889063168068E9, -373.87031877040863, -442.08609396219254, -405.46499359607697, -201.29637521505356
 1.7063889063174267E9, -481.57943749427795, -434.18742525577545, -362.86005330085754, -266.1612000465393
 1.7063889063174267E9, -443.7615691423416, -433.9480716586113, -354.243323802948, -274.29922235012054
 1.7063889063313653E9, -342.51499754190445, -436.82031482458115, -389.6676561832428, -188.84998816251755
 1.7063889063313653E9, -434.66613245010376, -422.4590989947319, -365.97165006399155, -219.48724859952927
 1.7063889063475492E9, -468.4149896502495, -418.15073424577713, -331.02602487802505, -269.2727968096733
 1.7063889063475492E9, -354.96138459444046, -427.96423172950745, -372.4341971874237, -208.23762953281403
 1.7063889063637524E9, -396.8482640981674, -436.580961227417, -383.68381625413895, -202.73249679803848
 1.7063889063637524E9, -497.13742130994797, -431.55453568696976, -350.1743126511574, -286.74560940265656
 1.7063889063642943E9, -396.13020330667496, -438.97449719905853, -370.2800148129463, -251.79998421669006
 1.7063889063642943E9, -373.87031877040863, -448.5486410856247, -399.4811536669731, -198.4241320490837
 1.7063889063767085E9, -494.02582454681396, -442.3254475593567, -366.2110036611557, -269.2727968096733
 1.7063889063767085E9, -455.96860259771347, -440.6499723792076, -366.45035725831985, -276.93211191892624
 1.7063889063773975E9, -354.96138459444046, -449.5060554742813, -399.24180006980896, -198.66348564624786
 1.7063889063773975E9, -451.1815306544304, -448.0699338912964, -371.9554899930954, -233.13040363788605
 1.7063889063910153E9, -480.8613767027855, -434.4267788529396, -351.37108063697815, -291.0539741516113
 1.7063889063910153E9, -357.59427416324615, -435.6235468387604, -378.89674431085587, -209.67375111579895
 1.706388906406842E9, -393.97602093219757, -434.9054860472679, -380.3328658938408, -195.07318168878555
 1.706388906406842E9, -495.70129972696304, -427.96423172950745, -346.58400869369507, -275.4959903359413
 1.7063889064074185E9, -391.3431313633919, -427.7248781323433, -362.1419925093651, -235.04523241519928
 1.7063889064074185E9, -367.8864788413048, -448.30928748846054, -394.9334353208542, -185.25968420505524
 1.70638890642112E9, -485.4090950489044, -435.14483964443207, -348.9775446653366, -255.62964177131653
 1.70638890642112E9, -444.4796299338341, -428.44293892383575, -347.30206948518753, -264.7250784635544
 1.7063889064367619E9, -349.9349590539932, -444.00092273950577, -390.86442416906357, -191.48287773132324
 1.7063889064367619E9, -456.2079561948776, -444.2402763366699, -379.13609790802, -236.9600611925125
 1.7063889064374747E9, -488.5206918120384, -438.0170828104019, -350.41366624832153, -295.8410460948944
 1.7063889064374747E9, -377.93932992219925, -453.0963594317436, -394.9334353208542, -226.90721011161804
 1.7063889064510996E9, -410.4914191365242, -453.0963594317436, -396.8482640981674, -210.15245831012726
 1.7063889064510996E9, -484.21232706308365, -424.85263496637344, -345.14788711071014, -278.84694069623947
 1.7063889064668033E9, -382.72640186548233, -420.3049166202545, -358.55168855190277, -232.17298924922943
 1.7063889064668033E9, -359.0303957462311, -432.7513036727905, -383.9231698513031, -185.25968420505524
 1.7063889064674597E9, -487.32392382621765, -439.2138507962227, -358.07298135757446, -261.13477450609207
 1.7063889064674597E9, -449.26670187711716, -438.0170828104019, -361.18457812070847, -275.9746975302696
 1.706388906481497E9, -353.7646166086197, -449.027348279953, -399.24180006980896, -196.98801046609879
 1.706388906481497E9, -442.56480115652084, -431.55453568696976, -367.8864788413048, -224.5136741399765
 1.7063889064978034E9, -481.10073029994965, -430.11841410398483, -345.14788711071014, -285.78819501399994
 1.7063889064978034E9, -369.56195402145386, -443.7615691423416, -397.3269712924957, -227.86462450027466
 1.706388906498329E9, -422.4590989947319, -463.86727130413055, -405.2256399989128, -215.89694464206696
 1.706388906498329E9, -523.2269634008408, -451.42088425159454, -361.9026389122009, -294.16557091474533
 1.7063889065114553E9, -407.14046877622604, -448.30928748846054, -383.9231698513031, -253.7148129940033
 1.7063889065114553E9, -364.5355284810066, -441.6073867678642, -394.2153745293617, -190.04675614833832
 1.7063889065267513E9, -473.20206159353256, -421.74103820323944, -349.69560545682907, -259.9380065202713
 1.7063889065267513E9, -442.56480115652084, -428.44293892383575, -355.44009178876877, -271.18762558698654
 1.7063889065274525E9, -364.0568212866783, -445.67639791965485, -397.0876176953316, -189.80740255117416
 1.7063889065274525E9, -454.2931274175644, -442.3254475593567, -378.1786835193634, -228.1039780974388
 1.706388906541047E9, -488.28133821487427, -439.45320439338684, -354.00397020578384, -281.47983026504517
 1.706388906541047E9, -376.26385474205017, -451.42088425159454, -394.9334353208542, -222.12013816833496
 1.7063889065567474E9, -415.51784467697144, -449.74540907144547, -392.06119215488434, -207.51956874132156
 1.7063889065567474E9, -509.3444547653198, -441.8467403650284, -350.1743126511574, -281.00112307071686
 1.7063889065574708E9, -399.9598608613014, -434.4267788529396, -364.5355284810066, -239.83230435848236
 1.7063889065574708E9, -376.98191553354263, -450.7028234601021, -406.4224079847336, -195.55188888311386
 1.7063889065710497E9, -479.1859015226364, -430.8364748954773, -349.9349590539932, -247.73097306489944
 1.7063889065710497E9, -446.3944587111473, -426.5281101465225, -351.6104342341423, -263.0496032834053
 1.7063889065867906E9, -354.96138459444046, -444.4796299338341, -399.9598608613014, -190.76481693983078
 1.7063889065867906E9, -457.8834313750267, -445.19769072532654, -377.6999763250351, -235.04523241519928
 1.7063889065874095E9, -488.0419846177101, -433.9480716586113, -348.02013027668, -286.0275486111641
 1.7063889065874095E9, -361.9026389122009, -438.0170828104019, -380.3328658938408, -213.0247014760971
 1.7063889066012776E9, -410.73077273368835, -448.30928748846054, -387.75282740592957, -209.4343975186348
 1.7063889066012776E9, -506.9509187936783, -436.580961227417, -352.5678486227989, -285.5488414168358
 1.7063889066167855E9, -402.83210402727127, -439.45320439338684, -373.6309651732445, -253.95416659116745
 1.7063889066167855E9, -376.024501144886, -448.30928748846054, -399.4811536669731, -191.96158492565155
 1.7063889066175003E9, -486.1271558403969, -439.692557990551, -361.4239317178726, -258.74123853445053
 1.7063889066175003E9, -448.30928748846054, -434.66613245010376, -351.6104342341423, -261.85283529758453
 1.7063889066310449E9, -349.69560545682907, -443.52221554517746, -393.97602093219757, -186.21709859371185
 1.7063889066310449E9, -447.11251950263977, -439.45320439338684, -364.5355284810066, -222.12013816833496
 1.7063889066472096E9, -473.920122385025, -424.85263496637344, -334.61632883548737, -272.3843935728073
 1.7063889066472096E9, -359.74845653772354, -431.07582849264145, -378.6573907136917, -205.84409356117249
 1.7063889066476068E9, -402.35339683294296, -438.97449719905853, -384.64123064279556, -200.0996072292328
 1.7063889066476068E9, -499.77031087875366, -434.18742525577545, -343.47241193056107, -279.3256478905678
 1.7063889066612272E9, -391.58248496055603, -435.3841932415962, -365.2535892724991, -235.5239396095276
 1.7063889066612272E9, -378.1786835193634, -450.7028234601021, -400.91727524995804, -192.91899931430817
 1.7063889066767824E9, -501.2064324617386, -445.4370443224907, -360.466517329216, -257.7838241457939
 1.7063889066767824E9, -457.4047241806984, -444.2402763366699, -360.22716373205185, -271.4269791841507
 1.706388906677789E9, -357.354920566082, -450.2241162657738, -396.13020330667496, -192.44029211997986
 1.706388906677789E9, -456.2079561948776, -449.26670187711716, -380.8115730881691, -236.72070759534836
 1.706388906691053E9, -481.8187910914421, -432.5119500756264, -348.9775446653366, -293.2081565260887
 1.706388906691053E9, -348.9775446653366, -430.8364748954773, -375.5457939505577, -204.1686183810234
 1.7063889067070065E9, -399.72050726413727, -433.70871806144714, -384.8805842399597, -201.77508240938187
 1.7063889067070065E9, -500.0096644759178, -431.7938892841339, -345.62659430503845, -281.240476667881
 1.7063889067075193E9, -399.24180006980896, -434.66613245010376, -370.04066121578217, -241.02907234430313
 1.7063889067075193E9, -370.2800148129463, -441.3680331707001, -393.97602093219757, -190.76481693983078
 1.7063889067210572E9, -490.91422778367996, -436.1022540330887, -357.59427416324615, -260.8954209089279
 1.7063889067210572E9, -440.6499723792076, -431.3151820898056, -348.73819106817245, -267.3579680323601
 1.7063889067368908E9, -350.41366624832153, -444.2402763366699, -398.5237392783165, -196.03059607744217
 1.7063889067368908E9, -449.26670187711716, -441.1286795735359, -368.12583243846893, -230.01880687475204
 1.7063889067375145E9, -486.6058630347252, -433.9480716586113, -346.8233622908592, -285.5488414168358
 1.7063889067375145E9, -370.5193684101105, -444.00092273950577, -395.65149611234665, -219.72660219669342
 1.706388906751022E9, -403.7895184159279, -437.77772921323776, -391.58248496055603, -202.97185039520264
 1.706388906751022E9, -487.0845702290535, -416.2359054684639, -340.36081516742706, -278.84694069623947
 1.7063889067667608E9, -393.49731373786926, -428.92164611816406, -370.2800148129463, -241.7471331357956
 1.7063889067667608E9, -376.26385474205017, -442.3254475593567, -396.3695569038391, -186.21709859371185
 1.7063889067674987E9, -487.5632774233818, -434.18742525577545, -359.0303957462311, -261.3741281032562
 1.7063889067674987E9, -438.4957900047302, -425.81004935503006, -350.6530198454857, -260.17736011743546
 1.7063889067813866E9, -354.243323802948, -443.2828619480133, -398.0450320839882, -186.93515938520432
 1.7063889067813866E9, -471.0478792190552, -451.42088425159454, -381.52963387966156, -238.39618277549744
 1.7063889067971115E9, -496.8980677127838, -445.67639791965485, -366.689710855484, -298.4739356637001
 1.7063889067971115E9, -373.6309651732445, -444.00092273950577, -391.1037777662277, -218.7691878080368
 1.7063889067975264E9, -414.799783885479, -447.11251950263977, -390.6250705718994, -204.88667917251587
 1.7063889067975264E9, -514.1315267086029, -439.692557990551, -347.5414230823517, -284.352073431015
 1.7063889068274703E9, -413.6030158996582, -448.0699338912964, -379.3754515051842, -249.64580184221268
 1.7063889068274703E9, -385.359291434288, -458.8408457636833, -415.99655187129974, -201.77508240938187
 1.7063889068281517E9, -501.44578605890274, -451.1815306544304, -371.23742920160294, -277.1714655160904
 1.7063889068281517E9, -451.89959144592285, -432.03324288129807, -351.131727039814, -264.4857248663902
 1.7063889068289506E9, -349.21689826250076, -436.34160763025284, -396.13020330667496, -188.13192737102509
 1.7063889068289506E9, -454.7718346118927, -441.8467403650284, -382.00834107398987, -237.91747558116913
 1.7063889068414438E9, -493.3077637553215, -442.804154753685, -356.3975061774254, -288.1817309856415
 1.7063889068414438E9, -388.2315346002579, -463.6279177069664, -404.7469328045845, -221.4020773768425
 1.7063889068572087E9, -427.48552453517914, -455.01118820905685, -402.5927504301071, -217.57241982221603
 1.7063889068572087E9, -500.7277252674103, -428.44293892383575, -344.66917991638184, -277.1714655160904
 1.7063889068575723E9, -387.0347666144371, -420.06556302309036, -363.57811409235, -227.86462450027466
 1.7063889068575723E9, -386.5560594201088, -453.8144202232361, -400.43856805562973, -197.70607125759125
 1.7063889068713245E9, -500.96707886457443, -444.00092273950577, -365.2535892724991, -268.55473601818085
 1.7063889068713245E9, -446.8731659054756, -437.0596684217453, -356.8762133717537, -266.40055364370346
 1.7063889068867576E9, -362.86005330085754, -452.6176522374153, -396.13020330667496, -195.79124248027802
 1.7063889068867576E9, -461.71308892965317, -444.9583371281624, -375.0670867562294, -236.24200040102005
 1.706388906887494E9, -488.0419846177101, -433.9480716586113, -351.37108063697815, -282.4372446537018
 1.706388906887494E9, -374.34902596473694, -447.11251950263977, -398.28438568115234, -219.00854140520096
 1.706388906901145E9, -420.3049166202545, -452.6176522374153, -403.0714576244354, -228.58268529176712
 1.706388906901145E9, -521.7908418178558, -450.4634698629379, -362.6206997036934, -289.6178525686264
 1.706388906917001E9, -401.87468963861465, -440.1712651848793, -370.5193684101105, -234.08781802654266
 1.706388906917001E9, -394.69408172369003, -463.86727130413055, -416.47525906562805, -200.5783144235611
 1.70638890691749E9, -504.55738282203674, -451.6602378487587, -373.3916115760803, -274.29922235012054
 1.70638890691749E9, -461.71308892965317, -454.2931274175644, -375.5457939505577, -292.49009573459625
 1.7063889069313474E9, -366.689710855484, -462.90985691547394, -411.4488335251808, -207.2802151441574
 1.7063889069313474E9, -458.362138569355, -447.83058029413223, -371.71613639593124, -232.41234284639359
 1.7063889069472115E9, -480.3826695084572, -434.4267788529396, -346.10530149936676, -282.4372446537018
 1.7063889069472115E9, -371.4767827987671, -449.26670187711716, -399.72050726413727, -224.0349669456482
 1.7063889069475913E9, -412.40624791383743, -450.94217705726624, -396.13020330667496, -208.71633672714233
 1.7063889069475913E9, -499.5309572815895, -428.2035853266716, -345.62659430503845, -279.56500148773193
 1.706388906961203E9, -380.8115730881691, -418.3900878429413, -359.9878101348877, -230.97622126340866
 1.706388906961203E9, -367.40777164697647, -439.93191158771515, -390.86442416906357, -190.52546334266663
 1.7063889069779427E9, -490.1961669921875, -432.7513036727905, -358.55168855190277, -256.58705615997314
 1.7063889069779427E9, -439.2138507962227, -424.85263496637344, -352.5678486227989, -259.459299325943
 1.7063889069917693E9, -348.4988374710083, -438.25643640756607, -390.1463633775711, -183.10550183057785
 1.7063889069917693E9, -462.90985691547394, -446.3944587111473, -373.3916115760803, -230.7368676662445
 1.7063889069924912E9, -491.8716421723366, -432.2725964784622, -348.9775446653366, -281.9585374593735
 1.7063889069924912E9, -364.5355284810066, -436.580961227417, -382.00834107398987, -209.4343975186348
 1.7063889070067601E9, -398.76309287548065, -431.7938892841339, -375.30644035339355, -191.00417053699493
 1.7063889070067601E9, -492.58970296382904, -424.6132813692093, -337.24921840429306, -274.77792954444885
 1.7063889070075223E9, -403.0714576244354, -432.7513036727905, -373.6309651732445, -243.66196191310883
 1.7063889070075223E9, -385.83799862861633, -450.94217705726624, -396.60891050100327, -190.52546334266663
 1.7063889070211012E9, -507.66897958517075, -448.0699338912964, -363.57811409235, -265.2037856578827
 1.7063889070211012E9, -452.138945043087, -442.08609396219254, -358.7910421490669, -265.682492852211
 1.7063889070369053E9, -356.15815258026123, -448.30928748846054, -400.91727524995804, -191.00417053699493
 1.7063889070369053E9, -459.5589065551758, -447.5912266969681, -382.4870482683182, -232.17298924922943
 1.7063889070682034E9, -480.8613767027855, -432.7513036727905, -343.9511191248894, -281.00112307071686
 1.7063889070682034E9, -351.84978783130646, -428.44293892383575, -375.0670867562294, -197.22736406326294
 1.7063889070689652E9, -396.8482640981674, -433.469364464283, -385.359291434288, -194.11576730012894
 1.7063889070689652E9, -488.99939900636673, -420.3049166202545, -337.9672791957855, -275.9746975302696
 1.7063889070696678E9, -395.17278891801834, -434.66613245010376, -366.689710855484, -233.8484644293785
 1.7063889070696678E9, -371.4767827987671, -442.08609396219254, -392.7792529463768, -187.17451298236847
 1.7063889070709364E9, -484.4516806602478, -432.7513036727905, -354.00397020578384, -251.32127702236176
 1.7063889070709364E9, -431.55453568696976, -421.74103820323944, -349.69560545682907, -255.15093457698822
 1.7063889070810723E9, -353.0465558171272, -442.3254475593567, -391.8218385577202, -185.02033060789108
 1.7063889070810723E9, -452.37829864025116, -437.29902201890945, -366.689710855484, -222.12013816833496
 1.7063889070960708E9, -478.46784073114395, -428.6822925209999, -344.4298263192177, -276.6927583217621
 1.7063889070960708E9, -376.98191553354263, -447.3518730998039, -393.2579601407051, -215.41823744773865
 1.7063889071121194E9, -499.77031087875366, -431.3151820898056, -345.62659430503845, -277.1714655160904
 1.7063889071121194E9, -392.7792529463768, -433.9480716586113, -365.97165006399155, -236.72070759534836
 1.7063889071125884E9, -373.6309651732445, -443.04350835084915, -398.0450320839882, -194.11576730012894
 1.7063889071125884E9, -489.2387526035309, -434.66613245010376, -361.4239317178726, -260.17736011743546
 1.7063889071263077E9, -442.56480115652084, -429.40035331249237, -360.22716373205185, -267.1186144351959
 1.7063889071263077E9, -358.7910421490669, -451.42088425159454, -406.1830543875694, -192.2009385228157
 1.7063889071426933E9, -464.34597849845886, -447.83058029413223, -382.72640186548233, -236.72070759534836
 1.7063889071426933E9, -486.6058630347252, -437.77772921323776, -352.8072022199631, -286.5062558054924
 1.7063889071431508E9, -365.01423567533493, -439.692557990551, -385.5986450314522, -212.30664068460464
 1.7063889071431508E9, -411.4488335251808, -444.71898353099823, -393.7366673350334, -207.51956874132156
 1.706388907156234E9, -514.1315267086029, -444.00092273950577, -367.1684180498123, -299.4313500523567
 1.706388907156234E9, -408.8159439563751, -448.0699338912964, -388.7102417945862, -256.347702562809
 1.7063889071718023E9, -375.0670867562294, -449.74540907144547, -400.1992144584656, -189.0893417596817
 1.7063889071718023E9, -488.28133821487427, -430.8364748954773, -358.7910421490669, -257.7838241457939
 1.7063889071724837E9, -442.56480115652084, -426.7674637436867, -355.44009178876877, -268.55473601818085
 1.7063889071724837E9, -353.0465558171272, -442.08609396219254, -403.0714576244354, -190.76481693983078
 1.7063889071860864E9, -454.53248101472855, -442.08609396219254, -380.3328658938408, -232.8910500407219
 1.7063889071860864E9, -478.2284871339798, -431.07582849264145, -351.84978783130646, -283.3946590423584
 1.7063889072017615E9, -369.3226004242897, -447.3518730998039, -396.60891050100327, -218.7691878080368
 1.7063889072017615E9, -414.32107669115067, -455.01118820905685, -399.24180006980896, -212.78534787893295
 1.7063889072025168E9, -514.6102339029312, -448.5486410856247, -357.11556696891785, -291.2933277487755
 1.7063889072025168E9, -395.8908497095108, -428.6822925209999, -370.2800148129463, -235.5239396095276
 1.706388907216319E9, -373.15225797891617, -438.4957900047302, -395.4121425151825, -188.13192737102509
 1.706388907216319E9, -483.25491267442703, -430.59712129831314, -351.84978783130646, -253.95416659116745
 1.7063889072321203E9, -435.86290043592453, -422.9378061890602, -343.9511191248894, -260.8954209089279
 1.7063889072321203E9, -343.7117655277252, -439.45320439338684, -393.7366673350334, -188.13192737102509
 1.706388907232616E9, -449.9847626686096, -437.5383756160736, -374.5883795619011, -229.06139248609543
 1.706388907232616E9, -482.2974982857704, -433.9480716586113, -350.41366624832153, -284.59142702817917
 1.7063889072461534E9, -373.3916115760803, -448.0699338912964, -393.49731373786926, -216.37565183639526
 1.7063889072461534E9, -411.4488335251808, -445.19769072532654, -394.4547281265259, -209.9131047129631
 1.7063889072617545E9, -503.360614836216, -435.3841932415962, -353.52526301145554, -286.0275486111641
 1.7063889072617545E9, -404.7469328045845, -445.4370443224907, -376.26385474205017, -242.7045475244522
 1.706388907262572E9, -389.42830258607864, -468.8936968445778, -411.9275407195091, -202.49314320087433
 1.706388907262572E9, -523.7056705951691, -468.65434324741364, -387.27412021160126, -281.240476667881
 1.7063889072763722E9, -477.031719148159, -458.8408457636833, -376.024501144886, -284.11271983385086
 1.7063889072763722E9, -377.93932992219925, -462.1917961239815, -414.5604302883148, -200.33896082639694
 1.7063889072920313E9, -477.51042634248734, -462.43114972114563, -393.49731373786926, -243.90131551027298
 1.7063889072920313E9, -498.33418929576874, -449.027348279953, -362.38134610652924, -292.96880292892456
 1.7063889072927368E9, -371.4767827987671, -448.5486410856247, -389.42830258607864, -211.34922629594803
 1.7063889072927368E9, -403.3108112215996, -439.2138507962227, -385.11993783712387, -196.98801046609879
 1.7063889073062155E9, -500.24901807308197, -431.55453568696976, -345.14788711071014, -276.2140511274338
 1.7063889073062155E9, -412.88495510816574, -445.4370443224907, -372.4341971874237, -242.7045475244522
 1.7063889073217525E9, -388.7102417945862, -452.85700583457947, -407.3798223733902, -198.66348564624786
 1.7063889073217525E9, -499.0522500872612, -441.8467403650284, -367.40777164697647, -270.9482719898224
 1.7063889073227043E9, -457.64407777786255, -441.1286795735359, -368.12583243846893, -270.9482719898224
 1.7063889073227043E9, -373.6309651732445, -463.86727130413055, -412.40624791383743, -202.97185039520264
 1.706388907336066E9, -466.2608072757721, -453.3357130289078, -385.359291434288, -241.02907234430313
 1.706388907336066E9, -489.2387526035309, -441.3680331707001, -359.9878101348877, -291.7720349431038
 1.706388907352105E9, -369.08324682712555, -443.2828619480133, -381.7689874768257, -205.12603276968002
 1.706388907352105E9, -421.5016846060753, -453.3357130289078, -394.69408172369003, -212.30664068460464
 1.7063889073524656E9, -522.5089026093483, -455.7292490005493, -370.2800148129463, -296.08039969205856
 1.7063889073524656E9, -414.5604302883148, -450.94217705726624, -385.83799862861633, -248.20968025922775
 1.7063889073830073E9, -380.09351229667664, -452.6176522374153, -400.1992144584656, -191.96158492565155
 1.7063889073830073E9, -487.0845702290535, -436.580961227417, -360.466517329216, -255.15093457698822
 1.7063889073832655E9, -455.96860259771347, -443.52221554517746, -364.7748820781708, -275.25663673877716
 1.7063889073832655E9, -368.60453963279724, -459.79826015233994, -409.29465115070343, -200.33896082639694
 1.7063889073840168E9, -464.585332095623, -446.63381230831146, -377.93932992219925, -231.93363565206528
 1.7063889073840168E9, -476.7923655509949, -432.9906572699547, -345.14788711071014, -275.9746975302696
 1.7063889073961012E9, -359.26974934339523, -440.41061878204346, -379.13609790802, -197.70607125759125
 1.7063889073961012E9, -426.0494029521942, -455.96860259771347, -384.4018770456314, -198.90283924341202
 1.7063889074119184E9, -517.7218306660652, -443.52221554517746, -356.3975061774254, -283.8733662366867
 1.7063889074119184E9, -407.61917597055435, -447.83058029413223, -378.89674431085587, -241.02907234430313
 1.706388907412578E9, -392.06119215488434, -457.16537058353424, -402.1140432357788, -197.70607125759125
 1.706388907412578E9, -503.1212612390518, -446.15510511398315, -366.45035725831985, -263.5283104777336
 1.7063889074261315E9, -453.8144202232361, -444.4796299338341, -362.6206997036934, -265.92184644937515
 1.7063889074261315E9, -361.9026389122009, -452.85700583457947, -392.53989934921265, -187.65322017669678
 1.7063889074418821E9, -459.5589065551758, -440.41061878204346, -369.56195402145386, -222.35949176549911
 1.7063889074418821E9, -486.84521663188934, -440.6499723792076, -348.73819106817245, -281.7191838622093
 1.706388907442637E9, -368.12583243846893, -447.3518730998039, -391.8218385577202, -210.87051910161972
 1.706388907442637E9, -417.1933198571205, -452.85700583457947, -397.0876176953316, -209.4343975186348
 1.7063889074564419E9, -506.9509187936783, -434.66613245010376, -348.25948387384415, -282.9159518480301
 1.7063889074564419E9, -399.4811536669731, -432.7513036727905, -367.40777164697647, -234.80587881803513
 1.706388907472876E9, -387.0347666144371, -455.48989540338516, -403.7895184159279, -196.74865686893463
 1.706388907472876E9, -492.3503493666649, -436.580961227417, -357.59427416324615, -264.0070176720619
 1.7063889074867675E9, -448.0699338912964, -436.82031482458115, -366.45035725831985, -273.1024543642998
 1.7063889074867675E9, -366.45035725831985, -455.01118820905685, -405.7043471932411, -195.79124248027802
 1.70638890748749E9, -459.5589065551758, -439.93191158771515, -380.57221949100494, -235.76329320669174
 1.70638890748749E9, -487.0845702290535, -437.0596684217453, -359.74845653772354, -292.49009573459625
 1.7063889075017922E9, -375.0670867562294, -451.1815306544304, -398.5237392783165, -218.7691878080368
 1.7063889075017922E9, -422.9378061890602, -456.68666338920593, -402.83210402727127, -217.57241982221603
 1.7063889075024407E9, -514.3708803057671, -441.6073867678642, -361.4239317178726, -296.55910688638687
 1.7063889075024407E9, -414.0817230939865, -447.5912266969681, -374.34902596473694, -242.2258403301239
 1.7063889075163164E9, -375.0670867562294, -441.3680331707001, -393.97602093219757, -185.9777449965477
 1.7063889075163164E9, -511.0199299454689, -452.138945043087, -368.3651860356331, -269.51215040683746
 1.7063889075324218E9, -460.75567454099655, -437.29902201890945, -348.25948387384415, -257.06576335430145
 1.7063889075324218E9, -371.4767827987671, -445.4370443224907, -396.8482640981674, -183.58420902490616
 1.7063889075331376E9, -468.1756360530853, -438.0170828104019, -376.26385474205017, -227.1465637087822
 1.7063889075331376E9, -487.32392382621765, -430.59712129831314, -336.0524504184723, -266.87926083803177
 1.7063889075461428E9, -375.78514754772186, -445.915751516819, -375.0670867562294, -192.44029211997986
 1.7063889075461428E9, -424.134574174881, -451.6602378487587, -390.86442416906357, -195.79124248027802
 1.7063889075618465E9, -518.918598651886, -436.34160763025284, -338.44598639011383, -268.794089615345
 1.7063889075618465E9, -401.6353360414505, -429.8790605068207, -363.0994068980217, -225.94979572296143
 1.706388907562692E9, -364.5355284810066, -420.54427021741867, -382.9657554626465, -174.01006513834
 1.706388907562692E9, -492.11099576950073, -433.9480716586113, -354.48267740011215, -256.347702562809
 1.706388907576142E9, -450.4634698629379, -434.9054860472679, -348.4988374710083, -254.91158097982407
 1.706388907576142E9, -352.32849502563477, -436.580961227417, -387.5134738087654, -180.233258664608
 1.7063889075917573E9, -449.26670187711716, -427.48552453517914, -357.354920566082, -214.46082305908203
 1.7063889075917573E9, -486.1271558403969, -427.48552453517914, -342.7543511390686, -275.25663673877716
 1.7063889075924528E9, -364.5355284810066, -436.34160763025284, -384.16252344846725, -207.99827593564987
 1.7063889075924528E9, -411.9275407195091, -442.804154753685, -387.75282740592957, -209.67375111579895
 1.706388907606112E9, -507.9083331823349, -429.40035331249237, -349.9349590539932, -279.8043550848961
 1.706388907606112E9, -394.2153745293617, -425.5706957578659, -359.74845653772354, -221.16272377967834
 1.7063889076218104E9, -360.70587092638016, -423.8952205777168, -378.41803711652756, -168.50493240356445
 1.7063889076218104E9, -477.98913353681564, -414.32107669115067, -340.36081516742706, -242.7045475244522
 1.706388907622535E9, -441.8467403650284, -424.134574174881, -345.8659479022026, -257.54447054862976
 1.706388907622535E9, -364.5355284810066, -450.4634698629379, -398.5237392783165, -187.17451298236847
 1.7063889076363444E9, -454.7718346118927, -436.82031482458115, -373.3916115760803, -228.82203888893127
 1.7063889076363444E9, -480.62202310562134, -424.85263496637344, -341.55758315324783, -274.5385759472847
 1.7063889076525252E9, -375.5457939505577, -446.3944587111473, -390.38571697473526, -207.2802151441574
 1.7063889076525252E9, -419.8262094259262, -447.3518730998039, -393.01860654354095, -206.3228007555008
 1.7063889076526124E9, -505.2754436135292, -428.6822925209999, -346.10530149936676, -275.017283141613
 1.7063889076526124E9, -404.50757920742035, -443.2828619480133, -376.024501144886, -237.91747558116913
 1.7063889076661437E9, -397.0876176953316, -466.2608072757721, -413.1243087053299, -199.38154643774033
 1.7063889076661437E9, -510.5412227511406, -453.8144202232361, -370.2800148129463, -268.55473601818085
 1.7063889076821475E9, -455.250541806221, -442.08609396219254, -355.6794453859329, -263.5283104777336
 1.7063889076821475E9, -362.1419925093651, -451.1815306544304, -399.24180006980896, -182.62679463624954
 1.7063889076969807E9, -474.6381831765175, -448.5486410856247, -382.00834107398987, -234.08781802654266
 1.7063889076969807E9, -492.3503493666649, -439.2138507962227, -349.4562518596649, -278.36823350191116
 1.7063889076975665E9, -364.0568212866783, -439.2138507962227, -388.94959539175034, -204.64732557535172
 1.7063889076975665E9, -413.36366230249405, -441.3680331707001, -385.83799862861633, -197.9454248547554
 1.7063889077116385E9, -509.583808362484, -438.25643640756607, -340.83952236175537, -271.905686378479
 1.7063889077116385E9, -409.77335834503174, -438.7351436018944, -370.5193684101105, -232.17298924922943
 1.7063889077271693E9, -387.27412021160126, -454.53248101472855, -403.55016481876373, -188.84998816251755
 1.7063889077271693E9, -499.29160368442535, -441.1286795735359, -359.26974934339523, -262.0921888947487
 1.7063889077438655E9, -442.3254475593567, -431.3151820898056, -348.9775446653366, -257.54447054862976
 1.7063889077438655E9, -353.52526301145554, -440.41061878204346, -399.24180006980896, -185.25968420505524
 1.706388907744547E9, -456.9260169863701, -431.55453568696976, -372.4341971874237, -226.42850291728973
 1.706388907744547E9, -470.3298184275627, -423.4165133833885, -337.24921840429306, -267.3579680323601
 1.70638890774537E9, -370.7587220072746, -444.4796299338341, -387.27412021160126, -198.18477845191956
 1.70638890774537E9, -414.32107669115067, -441.8467403650284, -387.5134738087654, -196.74865686893463
 1.7063889077561052E9, -504.07867562770844, -434.4267788529396, -350.89237344264984, -275.73534393310547
 1.7063889077561052E9, -397.80567848682404, -435.3841932415962, -371.9554899930954, -224.9923813343048
 1.7063889077717764E9, -391.3431313633919, -455.96860259771347, -399.24180006980896, -187.17451298236847
 1.7063889077717764E9, -502.6425540447235, -444.4796299338341, -358.55168855190277, -256.58705615997314
 1.7063889077724605E9, -453.0963594317436, -440.41061878204346, -360.9452245235443, -258.2625313401222
 1.7063889077724605E9, -354.96138459444046, -444.71898353099823, -398.76309287548065, -185.9777449965477
 1.7063889077860975E9, -454.05377382040024, -444.9583371281624, -371.9554899930954, -226.6678565144539
 1.7063889077860975E9, -487.5632774233818, -436.82031482458115, -348.02013027668, -274.77792954444885
 1.7063889078020124E9, -369.56195402145386, -447.11251950263977, -390.86442416906357, -210.15245831012726
 1.7063889078020124E9, -406.4224079847336, -435.6235468387604, -374.5883795619011, -192.44029211997986
 1.7063889078026636E9, -495.9406533241272, -423.17715978622437, -338.44598639011383, -269.99085760116577
 1.7063889078026636E9, -394.69408172369003, -435.6235468387604, -366.689710855484, -228.1039780974388
 1.7063889078324568E9, -377.93932992219925, -444.4796299338341, -395.4121425151825, -189.32869535684586
 1.7063889078324568E9, -498.5735428929329, -433.469364464283, -356.15815258026123, -257.3051169514656
 1.7063889078331256E9, -449.9847626686096, -433.469364464283, -356.63685977458954, -259.459299325943
 1.7063889078331256E9, -365.2535892724991, -454.7718346118927, -405.2256399989128, -190.28610974550247
 1.7063889078339717E9, -474.39882957935333, -457.8834313750267, -383.20510905981064, -239.35359716415405
 1.7063889078339717E9, -492.3503493666649, -437.77772921323776, -347.5414230823517, -273.5811615586281
 1.7063889078461275E9, -378.1786835193634, -446.3944587111473, -390.38571697473526, -210.3918119072914
 1.7063889078461275E9, -422.9378061890602, -452.37829864025116, -392.06119215488434, -211.34922629594803
 1.7063889078617728E9, -504.07867562770844, -434.9054860472679, -346.3446550965309, -276.93211191892624
 1.7063889078617728E9, -387.27412021160126, -424.37392777204514, -362.1419925093651, -227.38591730594635
 1.7063889078624656E9, -386.0773522257805, -451.42088425159454, -399.72050726413727, -189.56804895401
 1.7063889078624656E9, -511.4986371397972, -448.78799468278885, -362.38134610652924, -265.44313925504684
 1.7063889078762777E9, -459.79826015233994, -439.93191158771515, -369.3226004242897, -270.2302111983299
 1.7063889078762777E9, -370.5193684101105, -459.3195529580116, -403.7895184159279, -191.2435241341591
 1.706388907892034E9, -472.72335439920425, -452.138945043087, -374.5883795619011, -235.5239396095276
 1.706388907892034E9, -488.7600454092026, -440.1712651848793, -356.63685977458954, -286.9849629998207
 1.7063889078924751E9, -376.98191553354263, -453.0963594317436, -394.9334353208542, -213.26405507326126
 1.7063889078924751E9, -436.82031482458115, -455.48989540338516, -394.69408172369003, -212.30664068460464
 1.7063889079062133E9, -524.9024385809898, -453.57506662607193, -366.45035725831985, -299.19199645519257
 1.7063889079062133E9, -401.1566288471222, -436.34160763025284, -373.3916115760803, -231.69428205490112
 1.7063889079388409E9, -383.9231698513031, -446.8731659054756, -402.83210402727127, -186.93515938520432
 1.7063889079388409E9, -497.85548210144043, -435.14483964443207, -356.8762133717537, -250.36386263370514
 1.706388907939551E9, -444.00092273950577, -431.3151820898056, -352.5678486227989, -255.62964177131653
 1.706388907939551E9, -356.3975061774254, -437.77772921323776, -386.31670582294464, -169.22299319505692
 1.7063889079402907E9, -459.79826015233994, -439.93191158771515, -365.49294286966324, -217.8117734193802
 1.7063889079402907E9, -466.7395144701004, -409.77335834503174, -324.32412415742874, -250.6032162308693
 1.7063889079410093E9, -349.69560545682907, -422.21974539756775, -373.6309651732445, -184.54162341356277
 1.7063889079410093E9, -399.0024464726448, -427.96423172950745, -371.23742920160294, -177.83972269296646
 1.7063889079512663E9, -501.44578605890274, -421.9803918004036, -337.24921840429306, -269.2727968096733
 1.7063889079512663E9, -404.2682256102562, -434.18742525577545, -367.1684180498123, -225.94979572296143
 1.7063889079660742E9, -378.6573907136917, -440.6499723792076, -390.86442416906357, -176.16424751281738
 1.7063889079660742E9, -494.02582454681396, -426.5281101465225, -347.5414230823517, -243.18325471878052
 1.7063889079817824E9, -445.915751516819, -433.23001086711884, -356.3975061774254, -259.9380065202713
 1.7063889079817824E9, -365.97165006399155, -449.74540907144547, -394.4547281265259, -181.43002665042877
 1.7063889079825072E9, -462.90985691547394, -444.71898353099823, -370.04066121578217, -226.42850291728973
 1.7063889079825072E9, -475.83495116233826, -423.4165133833885, -334.61632883548737, -268.3153824210167
 1.7063889079960952E9, -377.2212691307068, -448.5486410856247, -390.86442416906357, -202.73249679803848
 1.7063889079960952E9, -432.2725964784622, -458.12278497219086, -399.24180006980896, -211.58857989311218
 1.7063889080124147E9, -504.55738282203674, -428.6822925209999, -336.5311576128006, -269.7515040040016
 1.7063889080124147E9, -389.6676561832428, -425.81004935503006, -350.41366624832153, -213.26405507326126
 1.7063889080442665E9, -351.131727039814, -422.9378061890602, -368.12583243846893, -157.01595973968506
 1.7063889080442665E9, -484.21232706308365, -427.7248781323433, -345.62659430503845, -243.90131551027298
 1.706388908044989E9, -438.4957900047302, -422.4590989947319, -348.9775446653366, -253.7148129940033
 1.706388908044989E9, -355.44009178876877, -436.82031482458115, -389.1889489889145, -174.72812592983246
 1.7063889080457475E9, -459.5589065551758, -437.5383756160736, -366.92906445264816, -221.64143097400665
 1.7063889080457475E9, -482.2974982857704, -432.9906572699547, -343.2330583333969, -277.41081911325455
 1.7063889080567904E9, -370.9980756044388, -444.00092273950577, -386.0773522257805, -205.12603276968002
 1.7063889080567904E9, -421.9803918004036, -448.5486410856247, -392.06119215488434, -206.08344715833664
 1.7063889080575457E9, -498.33418929576874, -427.246170938015, -344.1904727220535, -276.45340472459793
 1.7063889080575457E9, -385.83799862861633, -424.6132813692093, -359.74845653772354, -222.35949176549911
 1.7063889080717905E9, -374.34902596473694, -438.97449719905853, -387.9921810030937, -178.07907629013062
 1.7063889080717905E9, -485.8878022432327, -427.96423172950745, -348.02013027668, -252.27869141101837
 1.7063889080725138E9, -434.9054860472679, -421.26233100891113, -344.4298263192177, -247.9703266620636
 1.7063889080725138E9, -352.0891414284706, -436.1022540330887, -387.5134738087654, -174.24941873550415
 1.7063889080862713E9, -461.23438173532486, -439.93191158771515, -372.912904381752, -230.7368676662445
 1.7063889080862713E9, -481.57943749427795, -435.86290043592453, -347.30206948518753, -279.0862942934036
 1.7063889081179445E9, -374.1096723675728, -447.11251950263977, -388.470888197422, -204.1686183810234
 1.7063889081179445E9, -419.10814863443375, -449.5060554742813, -395.65149611234665, -206.8015079498291
 1.7063889081182837E9, -411.20947992801666, -449.5060554742813, -382.9657554626465, -244.61937630176544
 1.7063889081182837E9, -386.31670582294464, -453.3357130289078, -402.83210402727127, -193.39770650863647
 1.7063889081190464E9, -513.6528195142746, -450.94217705726624, -370.9980756044388, -271.905686378479
 1.7063889081190464E9, -465.3033928871155, -449.5060554742813, -374.1096723675728, -275.017283141613
 1.7063889081311107E9, -357.354920566082, -446.8731659054756, -402.5927504301071, -185.4990378022194
 1.7063889081311107E9, -455.96860259771347, -434.4267788529396, -364.7748820781708, -221.16272377967834
 1.7063889081467805E9, -471.5265864133835, -424.6132813692093, -336.5311576128006, -270.4695647954941
 1.7063889081467805E9, -360.22716373205185, -434.18742525577545, -382.9657554626465, -201.29637521505356
 1.7063889081475177E9, -414.799783885479, -444.71898353099823, -389.90700978040695, -203.92926478385925
 1.7063889081475177E9, -512.9347587227821, -440.88932597637177, -352.0891414284706, -286.9849629998207
 1.7063889081612048E9, -402.1140432357788, -444.00092273950577, -386.31670582294464, -243.66196191310883
 1.7063889081612048E9, -401.39598244428635, -467.45757526159286, -422.69845259189606, -214.93953025341034
 1.7063889081772091E9, -525.8598529696465, -455.7292490005493, -377.93932992219925, -281.47983026504517
 1.7063889081772091E9, -469.8511112332344, -449.9847626686096, -370.7587220072746, -271.4269791841507
 1.7063889081917968E9, -378.41803711652756, -455.96860259771347, -408.3372367620468, -190.76481693983078
 1.7063889081917968E9, -477.031719148159, -448.78799468278885, -379.3754515051842, -232.65169644355774
 1.7063889081925085E9, -494.2651781439781, -432.9906572699547, -338.44598639011383, -257.54447054862976
 1.7063889081925085E9, -386.5560594201088, -450.4634698629379, -384.8805842399597, -187.89257377386093
 1.7063889082067797E9, -443.04350835084915, -451.6602378487587, -385.5986450314522, -188.13192737102509
 1.7063889082067797E9, -520.1153666377068, -439.692557990551, -341.0788759589195, -260.8954209089279
 1.7063889082074857E9, -410.4914191365242, -434.66613245010376, -360.9452245235443, -211.58857989311218
 1.7063889082074857E9, -402.83210402727127, -446.8731659054756, -389.6676561832428, -170.65911477804184
 1.7063889082213511E9, -510.0625155568123, -436.82031482458115, -349.9349590539932, -245.3374370932579
 1.7063889082213511E9, -458.12278497219086, -437.29902201890945, -356.8762133717537, -245.57679069042206
 1.7063889082371964E9, -386.0773522257805, -459.3195529580116, -403.7895184159279, -182.8661482334137
 1.7063889082371964E9, -488.0419846177101, -451.42088425159454, -382.247694671154, -231.21557486057281
 1.7063889082375455E9, -508.8657475709915, -442.08609396219254, -353.0465558171272, -278.36823350191116
 1.7063889082375455E9, -394.9334353208542, -455.96860259771347, -398.28438568115234, -202.73249679803848
 1.706388908251072E9, -447.5912266969681, -458.8408457636833, -390.1463633775711, -197.4667176604271
 1.706388908251072E9, -511.9773443341255, -429.40035331249237, -332.2227928638458, -255.39028817415237
 1.7063889082991645E9, -409.29465115070343, -433.70871806144714, -362.6206997036934, -215.41823744773865
 1.7063889082991645E9, -389.90700978040695, -440.1712651848793, -392.53989934921265, -176.6429547071457
 1.706388908299656E9, -508.14768677949905, -438.25643640756607, -352.32849502563477, -252.03933781385422
 1.706388908299656E9, -453.57506662607193, -434.4267788529396, -353.7646166086197, -252.51804500818253
 1.706388908300681E9, -376.98191553354263, -452.138945043087, -398.28438568115234, -181.19067305326462
 1.706388908300681E9, -487.5632774233818, -455.96860259771347, -376.26385474205017, -230.2581604719162
 1.7063889083013136E9, -504.07867562770844, -441.1286795735359, -351.84978783130646, -276.45340472459793
 1.7063889083013136E9, -385.11993783712387, -450.94217705726624, -391.1037777662277, -204.40797197818756
 1.7063889083117824E9, -435.6235468387604, -456.9260169863701, -397.80567848682404, -207.51956874132156
 1.7063889083117824E9, -518.2005378603935, -439.45320439338684, -354.96138459444046, -281.47983026504517
 1.7063889083124862E9, -402.83210402727127, -433.9480716586113, -364.29617488384247, -220.20530939102173
 1.7063889083124862E9, -376.024501144886, -433.23001086711884, -389.1889489889145, -173.77071154117584
 1.7063889083267603E9, -506.47221159935, -442.3254475593567, -349.21689826250076, -249.40644824504852
 1.7063889083267603E9, -451.6602378487587, -432.7513036727905, -347.30206948518753, -246.05549788475037
 1.706388908327525E9, -366.45035725831985, -449.027348279953, -399.0024464726448, -181.43002665042877
 1.706388908327525E9, -465.7821000814438, -439.93191158771515, -369.801307618618, -225.23173493146896
 1.7063889083415585E9, -481.3400838971138, -431.3151820898056, -345.62659430503845, -268.3153824210167
 1.7063889083415585E9, -376.7425619363785, -450.94217705726624, -391.8218385577202, -204.64732557535172
 1.7063889083570223E9, -434.4267788529396, -455.48989540338516, -395.8908497095108, -205.12603276968002
 1.7063889083570223E9, -515.807001888752, -434.9054860472679, -348.73819106817245, -277.6501727104187
 1.7063889083575442E9, -389.6676561832428, -426.7674637436867, -361.18457812070847, -220.44466298818588
 1.7063889083575442E9, -389.1889489889145, -454.05377382040024, -392.53989934921265, -178.79713708162308
 1.7063889083710842E9, -513.1741123199463, -447.3518730998039, -364.0568212866783, -261.6134817004204
 1.7063889083710842E9, -451.1815306544304, -440.1712651848793, -356.8762133717537, -256.58705615997314
 1.7063889083875296E9, -365.97165006399155, -455.250541806221, -402.35339683294296, -182.3874410390854
 1.7063889083875296E9, -488.0419846177101, -466.50016087293625, -390.38571697473526, -242.46519392728806
 1.70638890838819E9, -495.70129972696304, -444.9583371281624, -360.22716373205185, -287.70302379131317
 1.70638890838819E9, -363.57811409235, -445.4370443224907, -393.2579601407051, -203.45055758953094
 1.7063889084014866E9, -421.74103820323944, -454.2931274175644, -397.0876176953316, -211.10987269878387
 1.7063889084014866E9, -498.5735428929329, -438.97449719905853, -350.89237344264984, -286.5062558054924
 1.706388908416823E9, -390.86442416906357, -438.7351436018944, -375.30644035339355, -241.50777953863144
 1.706388908416823E9, -377.93932992219925, -449.74540907144547, -401.39598244428635, -197.4667176604271
 1.7063889084176552E9, -486.84521663188934, -445.67639791965485, -369.801307618618, -279.8043550848961
 1.7063889084176552E9, -429.1609997153282, -433.23001086711884, -368.8438932299614, -280.04370868206024
 1.7063889084475844E9, -344.4298263192177, -447.83058029413223, -406.66176158189774, -200.5783144235611
 1.7063889084475844E9, -442.3254475593567, -434.66613245010376, -364.7748820781708, -234.32717162370682
 1.7063889084485056E9, -470.3298184275627, -440.6499723792076, -364.0568212866783, -295.60169249773026
 1.7063889084485056E9, -355.6794453859329, -444.4796299338341, -394.9334353208542, -222.12013816833496
 1.7063889084490285E9, -399.4811536669731, -438.97449719905853, -391.3431313633919, -214.93953025341034
 1.7063889084490285E9, -475.1168903708458, -421.74103820323944, -346.58400869369507, -287.22431659698486
 1.7063889084610496E9, -373.15225797891617, -432.2725964784622, -377.6999763250351, -245.3374370932579
 1.7063889084610496E9, -382.4870482683182, -457.64407777786255, -406.9011151790619, -203.2112039923668
 1.70638890847698E9, -498.0948356986046, -448.30928748846054, -368.8438932299614, -281.47983026504517
 1.70638890847698E9, -441.1286795735359, -445.67639791965485, -373.3916115760803, -277.41081911325455
 1.706388908477554E9, -359.9878101348877, -463.38856410980225, -416.47525906562805, -207.2802151441574
 1.706388908477554E9, -456.4473097920418, -448.30928748846054, -384.8805842399597, -245.8161442875862
 1.706388908491034E9, -470.3298184275627, -436.1022540330887, -350.6530198454857, -290.8146205544472
 1.706388908491034E9, -362.1419925093651, -452.85700583457947, -399.9598608613014, -220.20530939102173
 1.706388908507177E9, -418.62944144010544, -454.53248101472855, -405.7043471932411, -221.64143097400665
 1.706388908507177E9, -500.96707886457443, -437.77772921323776, -358.3123349547386, -295.12298530340195
 1.706388908507644E9, -389.1889489889145, -439.692557990551, -378.1786835193634, -241.26842594146729
 1.706388908507644E9, -368.8438932299614, -449.9847626686096, -401.87468963861465, -197.9454248547554
 1.7063889085210395E9, -492.58970296382904, -444.2402763366699, -363.57811409235, -269.51215040683746
 1.7063889085210395E9, -434.66613245010376, -438.0170828104019, -364.29617488384247, -264.2463712692261
 1.70638890853683E9, -346.3446550965309, -448.78799468278885, -404.7469328045845, -196.26994967460632
 1.70638890853683E9, -445.915751516819, -437.5383756160736, -367.6471252441406, -232.8910500407219
 1.7063889085374973E9, -468.8936968445778, -426.7674637436867, -343.47241193056107, -280.52241587638855
 1.7063889085374973E9, -355.44009178876877, -440.1712651848793, -394.2153745293617, -208.47698312997818
 1.7063889085513065E9, -404.7469328045845, -442.804154753685, -401.39598244428635, -219.96595579385757
 1.7063889085513065E9, -498.0948356986046, -439.93191158771515, -357.59427416324615, -292.96880292892456
 1.7063889085667655E9, -398.28438568115234, -449.5060554742813, -386.0773522257805, -247.73097306489944
 1.7063889085667655E9, -386.79541301727295, -455.96860259771347, -403.7895184159279, -200.33896082639694
 1.706388908567496E9, -494.9832389354706, -440.1712651848793, -363.81746768951416, -269.2727968096733
 1.706388908567496E9, -427.00681734085083, -427.246170938015, -351.84978783130646, -258.02317774295807
 1.7063889085813847E9, -343.47241193056107, -442.804154753685, -397.3269712924957, -185.9777449965477
 1.7063889085813847E9, -458.60149216651917, -445.67639791965485, -378.6573907136917, -241.02907234430313
 1.7063889085970376E9, -475.1168903708458, -435.86290043592453, -349.69560545682907, -278.36823350191116
 1.7063889085970376E9, -359.26974934339523, -444.4796299338341, -394.4547281265259, -210.87051910161972
 1.70638890859756E9, -419.10814863443375, -451.1815306544304, -389.90700978040695, -210.87051910161972
 1.70638890859756E9, -502.88190764188766, -436.580961227417, -350.6530198454857, -286.5062558054924
 1.7063889086110785E9, -385.83799862861633, -440.88932597637177, -375.0670867562294, -232.17298924922943
 1.7063889086110785E9, -388.470888197422, -460.5163209438324, -410.4914191365242, -202.25378960371017
 1.70638890862682E9, -504.7967364192009, -453.8144202232361, -367.40777164697647, -274.77792954444885
 1.70638890862682E9, -448.30928748846054, -448.0699338912964, -369.801307618618, -269.03344321250916
 1.7063889086274881E9, -347.0627158880234, -448.78799468278885, -402.1140432357788, -185.4990378022194
 1.7063889086274881E9, -456.9260169863701, -443.04350835084915, -368.12583243846893, -226.42850291728973
 1.7063889086411755E9, -475.35624396800995, -436.82031482458115, -354.96138459444046, -282.9159518480301
 1.7063889086411755E9, -363.81746768951416, -452.85700583457947, -393.97602093219757, -210.15245831012726
 1.7063889086568336E9, -412.88495510816574, -451.42088425159454, -395.4121425151825, -206.8015079498291
 1.7063889086568336E9, -495.9406533241272, -436.82031482458115, -350.6530198454857, -283.3946590423584
 1.706388908657527E9, -387.75282740592957, -435.14483964443207, -367.40777164697647, -230.2581604719162
 1.706388908657527E9, -382.4870482683182, -451.6602378487587, -396.3695569038391, -190.76481693983078
 1.706388908671474E9, -505.99350440502167, -445.67639791965485, -359.9878101348877, -263.76766407489777
 1.706388908671474E9, -449.027348279953, -448.78799468278885, -369.08324682712555, -271.18762558698654
 1.706388908687136E9, -350.1743126511574, -459.5589065551758, -412.40624791383743, -200.33896082639694
 1.706388908687136E9, -448.78799468278885, -442.56480115652084, -363.33876049518585, -225.47108852863312
 1.7063889086875648E9, -454.05377382040024, -420.3049166202545, -340.1214615702629, -275.4959903359413
 1.7063889086875648E9, -344.1904727220535, -438.25643640756607, -396.3695569038391, -214.46082305908203
 1.7063889087012036E9, -392.3005457520485, -441.6073867678642, -386.79541301727295, -213.0247014760971
 1.7063889087012036E9, -478.2284871339798, -431.07582849264145, -343.7117655277252, -285.5488414168358
 1.7063889087165408E9, -369.801307618618, -435.14483964443207, -370.2800148129463, -238.6355363726616
 1.7063889087165408E9, -359.26974934339523, -442.804154753685, -393.7366673350334, -198.90283924341202
 1.706388908731818E9, -471.0478792190552, -431.55453568696976, -353.52526301145554, -271.905686378479
 1.706388908731818E9, -412.88495510816574, -429.6397069096565, -355.6794453859329, -270.70891839265823
 1.7063889087325554E9, -336.29180401563644, -446.8731659054756, -406.66176158189774, -202.49314320087433
 1.7063889087325554E9, -442.804154753685, -438.7351436018944, -374.34902596473694, -247.01291227340698
 1.7063889087633593E9, -457.8834313750267, -427.246170938015, -342.2756439447403, -284.59142702817917
 1.7063889087633593E9, -347.30206948518753, -442.56480115652084, -384.4018770456314, -211.34922629594803
 1.7063889087639775E9, -399.24180006980896, -443.04350835084915, -389.1889489889145, -215.1788838505745
 1.7063889087639775E9, -498.0948356986046, -442.804154753685, -355.2007381916046, -298.71328926086426
 1.7063889087647712E9, -391.58248496055603, -449.9847626686096, -383.68381625413895, -252.99675220251083
 1.7063889087647712E9, -376.5032083392143, -457.4047241806984, -407.61917597055435, -204.88667917251587
 1.7063889087655213E9, -484.4516806602478, -439.2138507962227, -352.5678486227989, -267.1186144351959
 1.7063889087655213E9, -416.2359054684639, -423.17715978622437, -346.3446550965309, -262.570896089077
 1.7063889087761073E9, -335.3343896269798, -441.6073867678642, -393.49731373786926, -191.2435241341591
 1.7063889087761073E9, -431.3151820898056, -429.40035331249237, -358.3123349547386, -231.45492845773697
 1.706388908791564E9, -447.11251950263977, -416.95396625995636, -336.0524504184723, -275.25663673877716
 1.706388908791564E9, -346.10530149936676, -442.804154753685, -390.38571697473526, -214.70017665624619
 1.7063889088067572E9, -411.9275407195091, -452.6176522374153, -392.06119215488434, -215.89694464206696
 1.7063889088067572E9, -488.7600454092026, -432.9906572699547, -347.0627158880234, -290.0965597629547
 1.7063889088075113E9, -380.3328658938408, -442.3254475593567, -379.6148051023483, -247.73097306489944
 1.7063889088075113E9, -368.12583243846893, -447.83058029413223, -404.50757920742035, -205.36538636684418
 1.706388908821257E9, -473.68076878786087, -436.1022540330887, -354.48267740011215, -272.3843935728073
 1.706388908821257E9, -412.6456015110016, -428.44293892383575, -362.86005330085754, -272.14503997564316
 1.7063889088365064E9, -337.9672791957855, -443.04350835084915, -402.35339683294296, -194.11576730012894
 1.7063889088365064E9, -442.804154753685, -436.34160763025284, -369.3226004242897, -241.02907234430313
 1.706388908851957E9, -458.12278497219086, -425.33134216070175, -343.2330583333969, -279.8043550848961
 1.706388908851957E9, -341.796936750412, -429.40035331249237, -379.13609790802, -202.97185039520264
 1.7063889088526137E9, -392.3005457520485, -429.6397069096565, -381.05092668533325, -201.5357288122177
 1.7063889088526137E9, -477.98913353681564, -426.0494029521942, -342.2756439447403, -278.84694069623947
 1.706388908867096E9, -375.5457939505577, -431.7938892841339, -367.8864788413048, -237.91747558116913
 1.706388908867096E9, -368.12583243846893, -443.2828619480133, -401.87468963861465, -200.81766802072525
 1.7063889088675573E9, -482.05814468860626, -433.23001086711884, -361.9026389122009, -271.905686378479
 1.7063889088675573E9, -414.5604302883148, -427.00681734085083, -356.15815258026123, -261.6134817004204
 1.706388908881071E9, -341.796936750412, -443.2828619480133, -394.4547281265259, -190.28610974550247
 1.706388908881071E9, -455.01118820905685, -440.88932597637177, -371.71613639593124, -239.1142435669899
 1.7063889088970473E9, -456.2079561948776, -427.00681734085083, -344.4298263192177, -281.47983026504517
 1.7063889088970473E9, -338.92469358444214, -433.23001086711884, -382.247694671154, -204.40797197818756
 1.7063889088975067E9, -394.9334353208542, -437.77772921323776, -381.7689874768257, -201.29637521505356
 1.7063889088975067E9, -483.4942662715912, -426.7674637436867, -339.40340077877045, -281.7191838622093
 1.7063889089111094E9, -373.6309651732445, -429.8790605068207, -373.3916115760803, -233.60911083221436
 1.7063889089111094E9, -365.7322964668274, -442.08609396219254, -394.4547281265259, -188.37128096818924
 1.7063889089269605E9, -480.8613767027855, -436.580961227417, -350.41366624832153, -266.87926083803177
 1.7063889089269605E9, -419.3475022315979, -428.6822925209999, -353.0465558171272, -258.74123853445053
 1.7063889089274805E9, -334.8556824326515, -443.2828619480133, -396.8482640981674, -188.37128096818924
 1.7063889089274805E9, -449.74540907144547, -440.6499723792076, -378.6573907136917, -239.1142435669899
 1.706388908941387E9, -465.54274648427963, -432.2725964784622, -348.9775446653366, -281.00112307071686
 1.706388908941387E9, -350.41366624832153, -442.08609396219254, -387.75282740592957, -205.84409356117249
 1.706388908956845E9, -403.55016481876373, -439.2138507962227, -386.0773522257805, -206.08344715833664
 1.706388908956845E9, -488.99939900636673, -429.1609997153282, -344.1904727220535, -284.11271983385086
 1.7063889089575639E9, -374.5883795619011, -429.1609997153282, -370.04066121578217, -237.43876838684082
 1.7063889089575639E9, -386.79541301727295, -462.6705033183098, -415.7571982741356, -210.15245831012726
 1.706388908971105E9, -497.6161285042763, -443.52221554517746, -357.354920566082, -265.44313925504684
 1.706388908971105E9, -423.6558669805527, -421.26233100891113, -339.88210797309875, -241.02907234430313
 1.7063889089870813E9, -352.0891414284706, -445.19769072532654, -392.06119215488434, -175.68554031848907
 1.7063889089870813E9, -482.2974982857704, -454.05377382040024, -367.6471252441406, -225.47108852863312
 1.706388908987562E9, -505.51479721069336, -447.3518730998039, -355.9187989830971, -274.77792954444885
 1.706388908987562E9, -387.75282740592957, -453.3357130289078, -381.7689874768257, -182.8661482334137
 1.7063889090174642E9, -444.71898353099823, -456.68666338920593, -378.89674431085587, -189.0893417596817
 1.7063889090174642E9, -522.7482562065125, -435.86290043592453, -336.0524504184723, -259.9380065202713
 1.706388909018192E9, -415.7571982741356, -441.3680331707001, -368.3651860356331, -209.19504392147064
 1.706388909018192E9, -394.9334353208542, -446.15510511398315, -386.5560594201088, -166.82945722341537
 1.7063889090189154E9, -519.1579522490501, -449.5060554742813, -355.2007381916046, -246.77355867624283
 1.7063889090189154E9, -472.9627079963684, -451.6602378487587, -359.5091029405594, -249.88515543937683
 1.7063889090490623E9, -386.31670582294464, -462.1917961239815, -402.1140432357788, -172.81329715251923
 1.7063889090490623E9, -496.18000692129135, -452.85700583457947, -375.0670867562294, -223.07755255699158
 1.706388909049647E9, -512.2166979312897, -450.4634698629379, -352.32849502563477, -269.7515040040016
 1.706388909049647E9, -388.2315346002579, -453.8144202232361, -391.8218385577202, -189.56804895401
 1.7063889090504832E9, -442.804154753685, -457.16537058353424, -389.42830258607864, -194.59447449445724
 1.7063889090504832E9, -522.5089026093483, -438.97449719905853, -338.2066327929497, -260.8954209089279
 1.7063889090611088E9, -412.1668943166733, -441.8467403650284, -373.3916115760803, -217.8117734193802
 1.7063889090611088E9, -403.0714576244354, -457.8834313750267, -399.0024464726448, -180.47261226177216
 1.7063889090769854E9, -528.9714497327805, -456.68666338920593, -365.97165006399155, -263.76766407489777
 1.7063889090769854E9, -469.13305044174194, -454.2931274175644, -365.01423567533493, -255.15093457698822
 1.7063889090775335E9, -378.41803711652756, -460.0376137495041, -402.1140432357788, -179.27584427595139
 1.7063889090775335E9, -469.13305044174194, -435.3841932415962, -366.689710855484, -216.37565183639526
 1.7063889090912611E9, -484.9303878545761, -429.8790605068207, -343.7117655277252, -264.2463712692261
 1.7063889090912611E9, -378.1786835193634, -447.11251950263977, -389.6676561832428, -196.98801046609879
 1.7063889091062744E9, -436.34160763025284, -455.7292490005493, -392.53989934921265, -201.5357288122177
 1.7063889091062744E9, -517.9611842632294, -436.82031482458115, -341.3182295560837, -270.2302111983299
 1.7063889091218581E9, -402.35339683294296, -458.12278497219086, -405.7043471932411, -189.56804895401
 1.7063889091218581E9, -510.5412227511406, -441.6073867678642, -358.3123349547386, -263.28895688056946
 1.7063889091224985E9, -445.19769072532654, -428.92164611816406, -354.243323802948, -250.84256982803345
 1.7063889091224985E9, -364.29617488384247, -438.97449719905853, -392.53989934921265, -175.20683312416077
 1.7063889091361303E9, -468.65434324741364, -441.3680331707001, -362.86005330085754, -217.33306622505188
 1.7063889091361303E9, -489.47810620069504, -437.77772921323776, -344.66917991638184, -264.7250784635544
 1.7063889091526268E9, -381.2902802824974, -451.89959144592285, -392.7792529463768, -198.4241320490837
 1.7063889091526268E9, -437.29902201890945, -456.2079561948776, -390.86442416906357, -206.08344715833664
 1.7063889091667836E9, -513.4134659171104, -432.03324288129807, -341.796936750412, -269.2727968096733
 1.7063889091667836E9, -394.2153745293617, -432.03324288129807, -365.01423567533493, -215.89694464206696
 1.7063889091674857E9, -390.86442416906357, -446.3944587111473, -390.1463633775711, -176.6429547071457
 1.7063889091674857E9, -511.9773443341255, -445.915751516819, -359.0303957462311, -261.85283529758453
 1.7063889091820376E9, -449.5060554742813, -441.8467403650284, -361.6632853150368, -254.43287378549576
 1.7063889091820376E9, -366.92906445264816, -454.53248101472855, -398.28438568115234, -179.51519787311554
 1.7063889091826072E9, -480.8613767027855, -451.6602378487587, -381.52963387966156, -234.32717162370682
 1.7063889091826072E9, -488.0419846177101, -433.469364464283, -349.4562518596649, -270.4695647954941
 1.7063889091961465E9, -364.5355284810066, -437.5383756160736, -386.0773522257805, -191.48287773132324
 1.7063889091961465E9, -421.5016846060753, -439.692557990551, -385.5986450314522, -196.50930327177048
 1.706388909211762E9, -512.695405125618, -436.1022540330887, -346.58400869369507, -275.017283141613
 1.706388909211762E9, -398.76309287548065, -441.1286795735359, -375.78514754772186, -227.38591730594635
 1.7063889092124505E9, -387.0347666144371, -446.15510511398315, -386.79541301727295, -175.20683312416077
 1.7063889092124505E9, -510.30186915397644, -446.3944587111473, -357.8336277604103, -258.9805921316147
 1.7063889092261157E9, -450.4634698629379, -446.3944587111473, -369.08324682712555, -264.96443206071854
 1.7063889092261157E9, -362.38134610652924, -450.7028234601021, -399.0024464726448, -183.10550183057785
 1.706388909241862E9, -465.0640392899513, -440.88932597637177, -375.0670867562294, -236.9600611925125
 1.706388909241862E9, -476.0743047595024, -438.7351436018944, -353.0465558171272, -280.7617694735527
 1.70638890924251E9, -359.5091029405594, -446.3944587111473, -391.58248496055603, -216.37565183639526
 1.70638890924251E9, -406.9011151790619, -438.4957900047302, -382.247694671154, -210.15245831012726
 1.7063889092724981E9, -489.7174597978592, -431.55453568696976, -349.4562518596649, -289.37849897146225
 1.7063889092724981E9, -371.23742920160294, -430.8364748954773, -369.3226004242897, -234.32717162370682
 1.706388909273206E9, -364.7748820781708, -438.7351436018944, -393.97602093219757, -192.2009385228157
 1.706388909273206E9, -501.2064324617386, -441.6073867678642, -361.4239317178726, -273.3418079614639
 1.7063889092739697E9, -434.4267788529396, -440.41061878204346, -362.1419925093651, -264.7250784635544
 1.7063889092739697E9, -353.0465558171272, -450.94217705726624, -404.98628640174866, -197.22736406326294
 1.7063889092864425E9, -466.50016087293625, -452.6176522374153, -381.7689874768257, -251.0819234251976
 1.7063889092864425E9, -475.83495116233826, -437.5383756160736, -354.48267740011215, -286.9849629998207
 1.7063889093024557E9, -362.1419925093651, -449.5060554742813, -397.80567848682404, -213.74276226758957
 1.7063889093024557E9, -427.7248781323433, -459.5589065551758, -402.35339683294296, -222.35949176549911
 1.706388909302559E9, -504.07867562770844, -442.08609396219254, -359.74845653772354, -294.4049245119095
 1.706388909302559E9, -390.38571697473526, -436.82031482458115, -367.8864788413048, -226.42850291728973
 1.706388909316159E9, -372.67355078458786, -442.804154753685, -398.5237392783165, -194.11576730012894
 1.706388909316159E9, -490.6748741865158, -441.3680331707001, -358.55168855190277, -271.66633278131485
 1.7063889093318276E9, -432.7513036727905, -437.77772921323776, -361.18457812070847, -267.3579680323601
 1.7063889093318276E9, -349.9349590539932, -444.71898353099823, -395.4121425151825, -194.11576730012894
 1.706388909332497E9, -460.9950281381607, -450.94217705726624, -386.5560594201088, -253.95416659116745
 1.706388909332497E9, -474.39882957935333, -437.29902201890945, -354.00397020578384, -292.49009573459625
 1.706388909362522E9, -362.86005330085754, -448.78799468278885, -397.5663248896599, -223.79561334848404
 1.706388909362522E9, -414.0817230939865, -445.67639791965485, -392.06119215488434, -223.79561334848404
 1.7063889093631632E9, -507.4296259880066, -442.56480115652084, -357.354920566082, -306.3726043701172
 1.7063889093631632E9, -389.90700978040695, -440.41061878204346, -390.86442416906357, -256.8264097571373
 1.7063889093639307E9, -378.41803711652756, -448.0699338912964, -406.66176158189774, -209.9131047129631
 1.7063889093639307E9, -488.99939900636673, -431.07582849264145, -353.52526301145554, -273.5811615586281
 1.7063889093761878E9, -421.5016846060753, -428.92164611816406, -358.3123349547386, -269.2727968096733
 1.7063889093761878E9, -346.58400869369507, -449.26670187711716, -399.24180006980896, -197.22736406326294
 1.706388909392068E9, -464.34597849845886, -447.11251950263977, -380.8115730881691, -254.91158097982407
 1.706388909392068E9, -476.31365835666656, -440.41061878204346, -354.96138459444046, -294.8836317062378
 1.706388909392571E9, -356.63685977458954, -444.4796299338341, -393.7366673350334, -220.9233701825142
 1.706388909392571E9, -418.3900878429413, -446.3944587111473, -392.7792529463768, -223.79561334848404
 1.7063889094225068E9, -497.6161285042763, -433.70871806144714, -350.6530198454857, -296.3197532892227
 1.7063889094225068E9, -389.1889489889145, -440.88932597637177, -383.4444626569748, -248.68838745355606
 1.7063889094232264E9, -374.1096723675728, -441.3680331707001, -400.6779216527939, -202.01443600654602
 1.7063889094232264E9, -487.80263102054596, -435.6235468387604, -357.59427416324615, -272.62374716997147
 1.7063889094239955E9, -434.9054860472679, -436.82031482458115, -358.55168855190277, -270.9482719898224
 1.7063889094239955E9, -367.40777164697647, -462.1917961239815, -405.46499359607697, -197.4667176604271
 1.706388909436443E9, -487.80263102054596, -468.8936968445778, -397.0876176953316, -266.6399072408676
 1.706388909436443E9, -488.28133821487427, -447.5912266969681, -370.04066121578217, -302.5429468154907
 1.706388909452328E9, -367.1684180498123, -456.4473097920418, -409.0552975535393, -227.86462450027466
 1.706388909452328E9, -423.17715978622437, -461.473735332489, -404.2682256102562, -237.67812198400497
 1.706388909452659E9, -502.1638468503952, -443.2828619480133, -352.32849502563477, -302.7823004126549
 1.706388909452659E9, -389.42830258607864, -442.08609396219254, -375.0670867562294, -242.2258403301239
 1.7063889094660563E9, -363.57811409235, -440.41061878204346, -393.97602093219757, -198.66348564624786
 1.7063889094660563E9, -475.5955975651741, -429.8790605068207, -355.44009178876877, -277.41081911325455
 1.7063889094830103E9, -404.02887201309204, -419.3475022315979, -348.73819106817245, -264.7250784635544
 1.7063889094830103E9, -331.98343926668167, -435.86290043592453, -398.5237392783165, -201.5357288122177
 1.706388909496863E9, -444.9583371281624, -436.1022540330887, -371.4767827987671, -246.53420507907867
 1.706388909496863E9, -454.2931274175644, -424.6132813692093, -351.131727039814, -291.53268134593964
 1.7063889094977393E9, -346.10530149936676, -448.78799468278885, -403.3108112215996, -227.6252709031105
 1.7063889094977393E9, -411.4488335251808, -453.57506662607193, -409.29465115070343, -242.2258403301239
 1.7063889095121005E9, -498.81289649009705, -446.3944587111473, -367.6471252441406, -310.68096911907196
 1.7063889095121005E9, -400.6779216527939, -457.16537058353424, -394.69408172369003, -263.76766407489777
 1.7063889095127304E9, -384.64123064279556, -458.60149216651917, -414.32107669115067, -211.82793349027634
 1.7063889095127304E9, -487.32392382621765, -440.41061878204346, -358.55168855190277, -284.352073431015
 1.706388909526066E9, -415.51784467697144, -422.69845259189606, -351.84978783130646, -263.0496032834053
 1.706388909526066E9, -341.55758315324783, -443.04350835084915, -401.39598244428635, -196.74865686893463
 1.7063889095417924E9, -452.85700583457947, -436.82031482458115, -371.9554899930954, -242.46519392728806
 1.7063889095417924E9, -468.1756360530853, -435.6235468387604, -355.44009178876877, -296.55910688638687
 1.7063889095424964E9, -349.21689826250076, -437.0596684217453, -392.06119215488434, -217.33306622505188
 1.7063889095424964E9, -411.20947992801666, -443.52221554517746, -394.9334353208542, -220.68401658535004
 1.706388909556256E9, -483.9729734659195, -424.6132813692093, -348.02013027668, -292.49009573459625
 1.706388909556256E9, -372.4341971874237, -431.3151820898056, -382.9657554626465, -242.7045475244522
 1.7063889095718532E9, -366.92906445264816, -442.08609396219254, -404.98628640174866, -207.51956874132156
 1.7063889095718532E9, -492.11099576950073, -444.2402763366699, -374.82773315906525, -290.0965597629547
 1.706388909572589E9, -424.134574174881, -437.77772921323776, -370.9980756044388, -279.8043550848961
 1.706388909572589E9, -340.1214615702629, -436.34160763025284, -401.1566288471222, -195.07318168878555
 1.706388909586089E9, -440.6499723792076, -423.8952205777168, -362.6206997036934, -235.5239396095276
 1.706388909586089E9, -461.473735332489, -426.0494029521942, -348.73819106817245, -289.1391453742981
 1.7063889096025078E9, -350.41366624832153, -438.7351436018944, -391.1037777662277, -212.30664068460464
 1.7063889096025078E9, -413.84236949682236, -448.0699338912964, -392.3005457520485, -219.72660219669342
 1.706388909617206E9, -495.4619461297989, -435.3841932415962, -354.243323802948, -293.9262173175812
 1.706388909617206E9, -385.359291434288, -438.7351436018944, -382.4870482683182, -245.3374370932579
 1.7063889096175923E9, -381.52963387966156, -451.89959144592285, -408.09788316488266, -203.45055758953094
 1.7063889096175923E9, -506.2328580021858, -453.57506662607193, -374.1096723675728, -288.89979177713394
 1.7063889096317856E9, -443.2828619480133, -446.3944587111473, -382.247694671154, -284.8307806253433
 1.7063889096317856E9, -355.2007381916046, -451.42088425159454, -414.0817230939865, -204.40797197818756
 1.7063889096325269E9, -449.74540907144547, -434.4267788529396, -373.15225797891617, -245.09808349609375
 1.7063889096325269E9, -457.4047241806984, -426.0494029521942, -350.6530198454857, -285.0701342225075
 1.706388909646404E9, -343.7117655277252, -433.9480716586113, -386.31670582294464, -200.81766802072525
 1.706388909646404E9, -402.1140432357788, -436.580961227417, -387.5134738087654, -205.12603276968002
 1.7063889096618414E9, -487.32392382621765, -427.48552453517914, -349.21689826250076, -286.5062558054924
 1.7063889096618414E9, -381.52963387966156, -434.9054860472679, -381.2902802824974, -237.67812198400497
 1.7063889096627164E9, -375.78514754772186, -440.41061878204346, -398.28438568115234, -198.18477845191956
 1.7063889096627164E9, -490.1961669921875, -434.9054860472679, -363.81746768951416, -271.905686378479
 1.7063889096924188E9, -430.59712129831314, -434.66613245010376, -369.08324682712555, -270.9482719898224
 1.7063889096924188E9, -354.96138459444046, -450.2241162657738, -402.83210402727127, -198.18477845191956
 1.7063889096931236E9, -464.82468569278717, -448.0699338912964, -384.16252344846725, -255.62964177131653
 1.7063889096931236E9, -470.56917202472687, -436.580961227417, -367.8864788413048, -297.9952284693718
 1.706388909693931E9, -363.0994068980217, -447.5912266969681, -406.9011151790619, -221.4020773768425
 1.706388909693931E9, -415.51784467697144, -444.2402763366699, -394.4547281265259, -217.09371262788773
 1.7063889097061467E9, -491.1535813808441, -421.74103820323944, -341.796936750412, -279.56500148773193
 1.7063889097061467E9, -386.79541301727295, -438.25643640756607, -378.1786835193634, -235.5239396095276
 1.7063889097220674E9, -372.4341971874237, -441.8467403650284, -400.91727524995804, -197.4667176604271
 1.7063889097220674E9, -490.1961669921875, -432.9906572699547, -355.6794453859329, -271.66633278131485
 1.7063889097226007E9, -427.246170938015, -425.5706957578659, -359.0303957462311, -262.81024968624115
 1.7063889097226007E9, -352.8072022199631, -447.83058029413223, -410.4914191365242, -198.90283924341202
 1.7063889097364292E9, -460.9950281381607, -437.5383756160736, -375.5457939505577, -242.94390112161636
 1.7063889097364292E9, -459.3195529580116, -417.1933198571205, -342.2756439447403, -278.84694069623947
 1.7063889097519004E9, -347.0627158880234, -434.4267788529396, -385.5986450314522, -207.51956874132156
 1.7063889097519004E9, -410.25206553936005, -439.692557990551, -386.79541301727295, -209.67375111579895
 1.706388909752508E9, -496.65871411561966, -431.3151820898056, -352.5678486227989, -291.2933277487755
 1.706388909752508E9, -380.8115730881691, -437.5383756160736, -379.3754515051842, -242.2258403301239
 1.7063889097661114E9, -367.40777164697647, -438.4957900047302, -397.3269712924957, -193.63706010580063
 1.7063889097661114E9, -476.31365835666656, -428.2035853266716, -357.59427416324615, -271.66633278131485
 1.7063889097819586E9, -425.33134216070175, -433.469364464283, -366.45035725831985, -274.29922235012054
 1.7063889097819586E9, -356.8762133717537, -447.83058029413223, -409.5340047478676, -200.0996072292328
 1.7063889097825108E9, -442.3254475593567, -422.4590989947319, -364.29617488384247, -231.21557486057281
 1.7063889097825108E9, -447.83058029413223, -412.88495510816574, -332.46214646101, -263.76766407489777
 1.706388909796395E9, -337.72792559862137, -422.69845259189606, -374.5883795619011, -198.18477845191956
 1.706388909796395E9, -422.4590989947319, -447.83058029413223, -393.01860654354095, -215.89694464206696
 1.706388909811759E9, -505.2754436135292, -432.2725964784622, -342.7543511390686, -273.82051515579224
 1.706388909811759E9, -372.912904381752, -415.7571982741356, -349.69560545682907, -202.97185039520264
 1.7063889098124735E9, -390.1463633775711, -442.804154753685, -392.53989934921265, -182.62679463624954
 1.7063889098124735E9, -510.78057634830475, -438.7351436018944, -349.69560545682907, -252.27869141101837
 1.7063889098425455E9, -451.89959144592285, -442.08609396219254, -361.9026389122009, -252.75739860534668
 1.7063889098425455E9, -375.5457939505577, -441.3680331707001, -392.53989934921265, -164.19656765460968
 1.706388909843249E9, -470.3298184275627, -429.1609997153282, -358.07298135757446, -208.47698312997818
 1.706388909843249E9, -480.62202310562134, -420.54427021741867, -329.350549697876, -242.94390112161636
 1.7063889098440576E9, -368.12583243846893, -430.8364748954773, -372.67355078458786, -166.82945722341537
 1.7063889098440576E9, -440.1712651848793, -437.0596684217453, -370.5193684101105, -177.83972269296646
 1.7063889098727272E9, -513.1741123199463, -424.134574174881, -336.5311576128006, -255.39028817415237
 1.7063889098727272E9, -406.1830543875694, -431.55453568696976, -367.8864788413048, -207.51956874132156
 1.7063889098731897E9, -409.29465115070343, -444.9583371281624, -390.6250705718994, -168.7442860007286
 1.7063889098731897E9, -522.5089026093483, -436.580961227417, -356.15815258026123, -251.32127702236176
 1.7063889098739777E9, -464.34597849845886, -443.52221554517746, -356.3975061774254, -244.61937630176544
 1.7063889098739777E9, -387.5134738087654, -457.64407777786255, -404.02887201309204, -175.92489391565323
 1.7063889098866513E9, -507.9083331823349, -458.362138569355, -376.98191553354263, -231.69428205490112
 1.7063889098866513E9, -514.1315267086029, -447.5912266969681, -354.00397020578384, -266.1612000465393
 1.7063889099017959E9, -399.9598608613014, -456.2079561948776, -398.0450320839882, -194.8338280916214
 1.7063889099017959E9, -452.85700583457947, -455.48989540338516, -391.3431313633919, -193.87641370296478
 1.706388909902516E9, -522.9876098036766, -433.9480716586113, -344.4298263192177, -264.2463712692261
 1.706388909902516E9, -407.8585295677185, -439.45320439338684, -364.29617488384247, -204.64732557535172
 1.7063889099161325E9, -405.46499359607697, -452.6176522374153, -395.8908497095108, -179.27584427595139
 1.7063889099161325E9, -530.1682177186012, -447.83058029413223, -356.8762133717537, -254.1935201883316
 1.7063889099319031E9, -466.97886806726456, -447.5912266969681, -368.3651860356331, -252.99675220251083
 1.7063889099319031E9, -388.7102417945862, -460.75567454099655, -405.9437007904053, -186.21709859371185
 1.7063889099327116E9, -499.29160368442535, -457.16537058353424, -370.9980756044388, -230.49751406908035
 1.7063889099327116E9, -494.9832389354706, -438.97449719905853, -357.59427416324615, -273.82051515579224
 1.7063889099461024E9, -393.7366673350334, -460.27696734666824, -402.5927504301071, -203.92926478385925
 1.7063889099461024E9, -460.9950281381607, -466.50016087293625, -400.91727524995804, -210.87051910161972
 1.7063889099621055E9, -536.1520576477051, -448.78799468278885, -360.466517329216, -283.3946590423584
 1.7063889099621055E9, -410.4914191365242, -439.93191158771515, -374.82773315906525, -216.1362982392311
 1.7063889099625196E9, -407.14046877622604, -449.74540907144547, -392.3005457520485, -179.27584427595139
 1.7063889099625196E9, -519.6366594433784, -437.0596684217453, -349.69560545682907, -251.5606306195259
 1.7063889099761295E9, -448.78799468278885, -435.14483964443207, -351.37108063697815, -246.53420507907867
 1.7063889099761295E9, -382.72640186548233, -455.01118820905685, -402.35339683294296, -184.30226981639862
 1.7063889099924133E9, -495.4619461297989, -453.3357130289078, -375.0670867562294, -231.93363565206528
 1.7063889099924133E9, -501.44578605890274, -439.93191158771515, -351.6104342341423, -272.14503997564316
 1.7063889100068007E9, -373.6309651732445, -445.915751516819, -391.8218385577202, -196.03059607744217
 1.7063889100068007E9, -433.469364464283, -449.74540907144547, -383.20510905981064, -202.97185039520264
 1.7063889100075676E9, -522.03019541502, -444.71898353099823, -356.63685977458954, -289.37849897146225
 1.7063889100075676E9, -406.66176158189774, -446.15510511398315, -379.8541586995125, -232.65169644355774
 1.7063889100220404E9, -395.65149611234665, -445.4370443224907, -393.7366673350334, -185.73839139938354
 1.7063889100220404E9, -492.58970296382904, -422.21974539756775, -336.5311576128006, -245.09808349609375
 1.706388910022549E9, -441.6073867678642, -436.34160763025284, -361.4239317178726, -251.79998421669006
 1.706388910022549E9, -376.5032083392143, -456.68666338920593, -403.0714576244354, -185.02033060789108
 1.7063889100361643E9, -482.7762054800987, -446.8731659054756, -379.3754515051842, -238.39618277549744
 1.7063889100361643E9, -490.91422778367996, -439.45320439338684, -356.8762133717537, -276.6927583217621
 1.706388910052081E9, -368.3651860356331, -444.71898353099823, -392.3005457520485, -196.03059607744217
 1.706388910052081E9, -437.0596684217453, -451.1815306544304, -391.1037777662277, -210.87051910161972
 1.7063889100526924E9, -522.7482562065125, -442.08609396219254, -351.84978783130646, -290.0965597629547
 1.7063889100526924E9, -410.0127119421959, -451.6602378487587, -380.57221949100494, -230.01880687475204
 1.7063889100661912E9, -403.7895184159279, -458.60149216651917, -407.61917597055435, -196.74865686893463
 1.7063889100661912E9, -519.6366594433784, -449.9847626686096, -361.9026389122009, -265.92184644937515
 1.7063889100818098E9, -463.6279177069664, -457.64407777786255, -378.89674431085587, -272.14503997564316
 1.7063889100818098E9, -391.58248496055603, -470.3298184275627, -418.8687950372696, -199.38154643774033
 1.7063889100825193E9, -473.68076878786087, -437.77772921323776, -366.689710855484, -229.54009968042374
 1.7063889100825193E9, -470.09046483039856, -415.99655187129974, -332.9408536553383, -262.570896089077
 1.7063889100961237E9, -371.4767827987671, -447.83058029413223, -388.2315346002579, -196.98801046609879
 1.7063889100961237E9, -431.7938892841339, -450.94217705726624, -387.75282740592957, -210.15245831012726
 1.7063889101111307E9, -503.360614836216, -428.2035853266716, -341.3182295560837, -271.905686378479
 1.7063889101111307E9, -389.1889489889145, -431.55453568696976, -368.12583243846893, -220.44466298818588
 1.70638891012687E9, -497.6161285042763, -432.2725964784622, -353.2859094142914, -264.4857248663902
 1.70638891012687E9, -434.4267788529396, -428.6822925209999, -354.96138459444046, -251.5606306195259
 1.706388910127602E9, -365.7322964668274, -445.4370443224907, -394.4547281265259, -182.62679463624954
 1.706388910127602E9, -474.87753677368164, -441.6073867678642, -373.6309651732445, -241.26842594146729
 1.7063889101741743E9, -471.76594001054764, -426.5281101465225, -342.51499754190445, -268.794089615345
 1.7063889101741743E9, -362.86005330085754, -439.45320439338684, -382.72640186548233, -191.7222313284874
 1.7063889101748896E9, -428.44293892383575, -446.15510511398315, -381.7689874768257, -202.97185039520264
 1.7063889101748896E9, -510.30186915397644, -433.23001086711884, -343.2330583333969, -280.2830622792244
 1.7063889101754396E9, -406.9011151790619, -445.4370443224907, -382.9657554626465, -233.8484644293785
 1.7063889101754396E9, -399.24180006980896, -454.05377382040024, -396.8482640981674, -189.56804895401
 1.7063889101763377E9, -518.6792450547218, -448.0699338912964, -365.01423567533493, -275.9746975302696
 1.7063889101763377E9, -448.0699338912964, -435.6235468387604, -353.52526301145554, -257.06576335430145
 1.7063889101867976E9, -371.9554899930954, -452.85700583457947, -397.5663248896599, -185.73839139938354
 1.7063889101867976E9, -488.99939900636673, -454.2931274175644, -380.57221949100494, -245.09808349609375
 1.7063889101874924E9, -491.6322885751724, -449.027348279953, -358.7910421490669, -285.30948781967163
 1.7063889101874924E9, -381.52963387966156, -459.0801993608475, -402.35339683294296, -204.64732557535172
 1.706388910201229E9, -430.8364748954773, -441.1286795735359, -379.6148051023483, -198.66348564624786
 1.706388910201229E9, -500.7277252674103, -425.0919885635376, -340.1214615702629, -273.1024543642998
 1.7063889102169304E9, -391.1037777662277, -435.86290043592453, -367.1684180498123, -219.2478950023651
 1.7063889102169304E9, -383.4444626569748, -444.2402763366699, -387.75282740592957, -181.66938024759293
 1.7063889102175307E9, -489.95681339502335, -420.3049166202545, -345.62659430503845, -259.459299325943
 1.7063889102175307E9, -428.6822925209999, -425.0919885635376, -353.2859094142914, -250.6032162308693
 1.706388910231088E9, -358.07298135757446, -443.04350835084915, -388.2315346002579, -175.20683312416077
 1.706388910231088E9, -461.9524425268173, -428.92164611816406, -356.3975061774254, -224.5136741399765
 1.7063889102471683E9, -472.24464720487595, -428.2035853266716, -343.47241193056107, -271.905686378479
 1.7063889102471683E9, -370.04066121578217, -444.4796299338341, -386.31670582294464, -201.5357288122177
 1.7063889102475743E9, -420.3049166202545, -434.66613245010376, -376.024501144886, -202.73249679803848
 1.7063889102475743E9, -500.4883716702461, -429.8790605068207, -341.3182295560837, -276.93211191892624
 1.7063889102615547E9, -398.0450320839882, -440.88932597637177, -377.46062272787094, -224.9923813343048
 1.7063889102615547E9, -387.27412021160126, -444.71898353099823, -391.1037777662277, -185.73839139938354
 1.7063889102768342E9, -502.88190764188766, -436.1022540330887, -354.7220309972763, -264.0070176720619
 1.7063889102768342E9, -454.53248101472855, -448.78799468278885, -370.04066121578217, -257.3051169514656
 1.7063889102775328E9, -378.6573907136917, -458.8408457636833, -408.8159439563751, -194.59447449445724
 1.7063889102775328E9, -487.5632774233818, -452.6176522374153, -374.34902596473694, -239.5929507613182
 1.7063889102911096E9, -491.1535813808441, -445.67639791965485, -352.0891414284706, -275.73534393310547
 1.7063889102911096E9, -384.4018770456314, -462.90985691547394, -401.6353360414505, -202.01443600654602
 1.706388910306794E9, -452.138945043087, -464.1066249012947, -403.7895184159279, -219.96595579385757
 1.706388910306794E9, -516.7644162774086, -441.8467403650284, -354.00397020578384, -283.63401263952255
 1.7063889103074975E9, -397.3269712924957, -441.6073867678642, -378.41803711652756, -227.6252709031105
 1.7063889103074975E9, -393.2579601407051, -450.4634698629379, -398.28438568115234, -188.13192737102509
 1.7063889103378503E9, -500.96707886457443, -435.6235468387604, -352.0891414284706, -261.13477450609207
 1.7063889103378503E9, -444.71898353099823, -445.4370443224907, -370.04066121578217, -267.59732162952423
 1.7063889103384776E9, -367.40777164697647, -450.2241162657738, -410.4914191365242, -196.74865686893463
 1.7063889103384776E9, -482.2974982857704, -449.9847626686096, -378.1786835193634, -246.29485148191452
 1.7063889103391123E9, -482.53685188293457, -435.3841932415962, -355.2007381916046, -286.5062558054924
 1.7063889103391123E9, -366.92906445264816, -438.25643640756607, -384.8805842399597, -201.77508240938187
 1.7063889103510997E9, -442.3254475593567, -455.96860259771347, -392.53989934921265, -220.20530939102173
 1.7063889103510997E9, -505.51479721069336, -439.45320439338684, -352.32849502563477, -290.0965597629547
 1.7063889103673248E9, -380.8115730881691, -432.9906572699547, -370.9980756044388, -228.34333169460297
 1.7063889103673248E9, -374.34902596473694, -438.25643640756607, -388.7102417945862, -188.13192737102509
 1.7063889103675733E9, -489.95681339502335, -432.5119500756264, -352.0891414284706, -268.07602882385254
 1.7063889103675733E9, -418.15073424577713, -420.06556302309036, -353.2859094142914, -255.39028817415237
 1.7063889103812077E9, -366.2110036611557, -456.9260169863701, -407.14046877622604, -198.66348564624786
 1.7063889103812077E9, -446.63381230831146, -424.134574174881, -353.7646166086197, -232.17298924922943
 1.7063889103967872E9, -455.96860259771347, -418.15073424577713, -337.4885720014572, -273.5811615586281
 1.7063889103967872E9, -334.61632883548737, -423.6558669805527, -376.98191553354263, -198.4241320490837
 1.706388910397525E9, -417.6720270514488, -438.97449719905853, -378.41803711652756, -208.9556903243065
 1.706388910397525E9, -507.66897958517075, -436.82031482458115, -346.10530149936676, -289.37849897146225
 1.7063889104111173E9, -390.38571697473526, -445.67639791965485, -376.5032083392143, -238.39618277549744
 1.7063889104111173E9, -390.38571697473526, -455.48989540338516, -400.91727524995804, -202.25378960371017
 1.7063889104269335E9, -509.583808362484, -446.3944587111473, -358.55168855190277, -280.2830622792244
 1.7063889104269335E9, -441.6073867678642, -444.71898353099823, -363.81746768951416, -266.6399072408676
 1.7063889104274695E9, -366.45035725831985, -456.2079561948776, -406.66176158189774, -198.66348564624786
 1.7063889104274695E9, -469.13305044174194, -444.4796299338341, -373.87031877040863, -249.40644824504852
 1.7063889104412253E9, -480.8613767027855, -443.7615691423416, -361.6632853150368, -285.0701342225075
 1.7063889104412253E9, -369.801307618618, -456.9260169863701, -404.7469328045845, -224.27432054281235
 1.7063889104567852E9, -422.4590989947319, -448.0699338912964, -393.49731373786926, -219.48724859952927
 1.7063889104567852E9, -473.920122385025, -415.7571982741356, -337.9672791957855, -277.41081911325455
 1.7063889104574723E9, -362.1419925093651, -420.06556302309036, -358.7910421490669, -220.68401658535004
 1.7063889104574723E9, -362.6206997036934, -430.59712129831314, -382.72640186548233, -186.21709859371185
 1.7063889104716792E9, -486.1271558403969, -428.6822925209999, -348.73819106817245, -272.3843935728073
 1.7063889104716792E9, -416.7146126627922, -421.022977411747, -352.5678486227989, -254.1935201883316
 1.706388910504907E9, -342.7543511390686, -435.3841932415962, -400.91727524995804, -193.87641370296478
 1.706388910504907E9, -454.7718346118927, -433.70871806144714, -374.82773315906525, -244.14066910743713
 1.7063889105057013E9, -466.2608072757721, -431.55453568696976, -354.243323802948, -287.9423773884773
 1.7063889105057013E9, -358.55168855190277, -451.1815306544304, -400.6779216527939, -217.33306622505188
 1.7063889105063858E9, -426.5281101465225, -453.8144202232361, -399.72050726413727, -224.0349669456482
 1.7063889105063858E9, -502.88190764188766, -435.86290043592453, -350.6530198454857, -291.7720349431038
 1.706388910517289E9, -392.7792529463768, -449.9847626686096, -385.83799862861633, -239.5929507613182
 1.706388910517289E9, -390.1463633775711, -455.250541806221, -406.9011151790619, -208.47698312997818
 1.7063889105175653E9, -504.7967364192009, -446.8731659054756, -370.5193684101105, -281.7191838622093
 1.7063889105175653E9, -428.2035853266716, -434.66613245010376, -364.0568212866783, -261.3741281032562
 1.7063889105311604E9, -343.47241193056107, -438.25643640756607, -395.4121425151825, -184.78097701072693
 1.7063889105311604E9, -467.9362824559212, -444.2402763366699, -373.3916115760803, -241.7471331357956
 1.7063889105468004E9, -483.0155590772629, -444.2402763366699, -355.6794453859329, -283.8733662366867
 1.7063889105468004E9, -370.04066121578217, -456.9260169863701, -399.9598608613014, -212.30664068460464
 1.7063889105474913E9, -437.29902201890945, -457.4047241806984, -394.2153745293617, -221.4020773768425
 1.7063889105474913E9, -503.8393220305443, -438.97449719905853, -354.00397020578384, -290.575266957283
 1.7063889105611763E9, -391.3431313633919, -449.74540907144547, -382.72640186548233, -239.5929507613182
 1.7063889105611763E9, -403.7895184159279, -474.1594759821892, -424.6132813692093, -218.2904806137085
 1.7063889105774496E9, -512.2166979312897, -457.16537058353424, -372.67355078458786, -291.7720349431038
 1.7063889105774496E9, -424.6132813692093, -436.580961227417, -369.56195402145386, -269.2727968096733
 1.706388910578158E9, -340.36081516742706, -441.1286795735359, -405.46499359607697, -201.77508240938187
 1.706388910578158E9, -452.6176522374153, -442.804154753685, -376.7425619363785, -258.2625313401222
 1.7063889105914266E9, -454.2931274175644, -433.469364464283, -353.7646166086197, -293.686863720417
 1.7063889105914266E9, -338.2066327929497, -433.70871806144714, -399.72050726413727, -222.59884536266327
 1.7063889106071649E9, -402.35339683294296, -441.1286795735359, -399.24180006980896, -231.45492845773697
 1.7063889106071649E9, -497.6161285042763, -442.08609396219254, -361.9026389122009, -310.68096911907196
 1.7063889106220057E9, -383.20510905981064, -446.15510511398315, -391.3431313633919, -255.86899536848068
 1.7063889106220057E9, -394.69408172369003, -462.6705033183098, -422.21974539756775, -223.79561334848404
 1.706388910622528E9, -504.7967364192009, -453.57506662607193, -374.1096723675728, -293.9262173175812
 1.706388910622528E9, -427.96423172950745, -442.804154753685, -371.9554899930954, -274.0598687529564
 1.706388910637138E9, -360.22716373205185, -458.60149216651917, -409.29465115070343, -206.56215435266495
 1.706388910637138E9, -477.98913353681564, -462.43114972114563, -391.8218385577202, -265.92184644937515
 1.7063889106376429E9, -486.36650943756104, -461.71308892965317, -373.15225797891617, -303.2610076069832
 1.7063889106376429E9, -361.4239317178726, -457.16537058353424, -406.9011151790619, -222.12013816833496
 1.7063889106511393E9, -427.48552453517914, -455.250541806221, -394.2153745293617, -224.5136741399765
 1.7063889106511393E9, -508.62639397382736, -445.915751516819, -359.9878101348877, -304.45777559280396
 1.7063889106672025E9, -391.8218385577202, -446.63381230831146, -390.86442416906357, -245.3374370932579
 1.7063889106672025E9, -382.4870482683182, -453.0963594317436, -402.1140432357788, -203.45055758953094
 1.7063889106819265E9, -500.24901807308197, -444.00092273950577, -357.59427416324615, -279.3256478905678
 1.7063889106819265E9, -424.134574174881, -436.82031482458115, -359.5091029405594, -267.1186144351959
 1.7063889106828032E9, -358.7910421490669, -458.8408457636833, -411.20947992801666, -206.56215435266495
 1.7063889106828032E9, -466.50016087293625, -442.56480115652084, -372.19484359025955, -255.15093457698822
 1.7063889106979609E9, -476.0743047595024, -441.6073867678642, -360.22716373205185, -295.12298530340195
 1.7063889106979609E9, -370.7587220072746, -461.71308892965317, -411.9275407195091, -229.30074608325958
 1.7063889106982572E9, -445.19769072532654, -471.28723281621933, -407.61917597055435, -241.50777953863144
 1.7063889106982572E9, -512.2166979312897, -453.0963594317436, -364.5355284810066, -307.09066516160965
 1.7063889107111306E9, -381.52963387966156, -439.93191158771515, -383.4444626569748, -239.5929507613182
 1.7063889107111306E9, -375.78514754772186, -444.00092273950577, -400.1992144584656, -203.45055758953094
 1.7063889107432044E9, -494.2651781439781, -438.4957900047302, -365.97165006399155, -284.8307806253433
 1.7063889107432044E9, -419.10814863443375, -430.11841410398483, -362.38134610652924, -269.7515040040016
 1.7063889107439177E9, -357.11556696891785, -451.89959144592285, -408.8159439563751, -202.73249679803848
 1.7063889107439177E9, -467.9362824559212, -445.915751516819, -375.0670867562294, -253.7148129940033
 1.7063889107446764E9, -462.6705033183098, -430.59712129831314, -349.4562518596649, -284.8307806253433
 1.7063889107446764E9, -355.2007381916046, -449.74540907144547, -405.9437007904053, -216.1362982392311
 1.706388910745391E9, -417.911380648613, -448.5486410856247, -390.38571697473526, -221.64143097400665
 1.706388910745391E9, -501.2064324617386, -438.97449719905853, -349.9349590539932, -292.01138854026794
 1.7063889107564936E9, -384.16252344846725, -440.41061878204346, -389.1889489889145, -241.02907234430313
 1.7063889107564936E9, -399.9598608613014, -468.65434324741364, -423.4165133833885, -221.8807845711708
 1.7063889107711413E9, -517.2431234717369, -460.0376137495041, -383.68381625413895, -298.71328926086426
 1.7063889107711413E9, -439.45320439338684, -452.85700583457947, -376.98191553354263, -281.47983026504517
 1.706388910787278E9, -352.32849502563477, -444.00092273950577, -401.39598244428635, -191.96158492565155
 1.706388910787278E9, -459.0801993608475, -435.3841932415962, -369.08324682712555, -247.01291227340698
 1.706388910787624E9, -473.920122385025, -441.3680331707001, -364.5355284810066, -295.12298530340195
 1.706388910787624E9, -365.97165006399155, -452.138945043087, -410.4914191365242, -223.31690615415573
 1.7063889108175168E9, -440.41061878204346, -456.4473097920418, -404.02887201309204, -232.65169644355774
 1.7063889108175168E9, -498.81289649009705, -438.0170828104019, -346.10530149936676, -287.9423773884773
 1.7063889108182049E9, -384.8805842399597, -444.4796299338341, -382.00834107398987, -236.9600611925125
 1.7063889108182049E9, -392.06119215488434, -460.5163209438324, -409.5340047478676, -211.58857989311218
 1.7063889108189557E9, -513.8921731114388, -455.48989540338516, -375.30644035339355, -292.2507421374321
 1.7063889108189557E9, -428.92164611816406, -442.08609396219254, -378.89674431085587, -272.8631007671356
 1.706388910831512E9, -352.32849502563477, -448.30928748846054, -404.2682256102562, -196.98801046609879
 1.706388910831512E9, -474.6381831765175, -447.5912266969681, -377.6999763250351, -254.43287378549576
 1.7063889108467972E9, -474.39882957935333, -439.93191158771515, -358.07298135757446, -291.53268134593964
 1.7063889108467972E9, -355.44009178876877, -437.77772921323776, -392.53989934921265, -205.12603276968002
 1.706388910847545E9, -424.85263496637344, -444.2402763366699, -384.64123064279556, -218.52983421087265
 1.706388910847545E9, -490.6748741865158, -431.7938892841339, -348.4988374710083, -291.2933277487755
 1.7063889108611724E9, -378.1786835193634, -436.82031482458115, -375.78514754772186, -236.4813539981842
 1.7063889108611724E9, -392.06119215488434, -452.85700583457947, -406.1830543875694, -210.3918119072914
 1.7063889108768609E9, -499.5309572815895, -438.25643640756607, -363.33876049518585, -280.7617694735527
 1.7063889108768609E9, -426.28875654935837, -433.23001086711884, -366.92906445264816, -265.92184644937515
 1.7063889108775516E9, -357.59427416324615, -449.74540907144547, -410.73077273368835, -201.0570216178894
 1.7063889108775516E9, -467.45757526159286, -444.4796299338341, -380.8115730881691, -254.1935201883316
 1.706388910891651E9, -457.16537058353424, -426.5281101465225, -347.30206948518753, -274.0598687529564
 1.706388910891651E9, -347.5414230823517, -435.6235468387604, -386.5560594201088, -199.14219284057617
 1.70638891090685E9, -420.06556302309036, -441.1286795735359, -384.8805842399597, -213.74276226758957
 1.70638891090685E9, -489.95681339502335, -425.81004935503006, -348.73819106817245, -286.0275486111641
 1.7063889109075584E9, -378.41803711652756, -428.2035853266716, -374.82773315906525, -226.42850291728973
