 Timestamp, EXG Channel 0, EXG Channel 1, EXG Channel 2, EXG Channel 3
 1.7075956067608538E9, -293.2081565260887, -632.8509109020233, -2072.802151441574, -223.55625975131989
 1.7075956067608538E9, -290.8146205544472, -590.485324203968, -2005.3044370412827, -218.05112701654434
 1.707595606775364E9, -307.09066516160965, -611.7877943515778, -2006.0224978327751, -234.08781802654266
 1.707595606775364E9, -289.85720616579056, -636.2018612623215, -2070.887322664261, -235.76329320669174
 1.70759560678993E9, -281.9585374593735, -603.4104184508324, -2031.8726863265038, -210.63116550445557
 1.70759560678993E9, -304.2184219956398, -598.144639313221, -1986.8742100596428, -220.68401658535004
 1.7075956067906656E9, -289.6178525686264, -628.7818997502327, -2061.3131787776947, -237.67812198400497
 1.7075956067906656E9, -277.88952630758286, -614.8993911147118, -2058.680289208889, -217.33306622505188
 1.70759560680432E9, -296.798460483551, -589.7672634124756, -1983.5232596993446, -208.71633672714233
 1.70759560680432E9, -303.50036120414734, -629.260606944561, -2029.000443160534, -237.43876838684082
 1.7075956068203332E9, -283.3946590423584, -626.6277173757553, -2068.254433095455, -224.0349669456482
 1.7075956068203332E9, -285.30948781967163, -589.0492026209831, -2006.7405586242676, -210.87051910161972
 1.70759560682088E9, -298.23458206653595, -605.0858936309814, -1998.6025363206863, -223.07755255699158
 1.70759560682088E9, -282.4372446537018, -625.1915957927704, -2058.680289208889, -221.8807845711708
 1.7075956068344631E9, -273.82051515579224, -590.7246778011322, -2023.7346640229225, -199.14219284057617
 1.7075956068344631E9, -296.55910688638687, -584.7408378720284, -1982.565845310688, -214.22146946191788
 1.7075956068504045E9, -290.33591336011887, -623.7554742097855, -2049.584852516651, -229.54009968042374
 1.7075956068504045E9, -275.017283141613, -605.3252472281456, -2047.4306701421738, -212.30664068460464
 1.7075956068505757E9, -298.23458206653595, -585.2195450663567, -1988.3103316426277, -213.0247014760971
 1.7075956068505757E9, -298.23458206653595, -617.0535734891891, -2018.229531288147, -222.35949176549911
 1.7075956068644893E9, -286.26690220832825, -629.7393141388893, -2062.988653957844, -212.30664068460464
 1.7075956068644893E9, -293.44751012325287, -588.3311418294907, -2008.6553874015808, -206.8015079498291
 1.7075956068803937E9, -308.5267867445946, -618.9684022665024, -2013.2031057476997, -231.69428205490112
 1.7075956068803937E9, -288.42108458280563, -634.5263860821724, -2070.1692618727684, -230.01880687475204
 1.707595606880596E9, -285.30948781967163, -605.3252472281456, -2032.8301007151604, -210.63116550445557
 1.707595606880596E9, -291.53268134593964, -585.2195450663567, -1989.5070996284485, -218.52983421087265
 1.7075956068945153E9, -292.7294493317604, -639.5528116226196, -2054.8506316542625, -236.9600611925125
 1.7075956068945153E9, -278.36823350191116, -608.9155511856079, -2055.0899852514267, -218.2904806137085
 1.7075956069099932E9, -287.22431659698486, -578.2782907485962, -1988.789038836956, -210.63116550445557
 1.7075956069099932E9, -295.60169249773026, -615.1387447118759, -2030.9152719378471, -225.71044212579727
 1.7075956069105523E9, -276.93211191892624, -628.0638389587402, -2066.578957915306, -219.72660219669342
 1.7075956069105523E9, -282.4372446537018, -587.373727440834, -1999.799304306507, -203.2112039923668
 1.7075956069240985E9, -298.71328926086426, -610.591026365757, -2000.9960722923279, -222.12013816833496
 1.7075956069240985E9, -281.00112307071686, -630.6967285275459, -2060.355764389038, -222.83819895982742
 1.707595606939973E9, -264.7250784635544, -588.809849023819, -2016.793409705162, -193.63706010580063
 1.707595606939973E9, -291.0539741516113, -588.5704954266548, -1980.890370130539, -211.34922629594803
 1.7075956069405644E9, -284.8307806253433, -620.8832310438156, -2040.9681230187416, -224.5136741399765
 1.7075956069405644E9, -275.017283141613, -606.7613688111305, -2042.6435981988907, -207.99827593564987
 1.7075956069545045E9, -285.0701342225075, -579.2357051372528, -1979.454248547554, -208.9556903243065
 1.7075956069545045E9, -287.463670194149, -613.702623128891, -2017.2721168994904, -228.58268529176712
 1.7075956069699695E9, -284.352073431015, -626.6277173757553, -2057.00481402874, -221.4020773768425
 1.7075956069699695E9, -283.63401263952255, -581.3898875117302, -1997.6451219320297, -213.0247014760971
 1.7075956069705489E9, -303.02165400981903, -606.0433080196381, -2004.347022652626, -230.01880687475204
 1.7075956069705489E9, -301.1068252325058, -658.701099395752, -2087.881428062916, -258.74123853445053
 1.7075956069844124E9, -278.84694069623947, -600.7775288820267, -2036.4204046726227, -226.90721011161804
 1.7075956069844124E9, -282.67659825086594, -587.6130810379982, -1994.2941715717316, -233.13040363788605
 1.707595606999968E9, -272.3843935728073, -615.6174519062042, -2051.4996812939644, -245.3374370932579
 1.707595606999968E9, -257.7838241457939, -601.7349432706833, -2053.6538636684418, -238.87488996982574
 1.707595607000634E9, -258.5018849372864, -574.2092795968056, -1988.3103316426277, -228.34333169460297
 1.707595607000634E9, -267.3579680323601, -612.5058551430702, -2020.6230672597885, -244.61937630176544
 1.7075956070141234E9, -243.18325471878052, -603.6497720479965, -2062.2705931663513, -233.13040363788605
 1.7075956070141234E9, -236.0026468038559, -558.6512957811356, -1993.576110780239, -207.99827593564987
 1.707595607029828E9, -262.570896089077, -589.5279098153114, -1986.8742100596428, -229.54009968042374
 1.707595607029828E9, -247.25226587057114, -617.7716342806816, -2055.568692445755, -240.55036514997482
 1.707595607030542E9, -257.3051169514656, -591.921445786953, -2020.1443600654602, -221.4020773768425
 1.707595607030542E9, -266.40055364370346, -576.363461971283, -1988.5496852397919, -231.21557486057281
 1.7075956070445387E9, -267.59732162952423, -625.9096565842628, -2050.781620502472, -247.25226587057114
 1.7075956070445387E9, -257.06576335430145, -605.8039544224739, -2047.670023739338, -226.90721011161804
 1.7075956070602124E9, -266.1612000465393, -576.363461971283, -1994.5335251688957, -231.69428205490112
 1.7075956070602124E9, -279.3256478905678, -618.0109878778458, -2031.6333327293396, -242.46519392728806
 1.7075956070608969E9, -258.74123853445053, -623.9948278069496, -2070.6479690670967, -238.15682917833328
 1.7075956070608969E9, -265.2037856578827, -585.9376058578491, -2009.8521553874016, -224.9923813343048
 1.7075956070743406E9, -282.67659825086594, -607.7187831997871, -2010.0915089845657, -245.09808349609375
 1.7075956070743406E9, -269.2727968096733, -633.8083252906799, -2075.913748204708, -253.47545939683914
 1.707595607089798E9, -264.2463712692261, -598.8627001047134, -2035.223636686802, -232.8910500407219
 1.707595607089798E9, -277.6501727104187, -590.0066170096397, -1997.1664147377014, -238.6355363726616
 1.707595607090481E9, -281.9585374593735, -635.9625076651573, -2065.8608971238136, -259.459299325943
 1.707595607090481E9, -264.2463712692261, -616.3355126976967, -2062.5099467635155, -233.60911083221436
 1.7075956071043456E9, -277.41081911325455, -590.2459706068039, -2002.910901069641, -231.93363565206528
 1.7075956071043456E9, -290.575266957283, -633.0902644991875, -2036.899111866951, -252.03933781385422
 1.7075956071202707E9, -266.1612000465393, -632.8509109020233, -2073.998919427395, -240.07165795564651
 1.7075956071202707E9, -264.7250784635544, -586.8950202465057, -2019.4262992739677, -231.69428205490112
 1.7075956071207092E9, -287.70302379131317, -619.925816655159, -2020.1443600654602, -248.68838745355606
 1.7075956071207092E9, -277.88952630758286, -635.0050932765007, -2074.7169802188873, -246.53420507907867
 1.7075956071343727E9, -273.1024543642998, -609.1549047827721, -2037.6171726584435, -231.45492845773697
 1.7075956071343727E9, -285.0701342225075, -596.708517730236, -1997.1664147377014, -233.60911083221436
 1.7075956071502256E9, -288.6604381799698, -635.0050932765007, -2056.5261068344116, -238.6355363726616
 1.7075956071502256E9, -275.73534393310547, -624.7128885984421, -2056.2867532372475, -224.75302773714066
 1.7075956071506991E9, -282.9159518480301, -597.6659321188927, -1999.559950709343, -226.42850291728973
 1.7075956071506991E9, -292.49009573459625, -628.7818997502327, -2042.4042446017265, -252.03933781385422
 1.707595607164147E9, -279.0862942934036, -637.8773364424706, -2069.69055467844, -232.8910500407219
 1.707595607164147E9, -288.89979177713394, -598.8627001047134, -2022.0591888427734, -228.58268529176712
 1.7075956071798484E9, -309.24484753608704, -628.7818997502327, -2027.8036751747131, -254.1935201883316
 1.7075956071798484E9, -293.2081565260887, -648.6482483148575, -2084.5304777026176, -252.27869141101837
 1.70759560718054E9, -275.9746975302696, -611.5484407544136, -2049.345498919487, -230.49751406908035
 1.70759560718054E9, -302.7823004126549, -606.7613688111305, -2009.8521553874016, -242.2258403301239
 1.7075956071941125E9, -291.0539741516113, -648.1695411205292, -2065.6215435266495, -251.0819234251976
 1.7075956071941125E9, -278.84694069623947, -624.9522421956062, -2061.3131787776947, -231.21557486057281
 1.707595607209856E9, -291.2933277487755, -600.2988216876984, -2006.5012050271034, -230.7368676662445
 1.707595607209856E9, -292.01138854026794, -628.3031925559044, -2039.5320014357567, -250.12450903654099
 1.7075956072105536E9, -278.84694069623947, -635.483800470829, -2078.546637773514, -240.31101155281067
 1.7075956072105536E9, -279.8043550848961, -597.4265785217285, -2017.0327633023262, -230.2581604719162
 1.7075956072407193E9, -295.3623389005661, -616.814219892025, -2021.5804816484451, -247.4916194677353
 1.7075956072407193E9, -286.0275486111641, -638.3560436367989, -2080.461466550827, -250.12450903654099
 1.7075956072412932E9, -285.30948781967163, -617.7716342806816, -2039.2926478385925, -225.94979572296143
 1.7075956072412932E9, -301.82488602399826, -613.2239159345627, -2009.6128017902374, -243.90131551027298
 1.7075956072419648E9, -294.4049245119095, -643.6218227744102, -2071.8447370529175, -253.236105799675
 1.7075956072419648E9, -284.8307806253433, -629.0212533473969, -2068.015079498291, -233.13040363788605
 1.7075956072545931E9, -294.4049245119095, -601.9742968678474, -2005.0650834441185, -234.08781802654266
 1.7075956072545931E9, -288.1817309856415, -624.2341814041138, -2035.7023438811302, -243.18325471878052
 1.707595607270312E9, -284.59142702817917, -639.5528116226196, -2082.3762953281403, -238.87488996982574
 1.707595607270312E9, -284.8307806253433, -594.0756281614304, -2015.8359953165054, -224.0349669456482
 1.7075956072706714E9, -293.2081565260887, -612.2665015459061, -2015.3572881221771, -240.78971874713898
 1.7075956072706714E9, -287.22431659698486, -635.0050932765007, -2073.5202122330666, -241.50777953863144
 1.7075956072841957E9, -275.9746975302696, -598.6233465075493, -2033.3088079094887, -222.35949176549911
 1.7075956072841957E9, -287.9423773884773, -598.144639313221, -1995.4909395575523, -222.35949176549911
 1.7075956072998033E9, -286.26690220832825, -634.2870324850082, -2058.919642806053, -241.50777953863144
 1.7075956072998033E9, -277.6501727104187, -618.7290486693382, -2055.0899852514267, -219.48724859952927
 1.7075956073005335E9, -290.8146205544472, -590.485324203968, -1990.464514017105, -221.4020773768425
 1.7075956073005335E9, -286.26690220832825, -614.6600375175476, -2023.2559568285942, -230.49751406908035
 1.7075956073141425E9, -279.0862942934036, -629.7393141388893, -2072.0840906500816, -229.30074608325958
 1.7075956073141425E9, -277.88952630758286, -588.0917882323265, -2008.4160338044167, -211.82793349027634
 1.7075956073298197E9, -293.44751012325287, -604.6071864366531, -2016.3147025108337, -236.24200040102005
 1.7075956073298197E9, -286.9849629998207, -636.4412148594856, -2073.7595658302307, -236.4813539981842
 1.707595607330577E9, -282.9159518480301, -604.1284792423248, -2036.6597582697868, -225.23173493146896
 1.707595607330577E9, -303.2610076069832, -606.7613688111305, -2001.4747794866562, -231.45492845773697
 1.7075956073444953E9, -302.0642396211624, -642.6644083857536, -2063.467361152172, -250.6032162308693
 1.7075956073444953E9, -286.9849629998207, -621.6012918353081, -2065.142836332321, -234.32717162370682
 1.7075956073600976E9, -292.01138854026794, -593.8362745642662, -2009.8521553874016, -231.21557486057281
 1.7075956073600976E9, -300.38876444101334, -634.2870324850082, -2042.1648910045624, -251.32127702236176
 1.7075956073605368E9, -283.8733662366867, -640.7495796084404, -2081.1795273423195, -236.72070759534836
 1.7075956073605368E9, -288.89979177713394, -605.5646008253098, -2019.1869456768036, -224.27432054281235
 1.707595607374154E9, -296.798460483551, -614.1813303232193, -2017.9901776909828, -241.50777953863144
 1.707595607374154E9, -287.22431659698486, -643.3824691772461, -2081.658234536648, -245.3374370932579
 1.7075956073904014E9, -279.3256478905678, -606.7613688111305, -2036.899111866951, -225.23173493146896
 1.7075956073904014E9, -293.2081565260887, -597.9052857160568, -2004.347022652626, -237.43876838684082
 1.7075956073911965E9, -289.6178525686264, -637.6379828453064, -2060.355764389038, -244.3800227046013
 1.7075956073911965E9, -274.77792954444885, -620.4045238494873, -2058.2015820145607, -225.23173493146896
 1.7075956074046388E9, -289.1391453742981, -594.3149817585945, -2002.4321938753128, -223.07755255699158
 1.7075956074046388E9, -297.27716767787933, -628.3031925559044, -2031.1546255350113, -236.4813539981842
 1.7075956074202504E9, -286.5062558054924, -634.2870324850082, -2074.7169802188873, -233.8484644293785
 1.7075956074202504E9, -287.463670194149, -596.4691641330719, -2010.33086258173, -218.2904806137085
 1.7075956074207573E9, -294.16557091474533, -607.9581367969513, -2011.2882769703865, -235.28458601236343
 1.7075956074207573E9, -289.1391453742981, -635.7231540679932, -2075.43504101038, -239.1142435669899
 1.707595607434415E9, -277.1714655160904, -602.4530040621758, -2035.462990283966, -214.70017665624619
 1.707595607434415E9, -289.37849897146225, -598.3839929103851, -1998.6025363206863, -224.9923813343048
 1.7075956074500914E9, -295.12298530340195, -639.7921652197838, -2061.791885972023, -242.46519392728806
 1.7075956074500914E9, -282.9159518480301, -626.6277173757553, -2063.467361152172, -228.82203888893127
 1.7075956074506493E9, -285.78819501399994, -594.5543353557587, -1997.4057683348656, -218.52983421087265
 1.7075956074506493E9, -297.27716767787933, -628.7818997502327, -2039.7713550329208, -240.78971874713898
 1.7075956074641795E9, -284.8307806253433, -636.4412148594856, -2082.3762953281403, -236.4813539981842
 1.7075956074641795E9, -289.37849897146225, -596.9478713274002, -2018.229531288147, -221.64143097400665
 1.707595607479939E9, -310.20226192474365, -619.2077558636665, -2021.8198352456093, -246.05549788475037
 1.707595607479939E9, -293.686863720417, -645.7760051488876, -2073.5202122330666, -240.78971874713898
 1.7075956074805837E9, -283.15530544519424, -602.9317112565041, -2043.122305393219, -224.75302773714066
 1.7075956074805837E9, -298.4739356637001, -601.4955896735191, -2001.7141330838203, -234.56652522087097
 1.7075956074941795E9, -299.4313500523567, -641.4676403999329, -2057.9622284173965, -244.8587298989296
 1.7075956074941795E9, -285.78819501399994, -617.7716342806816, -2057.4835212230682, -224.27432054281235
 1.707595607509854E9, -309.0054939389229, -603.4104184508324, -1993.576110780239, -222.83819895982742
 1.707595607509854E9, -308.7661403417587, -631.1754357218742, -2036.1810510754585, -241.50777953863144
 1.7075956075105448E9, -289.37849897146225, -634.0476788878441, -2070.4086154699326, -224.27432054281235
 1.7075956075105448E9, -289.37849897146225, -597.6659321188927, -2015.3572881221771, -220.9233701825142
 1.7075956075241542E9, -297.5165212750435, -608.4368439912796, -2009.1340945959091, -234.08781802654266
 1.7075956075241542E9, -297.9952284693718, -642.4250547885895, -2076.1531018018723, -243.66196191310883
 1.7075956075398428E9, -294.4049245119095, -612.2665015459061, -2042.6435981988907, -221.4020773768425
 1.7075956075398428E9, -311.6383835077286, -611.3090871572495, -2004.347022652626, -237.67812198400497
 1.7075956075405505E9, -303.50036120414734, -650.0843698978424, -2062.031239569187, -244.61937630176544
 1.7075956075405505E9, -290.8146205544472, -631.1754357218742, -2063.9460683465004, -229.30074608325958
 1.7075956075545151E9, -295.12298530340195, -598.3839929103851, -2006.5012050271034, -227.6252709031105
 1.7075956075545151E9, -306.13325077295303, -635.483800470829, -2041.9255374073982, -245.3374370932579
 1.7075956075699265E9, -289.6178525686264, -642.4250547885895, -2087.1633672714233, -241.7471331357956
 1.7075956075699265E9, -292.96880292892456, -603.4104184508324, -2018.9475920796394, -225.23173493146896
 1.7075956075705855E9, -310.68096911907196, -619.6864630579948, -2015.3572881221771, -239.1142435669899
 1.7075956075705855E9, -289.85720616579056, -646.7334195375443, -2080.461466550827, -242.7045475244522
 1.7075956075841513E9, -287.22431659698486, -607.479429602623, -2042.4042446017265, -225.47108852863312
 1.7075956075841513E9, -298.4739356637001, -607.0007224082947, -1998.6025363206863, -228.82203888893127
 1.7075956075998023E9, -304.6971291899681, -636.9199220538139, -2067.775725901127, -249.88515543937683
 1.7075956075998023E9, -284.11271983385086, -615.8568055033684, -2056.0473996400833, -225.23173493146896
 1.70759560760057E9, -292.2507421374321, -593.596920967102, -1999.3205971121788, -225.94979572296143
 1.70759560760057E9, -303.50036120414734, -633.8083252906799, -2035.7023438811302, -242.2258403301239
 1.7075956076141047E9, -282.1978910565376, -628.3031925559044, -2078.546637773514, -237.91747558116913
 1.7075956076141047E9, -285.30948781967163, -599.1020537018776, -2010.33086258173, -215.1788838505745
 1.7075956076297603E9, -296.08039969205856, -607.0007224082947, -2009.3734481930733, -231.45492845773697
 1.7075956076297603E9, -282.9159518480301, -639.0741044282913, -2065.8608971238136, -233.8484644293785
 1.7075956076304758E9, -285.5488414168358, -605.0858936309814, -2029.7185039520264, -217.8117734193802
 1.7075956076304758E9, -296.55910688638687, -593.8362745642662, -1992.1399891972542, -224.75302773714066
 1.707595607644405E9, -296.08039969205856, -639.0741044282913, -2056.2867532372475, -239.83230435848236
 1.707595607644405E9, -281.00112307071686, -617.2929270863533, -2054.13257086277, -224.0349669456482
 1.7075956076602516E9, -292.7294493317604, -586.8950202465057, -1988.0709780454636, -215.6575910449028
 1.7075956076602516E9, -292.49009573459625, -614.6600375175476, -2033.3088079094887, -244.3800227046013
 1.7075956076606553E9, -281.47983026504517, -634.7657396793365, -2072.0840906500816, -236.0026468038559
 1.7075956076606553E9, -284.352073431015, -590.7246778011322, -2012.4850449562073, -220.44466298818588
 1.7075956076905744E9, -294.8836317062378, -609.3942583799362, -2014.1605201363564, -239.83230435848236
 1.7075956076905744E9, -279.0862942934036, -628.3031925559044, -2067.5363723039627, -234.08781802654266
 1.7075956076914823E9, -272.8631007671356, -601.9742968678474, -2029.239796757698, -209.67375111579895
 1.7075956076914823E9, -292.96880292892456, -591.6820921897888, -1988.0709780454636, -220.44466298818588
 1.7075956076922004E9, -285.30948781967163, -622.5587062239647, -2055.808046042919, -238.39618277549744
 1.7075956076922004E9, -270.70891839265823, -608.1974903941154, -2058.2015820145607, -231.93363565206528
 1.7075956077043865E9, -284.8307806253433, -585.4588986635208, -1995.7302931547165, -225.23173493146896
 1.7075956077043865E9, -292.01138854026794, -618.4896950721741, -2035.9416974782944, -244.14066910743713
 1.7075956077198436E9, -281.7191838622093, -628.7818997502327, -2070.887322664261, -235.5239396095276
 1.7075956077198436E9, -286.5062558054924, -593.3575673699379, -2007.2192658185959, -220.44466298818588
 1.7075956077205553E9, -297.5165212750435, -607.0007224082947, -2008.1766802072525, -236.4813539981842
 1.7075956077205553E9, -279.8043550848961, -636.2018612623215, -2072.323444247246, -237.43876838684082
 1.7075956077341552E9, -277.1714655160904, -598.8627001047134, -2035.9416974782944, -219.48724859952927
 1.7075956077341552E9, -292.96880292892456, -589.2885562181473, -1992.8580499887466, -226.18914932012558
 1.707595607749118E9, -286.5062558054924, -625.9096565842628, -2058.440935611725, -243.18325471878052
 1.707595607749118E9, -277.1714655160904, -613.4632695317268, -2054.3719244599342, -224.75302773714066
 1.7075956077651613E9, -288.89979177713394, -620.8832310438156, -2031.3939791321754, -234.80587881803513
 1.7075956077651613E9, -274.0598687529564, -632.1328501105309, -2070.4086154699326, -234.56652522087097
 1.7075956077656524E9, -282.1978910565376, -588.3311418294907, -2009.6128017902374, -217.09371262788773
 1.7075956077656524E9, -291.53268134593964, -603.1710648536682, -2004.5863762497902, -228.34333169460297
 1.707595607779519E9, -283.15530544519424, -635.483800470829, -2072.323444247246, -230.2581604719162
 1.707595607779519E9, -274.5385759472847, -600.0594680905342, -2033.5481615066528, -219.2478950023651
 1.707595607795189E9, -286.26690220832825, -593.596920967102, -1987.8316244482994, -222.12013816833496
 1.707595607795189E9, -276.6927583217621, -619.6864630579948, -2044.3190733790398, -229.54009968042374
 1.707595607795699E9, -268.07602882385254, -607.7187831997871, -2048.3880845308304, -213.0247014760971
 1.707595607795699E9, -286.0275486111641, -589.0492026209831, -1988.3103316426277, -217.33306622505188
 1.7075956078257551E9, -294.64427810907364, -620.1651702523232, -2019.905006468296, -233.3697572350502
 1.7075956078257551E9, -269.99085760116577, -622.3193526268005, -2061.0738251805305, -220.20530939102173
 1.707595607826445E9, -275.4959903359413, -584.0227770805359, -1998.6025363206863, -207.99827593564987
 1.707595607826445E9, -293.9262173175812, -613.4632695317268, -2000.9960722923279, -222.83819895982742
 1.7075956078270786E9, -286.26690220832825, -635.2444468736649, -2065.3821899294853, -233.8484644293785
 1.7075956078270786E9, -275.9746975302696, -595.9904569387436, -2029.4791503548622, -211.82793349027634
 1.707595607839142E9, -292.2507421374321, -597.6659321188927, -1988.3103316426277, -221.8807845711708
 1.707595607839142E9, -289.6178525686264, -634.2870324850082, -2053.4145100712776, -239.1142435669899
 1.707595607855056E9, -278.84694069623947, -615.6174519062042, -2053.6538636684418, -223.55625975131989
 1.707595607855056E9, -282.1978910565376, -588.0917882323265, -1994.5335251688957, -224.0349669456482
 1.7075956078562815E9, -301.82488602399826, -632.1328501105309, -2028.2823823690414, -237.43876838684082
 1.7075956078562815E9, -283.8733662366867, -629.7393141388893, -2068.254433095455, -222.83819895982742
 1.707595607869475E9, -279.0862942934036, -586.1769594550133, -2002.910901069641, -211.34922629594803
 1.707595607869475E9, -294.16557091474533, -607.0007224082947, -2003.8683154582977, -230.01880687475204
 1.7075956078851116E9, -290.8146205544472, -641.9463475942612, -2075.913748204708, -239.1142435669899
 1.7075956078851116E9, -277.6501727104187, -604.1284792423248, -2035.7023438811302, -220.44466298818588
 1.707595607885692E9, -297.0378140807152, -600.5381752848625, -2003.3896082639694, -234.56652522087097
 1.707595607885692E9, -296.3197532892227, -641.706993997097, -2062.988653957844, -246.77355867624283
 1.7075956078991194E9, -280.52241587638855, -619.6864630579948, -2049.106145322323, -218.2904806137085
 1.7075956078991194E9, -287.70302379131317, -581.8685947060585, -1978.4968341588974, -207.04086154699326
 1.7075956079148252E9, -292.01138854026794, -623.5161206126213, -2023.2559568285942, -232.8910500407219
 1.7075956079148252E9, -277.6501727104187, -626.6277173757553, -2060.8344715833664, -218.05112701654434
 1.7075956079155183E9, -281.00112307071686, -590.0066170096397, -2002.910901069641, -208.9556903243065
 1.7075956079155183E9, -293.686863720417, -611.0697335600853, -2002.671547472477, -229.30074608325958
 1.707595607929198E9, -288.1817309856415, -638.8347508311272, -2067.0576651096344, -228.82203888893127
 1.707595607929198E9, -274.77792954444885, -598.3839929103851, -2022.0591888427734, -201.5357288122177
 1.7075956079451597E9, -292.96880292892456, -590.0066170096397, -1988.789038836956, -216.85435903072357
 1.7075956079451597E9, -289.1391453742981, -634.5263860821724, -2051.020974099636, -237.67812198400497
 1.7075956079455469E9, -280.2830622792244, -613.4632695317268, -2052.217742085457, -213.74276226758957
 1.7075956079455469E9, -296.3197532892227, -594.5543353557587, -1989.9858068227768, -209.4343975186348
 1.707595607959156E9, -309.9629083275795, -633.3296180963516, -2038.0958798527718, -244.8587298989296
 1.707595607959156E9, -289.37849897146225, -635.2444468736649, -2073.5202122330666, -234.56652522087097
 1.7075956079751005E9, -286.26690220832825, -594.5543353557587, -2010.570216178894, -213.26405507326126
 1.7075956079751005E9, -303.02165400981903, -613.9419767260551, -2013.2031057476997, -231.93363565206528
 1.7075956079755905E9, -291.0539741516113, -640.0315188169479, -2071.6053834557533, -231.45492845773697
 1.7075956079755905E9, -283.15530544519424, -604.6071864366531, -2031.3939791321754, -206.8015079498291
 1.7075956079893732E9, -300.1494108438492, -604.6071864366531, -1991.1825748085976, -222.83819895982742
 1.7075956079893732E9, -294.4049245119095, -637.3986292481422, -2055.0899852514267, -235.28458601236343
 1.7075956080055947E9, -281.7191838622093, -616.814219892025, -2057.244167625904, -222.59884536266327
 1.7075956080055947E9, -295.60169249773026, -591.4427385926247, -1993.576110780239, -218.2904806137085
 1.7075956080056684E9, -294.16557091474533, -622.0799990296364, -2031.8726863265038, -238.6355363726616
 1.7075956080056684E9, -269.99085760116577, -615.3780983090401, -2058.440935611725, -219.48724859952927
 1.7075956080193293E9, -284.352073431015, -591.921445786953, -2013.681812942028, -214.46082305908203
 1.7075956080193293E9, -289.85720616579056, -603.6497720479965, -2009.1340945959091, -236.72070759534836
 1.7075956080351505E9, -280.52241587638855, -625.9096565842628, -2070.887322664261, -236.9600611925125
 1.7075956080351505E9, -275.017283141613, -597.9052857160568, -2026.8462607860565, -211.82793349027634
 1.7075956080357013E9, -293.2081565260887, -595.7511033415794, -2000.0386579036713, -230.7368676662445
 1.7075956080357013E9, -295.12298530340195, -636.4412148594856, -2057.7228748202324, -245.8161442875862
 1.7075956080491996E9, -281.9585374593735, -615.8568055033684, -2049.106145322323, -221.16272377967834
 1.7075956080491996E9, -284.11271983385086, -589.2885562181473, -1991.6612820029259, -213.26405507326126
 1.7075956080648315E9, -294.64427810907364, -619.2077558636665, -2034.0268687009811, -234.08781802654266
 1.7075956080648315E9, -271.4269791841507, -618.7290486693382, -2061.791885972023, -219.00854140520096
 1.7075956080655606E9, -274.5385759472847, -573.7305724024773, -2004.347022652626, -209.4343975186348
 1.7075956080655606E9, -292.2507421374321, -601.9742968678474, -2003.8683154582977, -227.86462450027466
 1.7075956080796676E9, -285.0701342225075, -641.4676403999329, -2073.5202122330666, -232.8910500407219
 1.7075956080796676E9, -284.11271983385086, -606.0433080196381, -2030.1972111463547, -211.82793349027634
 1.7075956080950584E9, -292.96880292892456, -594.7936889529228, -1993.576110780239, -218.05112701654434
 1.7075956080950584E9, -291.53268134593964, -632.8509109020233, -2057.244167625904, -233.13040363788605
 1.7075956080955832E9, -277.1714655160904, -614.4206839203835, -2050.3029133081436, -217.33306622505188
 1.7075956080955832E9, -290.0965597629547, -592.1607993841171, -1989.9858068227768, -211.10987269878387
 1.7075956081094468E9, -303.50036120414734, -629.7393141388893, -2034.0268687009811, -236.72070759534836
 1.7075956081094468E9, -285.30948781967163, -630.9360821247101, -2068.254433095455, -225.94979572296143
 1.7075956081248531E9, -286.26690220832825, -591.921445786953, -2008.4160338044167, -207.99827593564987
 1.7075956081248531E9, -298.9526428580284, -610.3516727685928, -2015.3572881221771, -232.8910500407219
 1.7075956081258392E9, -292.01138854026794, -646.0153587460518, -2075.43504101038, -241.02907234430313
 1.7075956081258392E9, -279.3256478905678, -594.0756281614304, -2027.564321577549, -209.4343975186348
 1.7075956081394944E9, -302.0642396211624, -594.3149817585945, -1992.3793427944183, -219.72660219669342
 1.7075956081394944E9, -295.12298530340195, -629.7393141388893, -2041.686183810234, -224.75302773714066
 1.707595608155251E9, -277.41081911325455, -607.479429602623, -2045.2764877676964, -211.34922629594803
 1.707595608155251E9, -288.42108458280563, -581.8685947060585, -1979.6936021447182, -207.04086154699326
 1.70759560815587E9, -288.6604381799698, -614.4206839203835, -2021.1017744541168, -224.27432054281235
 1.70759560815587E9, -274.0598687529564, -623.2767670154572, -2053.6538636684418, -208.23762953281403
 1.707595608169468E9, -281.9585374593735, -581.6292411088943, -1996.687707543373, -200.5783144235611
 1.707595608169468E9, -286.26690220832825, -591.921445786953, -1993.336757183075, -216.61500543355942
 1.707595608185171E9, -283.63401263952255, -633.0902644991875, -2056.765460431576, -214.93953025341034
 1.707595608185171E9, -269.7515040040016, -587.1343738436699, -2016.0753489136696, -190.76481693983078
 1.707595608185655E9, -289.6178525686264, -588.809849023819, -1977.778773367405, -206.56215435266495
 1.707595608185655E9, -285.0701342225075, -616.814219892025, -2036.899111866951, -225.23173493146896
 1.7075956081996481E9, -277.6501727104187, -610.1123191714287, -2042.6435981988907, -208.71633672714233
 1.7075956081996481E9, -292.7294493317604, -584.0227770805359, -1982.0871381163597, -205.12603276968002
 1.7075956082153625E9, -292.7294493317604, -604.6071864366531, -2013.9211665391922, -218.05112701654434
 1.7075956082153625E9, -275.4959903359413, -621.6012918353081, -2056.0473996400833, -210.63116550445557
 1.7075956082156887E9, -281.7191838622093, -586.4163130521774, -1987.5922708511353, -194.8338280916214
 1.7075956082156887E9, -288.42108458280563, -598.144639313221, -1983.7626132965088, -205.84409356117249
 1.7075956082292273E9, -277.6501727104187, -621.8406454324722, -2054.13257086277, -211.58857989311218
 1.7075956082292273E9, -268.07602882385254, -581.150533914566, -2011.7669841647148, -194.11576730012894
 1.707595608244878E9, -283.63401263952255, -578.5176443457603, -1968.2046294808388, -201.29637521505356
 1.707595608244878E9, -280.04370868206024, -608.6761975884438, -2030.1972111463547, -214.93953025341034
 1.7075956082456264E9, -268.55473601818085, -592.1607993841171, -2030.9152719378471, -199.14219284057617
 1.7075956082456264E9, -276.93211191892624, -568.4647932648659, -1967.4865686893463, -193.39770650863647
 1.7075956082591453E9, -285.78819501399994, -600.5381752848625, -2011.0489233732224, -218.7691878080368
 1.7075956082591453E9, -278.128879904747, -627.8244853615761, -2052.696449279785, -211.82793349027634
 1.707595608275051E9, -280.04370868206024, -584.2621306777, -1989.9858068227768, -196.74865686893463
 1.707595608275051E9, -301.5855324268341, -607.2400760054588, -1998.123829126358, -222.35949176549911
 1.7075956082755473E9, -288.1817309856415, -630.4573749303818, -2057.244167625904, -227.1465637087822
 1.7075956082755473E9, -279.8043550848961, -591.2033849954605, -2023.2559568285942, -208.47698312997818
 1.7075956082890832E9, -288.1817309856415, -577.5602299571037, -1978.018126964569, -215.41823744773865
 1.7075956082890832E9, -287.22431659698486, -624.9522421956062, -2042.8829517960548, -225.47108852863312
 1.7075956083053148E9, -277.1714655160904, -603.4104184508324, -2036.4204046726227, -204.40797197818756
 1.7075956083053148E9, -282.1978910565376, -575.1666939854622, -1979.9329557418823, -202.97185039520264
 1.7075956083056111E9, -287.9423773884773, -616.3355126976967, -2021.5804816484451, -223.55625975131989
 1.7075956083056111E9, -277.41081911325455, -620.1651702523232, -2059.3983500003815, -212.5459942817688
 1.7075956083191626E9, -274.29922235012054, -582.3473019003868, -2000.0386579036713, -204.1686183810234
 1.7075956083191626E9, -296.08039969205856, -601.9742968678474, -2004.1076690554619, -229.30074608325958
 1.7075956083348465E9, -278.6075870990753, -626.6277173757553, -2059.1589964032173, -223.31690615415573
 1.7075956083348465E9, -281.240476667881, -601.256236076355, -2029.4791503548622, -211.10987269878387
 1.707595608335565E9, -285.78819501399994, -588.5704954266548, -1983.0445525050163, -219.2478950023651
 1.707595608335565E9, -284.11271983385086, -628.5425461530685, -2047.909377336502, -231.21557486057281
 1.707595608349117E9, -274.77792954444885, -612.9845623373985, -2047.909377336502, -214.70017665624619
 1.707595608349117E9, -295.8410460948944, -587.8524346351624, -1985.677442073822, -215.89694464206696
 1.707595608364876E9, -305.1758363842964, -626.8670709729195, -2031.8726863265038, -236.24200040102005
 1.707595608364876E9, -281.47983026504517, -632.1328501105309, -2069.451201081276, -230.97622126340866
 1.7075956083655648E9, -283.15530544519424, -597.1872249245644, -2004.1076690554619, -212.78534787893295
 1.7075956083655648E9, -301.5855324268341, -615.1387447118759, -2001.7141330838203, -228.34333169460297
 1.7075956083794515E9, -288.42108458280563, -635.9625076651573, -2068.4937866926193, -232.65169644355774
 1.7075956083794515E9, -275.25663673877716, -590.9640313982964, -2032.112039923668, -210.15245831012726
 1.7075956083952467E9, -299.4313500523567, -597.4265785217285, -1992.6186963915825, -217.33306622505188
 1.7075956083952467E9, -296.08039969205856, -637.1592756509781, -2057.00481402874, -235.28458601236343
 1.7075956083956873E9, -288.6604381799698, -624.2341814041138, -2054.8506316542625, -219.00854140520096
 1.7075956083956873E9, -288.1817309856415, -588.3311418294907, -1991.4219284057617, -213.98211586475372
 1.7075956084092863E9, -305.41518998146057, -629.7393141388893, -2029.4791503548622, -229.30074608325958
 1.7075956084092863E9, -288.1817309856415, -633.5689716935158, -2072.323444247246, -228.58268529176712
 1.707595608424836E9, -286.0275486111641, -592.4001529812813, -2008.1766802072525, -208.47698312997818
 1.707595608424836E9, -301.34617882966995, -614.8993911147118, -2011.2882769703865, -225.94979572296143
 1.7075956084255571E9, -284.352073431015, -630.9360821247101, -2068.4937866926193, -223.55625975131989
 1.7075956084255571E9, -276.45340472459793, -597.1872249245644, -2031.6333327293396, -207.51956874132156
 1.707595608439504E9, -305.41518998146057, -597.1872249245644, -1989.2677460312843, -213.98211586475372
 1.707595608439504E9, -301.34617882966995, -640.7495796084404, -2052.217742085457, -230.7368676662445
 1.7075956084550831E9, -281.240476667881, -621.1225846409798, -2051.7390348911285, -208.9556903243065
 1.7075956084550831E9, -288.6604381799698, -586.8950202465057, -1989.0283924341202, -203.45055758953094
 1.7075956084556623E9, -295.60169249773026, -620.6438774466515, -2022.5378960371017, -226.90721011161804
 1.7075956084556623E9, -287.22431659698486, -629.9786677360535, -2073.7595658302307, -226.6678565144539
 1.7075956084691403E9, -288.1817309856415, -589.2885562181473, -2006.0224978327751, -211.58857989311218
 1.7075956084691403E9, -302.30359321832657, -610.591026365757, -2003.3896082639694, -225.23173493146896
 1.7075956084849107E9, -284.11271983385086, -629.260606944561, -2067.775725901127, -228.82203888893127
 1.7075956084849107E9, -277.88952630758286, -592.1607993841171, -2031.8726863265038, -207.04086154699326
 1.707595608485568E9, -302.30359321832657, -598.8627001047134, -1990.7038676142693, -214.70017665624619
 1.707595608485568E9, -291.7720349431038, -632.6115573048592, -2050.3029133081436, -230.7368676662445
 1.7075956084991822E9, -279.56500148773193, -613.702623128891, -2049.345498919487, -210.87051910161972
 1.7075956084991822E9, -288.1817309856415, -586.1769594550133, -1988.0709780454636, -210.87051910161972
 1.707595608514901E9, -301.82488602399826, -619.6864630579948, -2027.3249679803848, -231.69428205490112
 1.707595608514901E9, -280.52241587638855, -620.4045238494873, -2069.211847484112, -224.0349669456482
 1.7075956085156205E9, -287.9423773884773, -594.3149817585945, -2008.4160338044167, -207.04086154699326
 1.7075956085156205E9, -300.6281180381775, -609.8729655742645, -2015.5966417193413, -233.3697572350502
 1.7075956085290997E9, -286.0275486111641, -632.8509109020233, -2072.56279784441, -234.08781802654266
 1.7075956085290997E9, -280.52241587638855, -609.3942583799362, -2033.0694543123245, -212.78534787893295
 1.7075956085450335E9, -314.0319194793701, -627.1064245700836, -1995.2515859603882, -217.09371262788773
 1.7075956085450335E9, -307.09066516160965, -660.8552817702293, -2061.552532374859, -235.76329320669174
 1.707595608545632E9, -291.2933277487755, -629.260606944561, -2054.6112780570984, -213.98211586475372
 1.707595608545632E9, -313.5532122850418, -622.3193526268005, -1986.3955028653145, -210.63116550445557
 1.7075956085593696E9, -317.3828698396683, -643.6218227744102, -2026.8462607860565, -225.47108852863312
 1.7075956085593696E9, -278.36823350191116, -640.0315188169479, -2054.13257086277, -208.23762953281403
 1.707595608575062E9, -279.3256478905678, -582.3473019003868, -1998.123829126358, -197.4667176604271
 1.707595608575062E9, -284.8307806253433, -587.1343738436699, -1993.8154643774033, -213.50340867042542
 1.707595608575608E9, -271.66633278131485, -612.7452087402344, -2061.3131787776947, -224.9923813343048
 1.707595608575608E9, -279.3256478905678, -592.6395065784454, -2020.3837136626244, -201.5357288122177
 1.707595608589695E9, -300.38876444101334, -592.1607993841171, -1981.6084309220314, -211.58857989311218
 1.707595608589695E9, -296.798460483551, -635.483800470829, -2051.7390348911285, -235.04523241519928
 1.7075956086053617E9, -284.59142702817917, -616.5748662948608, -2049.345498919487, -218.05112701654434
 1.7075956086053617E9, -299.19199645519257, -591.2033849954605, -1995.012232363224, -217.33306622505188
 1.7075956086058526E9, -308.5267867445946, -631.4147893190384, -2033.787515103817, -237.43876838684082
 1.7075956086058526E9, -301.5855324268341, -644.5792371630669, -2090.5143176317215, -244.3800227046013
 1.707595608619213E9, -302.30359321832657, -607.9581367969513, -2011.2882769703865, -211.10987269878387
 1.707595608619213E9, -298.71328926086426, -600.7775288820267, -1991.1825748085976, -214.70017665624619
 1.7075956086349015E9, -297.9952284693718, -635.2444468736649, -2061.791885972023, -218.2904806137085
 1.7075956086349015E9, -287.22431659698486, -602.6923576593399, -2017.9901776909828, -191.96158492565155
 1.7075956086357467E9, -300.38876444101334, -587.8524346351624, -1975.6245909929276, -200.33896082639694
 1.7075956086357467E9, -291.53268134593964, -615.8568055033684, -2031.8726863265038, -210.87051910161972
 1.707595608649191E9, -275.017283141613, -602.4530040621758, -2027.8036751747131, -185.4990378022194
 1.707595608649191E9, -290.0965597629547, -569.4222076535225, -1971.3162262439728, -185.9777449965477
 1.707595608664886E9, -297.9952284693718, -608.4368439912796, -2004.1076690554619, -205.60473996400833
 1.707595608664886E9, -281.9585374593735, -612.2665015459061, -2045.7551949620247, -195.3125352859497
 1.7075956086655996E9, -285.0701342225075, -570.3796220421791, -1988.3103316426277, -186.21709859371185
 1.7075956086655996E9, -294.4049245119095, -593.1182137727737, -1987.113563656807, -208.23762953281403
 1.707595608679162E9, -295.60169249773026, -630.6967285275459, -2054.3719244599342, -210.87051910161972
 1.707595608679162E9, -278.84694069623947, -586.1769594550133, -2015.3572881221771, -195.07318168878555
 1.7075956086948464E9, -300.1494108438492, -581.150533914566, -1977.0607125759125, -202.49314320087433
 1.7075956086948464E9, -294.8836317062378, -617.5322806835175, -2037.3778190612793, -216.1362982392311
 1.707595608695621E9, -285.78819501399994, -608.4368439912796, -2044.0797197818756, -199.38154643774033
 1.707595608695621E9, -300.1494108438492, -580.4324731230736, -1981.3690773248672, -204.1686183810234
 1.7075956087091296E9, -300.86747163534164, -609.6336119771004, -2021.341128051281, -223.79561334848404
 1.7075956087091296E9, -293.44751012325287, -623.9948278069496, -2058.680289208889, -213.50340867042542
 1.7075956087248878E9, -290.33591336011887, -586.4163130521774, -1996.448353946209, -197.4667176604271
 1.7075956087248878E9, -303.97906839847565, -605.3252472281456, -1998.6025363206863, -216.61500543355942
 1.7075956087258215E9, -290.575266957283, -628.0638389587402, -2067.0576651096344, -221.16272377967834
 1.7075956087258215E9, -280.52241587638855, -588.3311418294907, -2022.777249634266, -199.14219284057617
 1.707595608739454E9, -297.0378140807152, -581.150533914566, -1983.5232596993446, -209.9131047129631
 1.707595608739454E9, -295.8410460948944, -626.8670709729195, -2045.5158413648605, -220.68401658535004
 1.7075956087543988E9, -293.2081565260887, -618.7290486693382, -2053.893217265606, -210.87051910161972
 1.7075956087543988E9, -311.87773710489273, -600.2988216876984, -1995.7302931547165, -213.50340867042542
 1.7075956087698588E9, -295.3623389005661, -636.2018612623215, -2077.589223384857, -234.56652522087097
 1.7075956087698588E9, -304.93648278713226, -602.9317112565041, -2014.8785809278488, -215.89694464206696
 1.7075956087706149E9, -319.7764058113098, -619.2077558636665, -2024.452724814415, -240.07165795564651
 1.7075956087706149E9, -300.86747163534164, -646.0153587460518, -2073.5202122330666, -232.17298924922943
 1.7075956088005924E9, -292.96880292892456, -608.9155511856079, -2028.0430287718773, -209.4343975186348
 1.7075956088005924E9, -298.9526428580284, -597.9052857160568, -1980.4116629362106, -208.23762953281403
 1.707595608801263E9, -298.4739356637001, -634.2870324850082, -2046.7126093506813, -228.58268529176712
 1.707595608801263E9, -286.9849629998207, -608.1974903941154, -2046.7126093506813, -211.34922629594803
 1.7075956088020213E9, -297.5165212750435, -581.8685947060585, -1983.0445525050163, -202.01443600654602
 1.7075956088020213E9, -301.82488602399826, -613.4632695317268, -2018.4688848853111, -219.2478950023651
 1.7075956088145928E9, -288.1817309856415, -627.8244853615761, -2056.2867532372475, -211.82793349027634
 1.7075956088145928E9, -292.01138854026794, -590.485324203968, -1999.799304306507, -200.33896082639694
 1.707595608830335E9, -306.13325077295303, -612.0271479487419, -1996.9270611405373, -213.50340867042542
 1.707595608830335E9, -297.9952284693718, -633.5689716935158, -2056.765460431576, -220.68401658535004
 1.7075956088306851E9, -292.49009573459625, -597.4265785217285, -2021.1017744541168, -197.4667176604271
 1.7075956088306851E9, -300.6281180381775, -591.4427385926247, -1976.34265178442, -201.77508240938187
 1.7075956088442397E9, -297.75587487220764, -623.2767670154572, -2040.2500622272491, -222.35949176549911
 1.7075956088442397E9, -280.7617694735527, -609.6336119771004, -2040.2500622272491, -207.2802151441574
 1.7075956088600345E9, -293.2081565260887, -580.1931195259094, -1983.5232596993446, -204.1686183810234
 1.7075956088600345E9, -287.9423773884773, -615.6174519062042, -2016.793409705162, -216.61500543355942
 1.7075956088606148E9, -286.9849629998207, -627.1064245700836, -2060.116410791874, -207.99827593564987
 1.7075956088606148E9, -283.63401263952255, -578.5176443457603, -1991.1825748085976, -198.66348564624786
 1.7075956088742108E9, -304.45777559280396, -605.0858936309814, -2000.7567186951637, -221.8807845711708
 1.7075956088742108E9, -293.9262173175812, -634.0476788878441, -2059.6377035975456, -221.16272377967834
 1.7075956088899071E9, -281.240476667881, -599.3414072990417, -2017.7508240938187, -200.81766802072525
 1.7075956088899071E9, -294.16557091474533, -591.6820921897888, -1984.001966893673, -213.74276226758957
 1.707595608890571E9, -287.9423773884773, -625.1915957927704, -2049.584852516651, -229.7794532775879
 1.707595608890571E9, -277.6501727104187, -601.9742968678474, -2050.5422669053078, -208.23762953281403
 1.707595608904176E9, -293.686863720417, -589.7672634124756, -1987.5922708511353, -205.12603276968002
 1.707595608904176E9, -308.2874331474304, -628.0638389587402, -2022.5378960371017, -222.83819895982742
 1.7075956089199295E9, -290.575266957283, -624.9522421956062, -2057.244167625904, -213.98211586475372
 1.7075956089199295E9, -287.22431659698486, -586.6556666493416, -1995.9696467518806, -199.86025363206863
 1.7075956089205823E9, -303.50036120414734, -607.7187831997871, -2000.9960722923279, -227.38591730594635
 1.7075956089205823E9, -296.55910688638687, -644.3398835659027, -2066.578957915306, -228.58268529176712
 1.7075956089345455E9, -290.8146205544472, -605.8039544224739, -2028.2823823690414, -208.9556903243065
 1.7075956089345455E9, -300.86747163534164, -590.9640313982964, -1987.5922708511353, -219.00854140520096
 1.7075956089502978E9, -299.19199645519257, -632.372203707695, -2054.6112780570984, -232.65169644355774
 1.7075956089502978E9, -286.74560940265656, -617.5322806835175, -2046.7126093506813, -214.22146946191788
 1.707595608950772E9, -296.55910688638687, -591.2033849954605, -1990.7038676142693, -211.58857989311218
 1.707595608950772E9, -301.82488602399826, -627.3457781672478, -2024.9314320087433, -229.54009968042374
 1.7075956089642687E9, -292.96880292892456, -633.3296180963516, -2068.254433095455, -225.94979572296143
 1.7075956089642687E9, -297.27716767787933, -594.7936889529228, -2002.1928402781487, -209.19504392147064
 1.7075956089801676E9, -304.2184219956398, -606.0433080196381, -2000.5173650979996, -221.8807845711708
 1.7075956089801676E9, -292.7294493317604, -634.2870324850082, -2063.9460683465004, -227.86462450027466
 1.7075956089806983E9, -285.78819501399994, -596.708517730236, -2026.3675535917282, -213.0247014760971
 1.7075956089806983E9, -310.4416155219078, -605.5646008253098, -1994.0548179745674, -226.6678565144539
 1.7075956089941156E9, -302.0642396211624, -642.4250547885895, -2050.5422669053078, -230.49751406908035
 1.7075956089941156E9, -286.9849629998207, -617.2929270863533, -2051.9783884882927, -215.41823744773865
 1.7075956090098653E9, -293.44751012325287, -586.6556666493416, -1993.576110780239, -217.09371262788773
 1.7075956090098653E9, -296.55910688638687, -620.4045238494873, -2032.8301007151604, -234.56652522087097
 1.7075956090105777E9, -296.798460483551, -637.1592756509781, -2071.366029858589, -228.58268529176712
 1.7075956090105777E9, -297.75587487220764, -586.6556666493416, -2012.4850449562073, -219.48724859952927
 1.7075956090242772E9, -309.0054939389229, -612.0271479487419, -2006.0224978327751, -230.01880687475204
 1.7075956090242772E9, -300.6281180381775, -641.706993997097, -2069.211847484112, -231.69428205490112
 1.7075956090400991E9, -286.0275486111641, -596.9478713274002, -2029.9578575491905, -211.34922629594803
 1.7075956090400991E9, -303.2610076069832, -595.033042550087, -1995.7302931547165, -225.23173493146896
 1.707595609040584E9, -296.3197532892227, -631.6541429162025, -2052.696449279785, -234.80587881803513
 1.707595609040584E9, -283.63401263952255, -609.1549047827721, -2047.670023739338, -214.70017665624619
 1.7075956090541532E9, -296.08039969205856, -580.6718267202377, -1992.3793427944183, -218.2904806137085
 1.7075956090541532E9, -299.4313500523567, -615.3780983090401, -2025.8888463974, -232.8910500407219
 1.7075956090699036E9, -296.3197532892227, -630.4573749303818, -2064.1854219436646, -219.48724859952927
 1.7075956090699036E9, -286.26690220832825, -583.7834234833717, -1999.799304306507, -201.77508240938187
 1.7075956090706377E9, -302.5429468154907, -604.1284792423248, -2004.8257298469543, -223.79561334848404
 1.7075956090706377E9, -289.37849897146225, -633.3296180963516, -2064.903482735157, -230.7368676662445
 1.707595609084205E9, -282.67659825086594, -598.3839929103851, -2030.9152719378471, -211.82793349027634
 1.707595609084205E9, -298.71328926086426, -590.0066170096397, -1984.9593812823296, -215.1788838505745
 1.7075956090998511E9, -296.798460483551, -627.3457781672478, -2049.345498919487, -230.97622126340866
 1.7075956090998511E9, -270.70891839265823, -601.9742968678474, -2049.345498919487, -209.67375111579895
 1.7075956091005714E9, -286.74560940265656, -581.8685947060585, -1982.0871381163597, -204.40797197818756
 1.7075956091005714E9, -298.9526428580284, -618.9684022665024, -2030.1972111463547, -234.56652522087097
 1.707595609114633E9, -284.8307806253433, -621.6012918353081, -2071.126676261425, -224.5136741399765
 1.707595609114633E9, -284.59142702817917, -579.475058734417, -2006.9799122214317, -208.47698312997818
 1.7075956091301E9, -306.8513115644455, -608.6761975884438, -2003.8683154582977, -231.45492845773697
 1.7075956091301E9, -297.0378140807152, -638.1166900396347, -2072.0840906500816, -232.17298924922943
 1.707595609130619E9, -284.59142702817917, -599.3414072990417, -2031.1546255350113, -213.74276226758957
 1.707595609130619E9, -301.82488602399826, -596.2298105359077, -1988.3103316426277, -217.8117734193802
 1.7075956091443706E9, -293.686863720417, -639.3134580254555, -2055.808046042919, -236.4813539981842
 1.7075956091443706E9, -283.8733662366867, -618.4896950721741, -2055.568692445755, -217.33306622505188
 1.707595609160054E9, -291.0539741516113, -584.5014842748642, -1992.8580499887466, -215.89694464206696
 1.707595609160054E9, -297.5165212750435, -620.4045238494873, -2030.9152719378471, -234.56652522087097
 1.707595609160656E9, -280.2830622792244, -625.6703029870987, -2058.919642806053, -222.35949176549911
 1.707595609160656E9, -284.8307806253433, -588.5704954266548, -2000.7567186951637, -206.8015079498291
 1.7075956091744137E9, -304.2184219956398, -615.6174519062042, -2009.3734481930733, -227.6252709031105
 1.7075956091744137E9, -289.1391453742981, -640.7495796084404, -2064.1854219436646, -227.86462450027466
 1.707595609189931E9, -280.2830622792244, -597.4265785217285, -2029.9578575491905, -213.98211586475372
 1.707595609189931E9, -295.60169249773026, -593.1182137727737, -1986.8742100596428, -219.00854140520096
 1.707595609190544E9, -291.0539741516113, -626.6277173757553, -2047.909377336502, -227.1465637087822
 1.707595609190544E9, -282.1978910565376, -610.3516727685928, -2048.6274381279945, -213.26405507326126
 1.7075956092045703E9, -286.9849629998207, -581.3898875117302, -1983.2839061021805, -206.08344715833664
 1.7075956092045703E9, -290.0965597629547, -607.479429602623, -2027.564321577549, -230.49751406908035
 1.7075956092203023E9, -283.3946590423584, -624.9522421956062, -2062.031239569187, -220.20530939102173
 1.7075956092203023E9, -289.85720616579056, -589.5279098153114, -2004.1076690554619, -204.1686183810234
 1.707595609220614E9, -301.5855324268341, -606.7613688111305, -2010.33086258173, -221.16272377967834
 1.707595609220614E9, -282.9159518480301, -626.8670709729195, -2070.1692618727684, -224.9923813343048
 1.7075956092345226E9, -280.7617694735527, -597.9052857160568, -2034.7449294924736, -213.98211586475372
 1.7075956092345226E9, -299.910057246685, -586.1769594550133, -1991.90063560009, -222.12013816833496
 1.7075956092501695E9, -290.8146205544472, -626.3883637785912, -2042.8829517960548, -232.65169644355774
 1.7075956092501695E9, -284.11271983385086, -613.9419767260551, -2046.7126093506813, -213.74276226758957
 1.7075956092507935E9, -284.11271983385086, -582.586655497551, -1984.9593812823296, -213.50340867042542
 1.7075956092507935E9, -283.63401263952255, -616.3355126976967, -2021.341128051281, -235.28458601236343
 1.7075956092644477E9, -277.41081911325455, -619.2077558636665, -2074.238273024559, -253.7148129940033
 1.7075956092644477E9, -279.3256478905678, -580.9111803174019, -1998.3631827235222, -199.14219284057617
 1.7075956092798765E9, -285.78819501399994, -590.2459706068039, -1989.9858068227768, -204.64732557535172
 1.7075956092798765E9, -282.1978910565376, -623.037413418293, -2063.9460683465004, -234.08781802654266
 1.707595609280563E9, -268.55473601818085, -595.5117497444153, -2025.8888463974, -212.0672870874405
 1.707595609280563E9, -297.27716767787933, -595.7511033415794, -1986.8742100596428, -198.18477845191956
 1.7075956092943923E9, -283.63401263952255, -622.7980598211288, -2043.122305393219, -217.8117734193802
 1.7075956092943923E9, -279.8043550848961, -618.0109878778458, -2046.233902156353, -207.51956874132156
 1.707595609310052E9, -292.49009573459625, -591.4427385926247, -1985.1987348794937, -209.67375111579895
 1.707595609310052E9, -292.01138854026794, -617.7716342806816, -2020.3837136626244, -225.23173493146896
 1.7075956093105967E9, -281.7191838622093, -630.9360821247101, -2062.988653957844, -220.20530939102173
 1.7075956093105967E9, -277.6501727104187, -588.3311418294907, -2001.7141330838203, -203.6899111866951
 1.707595609324535E9, -297.5165212750435, -601.4955896735191, -1994.7728787660599, -218.05112701654434
 1.707595609324535E9, -276.2140511274338, -624.4735350012779, -2054.6112780570984, -222.35949176549911
 1.707595609340201E9, -272.3843935728073, -587.373727440834, -2026.8462607860565, -205.60473996400833
 1.707595609340201E9, -290.575266957283, -583.0653626918793, -1979.454248547554, -216.61500543355942
 1.7075956093406427E9, -284.352073431015, -620.1651702523232, -2048.3880845308304, -229.54009968042374
 1.7075956093406427E9, -269.51215040683746, -606.2826616168022, -2043.122305393219, -210.3918119072914
 1.7075956093542068E9, -293.9262173175812, -587.6130810379982, -1980.4116629362106, -207.99827593564987
 1.7075956093542068E9, -293.44751012325287, -615.6174519062042, -2016.793409705162, -227.38591730594635
 1.7075956093699124E9, -278.84694069623947, -625.6703029870987, -2068.9724938869476, -220.9233701825142
 1.7075956093699124E9, -274.77792954444885, -576.8421691656113, -1999.3205971121788, -202.01443600654602
 1.707595609370846E9, -285.30948781967163, -590.2459706068039, -1999.799304306507, -224.75302773714066
 1.707595609370846E9, -277.41081911325455, -629.260606944561, -2064.664129137993, -226.42850291728973
 1.7075956093844936E9, -276.45340472459793, -600.5381752848625, -2029.7185039520264, -214.93953025341034
 1.7075956093844936E9, -294.8836317062378, -594.5543353557587, -1986.1561492681503, -213.74276226758957
 1.7075956094000573E9, -296.798460483551, -632.8509109020233, -2046.233902156353, -228.58268529176712
 1.7075956094000573E9, -276.2140511274338, -615.8568055033684, -2045.7551949620247, -207.2802151441574
 1.7075956094009123E9, -289.37849897146225, -588.5704954266548, -1989.7464532256126, -213.98211586475372
 1.7075956094009123E9, -295.3623389005661, -617.2929270863533, -2028.7610895633698, -233.13040363788605
 1.7075956094141324E9, -282.67659825086594, -620.8832310438156, -2066.339604318142, -218.2904806137085
 1.7075956094141324E9, -292.7294493317604, -599.1020537018776, -2004.5863762497902, -207.51956874132156
 1.707595609446758E9, -303.50036120414734, -616.3355126976967, -2002.910901069641, -232.17298924922943
 1.707595609446758E9, -286.0275486111641, -638.1166900396347, -2065.142836332321, -228.34333169460297
 1.707595609446928E9, -282.9159518480301, -601.4955896735191, -2029.239796757698, -201.77508240938187
 1.707595609446928E9, -295.8410460948944, -596.708517730236, -1986.8742100596428, -211.58857989311218
 1.7075956094476788E9, -298.9526428580284, -640.2708724141121, -2060.355764389038, -236.9600611925125
 1.7075956094476788E9, -275.73534393310547, -604.367832839489, -2048.8667917251587, -220.68401658535004
 1.7075956094484243E9, -289.1391453742981, -586.6556666493416, -1986.8742100596428, -214.70017665624619
 1.7075956094484243E9, -300.1494108438492, -622.5587062239647, -2023.7346640229225, -234.80587881803513
 1.7075956094593735E9, -287.9423773884773, -634.7657396793365, -2057.9622284173965, -219.96595579385757
 1.7075956094593735E9, -288.6604381799698, -593.596920967102, -2001.235425889492, -201.77508240938187
 1.7075956094743714E9, -299.6707036495209, -607.9581367969513, -2000.5173650979996, -218.05112701654434
 1.7075956094743714E9, -283.8733662366867, -639.0741044282913, -2062.988653957844, -228.34333169460297
 1.7075956094901478E9, -284.59142702817917, -601.256236076355, -2028.2823823690414, -209.4343975186348
 1.7075956094901478E9, -295.60169249773026, -592.8788601756096, -1994.0548179745674, -220.20530939102173
 1.7075956094907155E9, -287.22431659698486, -625.6703029870987, -2052.9358028769493, -236.9600611925125
 1.7075956094907155E9, -286.9849629998207, -620.8832310438156, -2047.909377336502, -212.78534787893295
 1.7075956095041835E9, -287.463670194149, -587.1343738436699, -1988.5496852397919, -219.48724859952927
 1.7075956095041835E9, -293.9262173175812, -625.6703029870987, -2031.3939791321754, -236.4813539981842
 1.707595609519982E9, -287.22431659698486, -633.8083252906799, -2072.56279784441, -230.49751406908035
 1.707595609519982E9, -281.7191838622093, -584.5014842748642, -2005.3044370412827, -212.5459942817688
 1.7075956095205553E9, -303.2610076069832, -610.8303799629211, -2013.442459344864, -235.28458601236343
 1.7075956095205553E9, -292.2507421374321, -638.8347508311272, -2074.7169802188873, -237.19941478967667
 1.7075956095342085E9, -281.240476667881, -601.7349432706833, -2029.7185039520264, -210.15245831012726
 1.7075956095342085E9, -299.19199645519257, -594.3149817585945, -1991.1825748085976, -219.48724859952927
 1.707595609549875E9, -290.8146205544472, -628.5425461530685, -2049.345498919487, -233.3697572350502
 1.707595609549875E9, -278.128879904747, -608.6761975884438, -2046.233902156353, -214.46082305908203
 1.7075956095505724E9, -291.2933277487755, -586.6556666493416, -1987.352917253971, -208.71633672714233
 1.7075956095505724E9, -292.96880292892456, -611.7877943515778, -2023.9740176200867, -229.54009968042374
 1.7075956095641403E9, -280.7617694735527, -626.149010181427, -2065.142836332321, -219.00854140520096
 1.7075956095641403E9, -291.53268134593964, -592.8788601756096, -2012.7243985533714, -216.85435903072357
 1.7075956095799952E9, -302.7823004126549, -604.367832839489, -2009.3734481930733, -231.69428205490112
 1.7075956095799952E9, -292.7294493317604, -642.1857011914253, -2074.9563338160515, -234.08781802654266
 1.7075956095806322E9, -278.128879904747, -599.1020537018776, -2033.3088079094887, -209.9131047129631
 1.7075956095806322E9, -300.86747163534164, -601.256236076355, -1988.5496852397919, -216.37565183639526
 1.7075956095944817E9, -292.96880292892456, -629.9786677360535, -2051.2603276968002, -233.60911083221436
 1.7075956095944817E9, -287.463670194149, -617.5322806835175, -2053.1751564741135, -215.1788838505745
 1.707595609609851E9, -300.1494108438492, -595.7511033415794, -1990.9432212114334, -215.41823744773865
 1.707595609609851E9, -303.7397148013115, -630.9360821247101, -2035.7023438811302, -241.98648673295975
 1.707595609610567E9, -288.89979177713394, -634.5263860821724, -2070.6479690670967, -233.60911083221436
 1.707595609610567E9, -293.44751012325287, -597.1872249245644, -2012.006337761879, -219.96595579385757
 1.7075956096241767E9, -304.93648278713226, -609.3942583799362, -2015.8359953165054, -236.9600611925125
 1.7075956096241767E9, -292.96880292892456, -638.595397233963, -2076.6318089962006, -234.80587881803513
 1.7075956096401308E9, -290.8146205544472, -605.8039544224739, -2030.1972111463547, -208.23762953281403
 1.7075956096401308E9, -302.30359321832657, -605.8039544224739, -1998.3631827235222, -224.27432054281235
 1.7075956096406872E9, -309.4842011332512, -646.7334195375443, -2064.4247755408287, -249.88515543937683
 1.7075956096406872E9, -300.1494108438492, -631.1754357218742, -2067.0576651096344, -232.65169644355774
 1.707595609654643E9, -306.8513115644455, -598.3839929103851, -2010.33086258173, -234.08781802654266
 1.707595609654643E9, -304.6971291899681, -628.7818997502327, -2039.0532942414284, -250.12450903654099
 1.7075956096699555E9, -293.9262173175812, -632.8509109020233, -2085.9665992856026, -245.57679069042206
 1.7075956096699555E9, -302.0642396211624, -606.0433080196381, -2024.6920784115791, -256.347702562809
 1.707595609670628E9, -311.6383835077286, -620.1651702523232, -2012.7243985533714, -231.93363565206528
 1.707595609670628E9, -287.9423773884773, -629.260606944561, -2062.988653957844, -214.93953025341034
 1.707595609684198E9, -288.42108458280563, -609.3942583799362, -2031.8726863265038, -205.60473996400833
 1.707595609684198E9, -294.4049245119095, -599.82011449337, -1986.6348564624786, -213.98211586475372
 1.7075956096998596E9, -294.16557091474533, -633.5689716935158, -2042.1648910045624, -219.96595579385757
 1.7075956096998596E9, -284.11271983385086, -612.0271479487419, -2049.106145322323, -211.34922629594803
 1.7075956097005951E9, -293.44751012325287, -594.3149817585945, -1989.2677460312843, -216.61500543355942
 1.7075956097005951E9, -301.5855324268341, -623.9948278069496, -2030.675918340683, -234.80587881803513
 1.7075956097142172E9, -284.59142702817917, -624.9522421956062, -2069.211847484112, -227.86462450027466
 1.7075956097142172E9, -288.1817309856415, -595.5117497444153, -2005.0650834441185, -207.04086154699326
 1.7075956097298825E9, -296.798460483551, -606.7613688111305, -2000.7567186951637, -219.96595579385757
 1.7075956097298825E9, -281.240476667881, -635.0050932765007, -2061.3131787776947, -222.83819895982742
 1.7075956097305884E9, -289.1391453742981, -610.3516727685928, -2027.564321577549, -210.63116550445557
 1.7075956097305884E9, -295.60169249773026, -584.2621306777, -1988.789038836956, -217.8117734193802
 1.7075956097444725E9, -292.01138854026794, -628.5425461530685, -2045.5158413648605, -230.7368676662445
 1.7075956097444725E9, -281.47983026504517, -615.8568055033684, -2044.3190733790398, -208.47698312997818
 1.7075956097591534E9, -289.6178525686264, -588.0917882323265, -1987.113563656807, -210.87051910161972
 1.7075956097591534E9, -300.1494108438492, -625.9096565842628, -2022.0591888427734, -230.49751406908035
 1.7075956097748823E9, -290.8146205544472, -595.033042550087, -2009.8521553874016, -212.0672870874405
 1.7075956097748823E9, -309.0054939389229, -615.3780983090401, -2010.8095697760582, -225.71044212579727
 1.7075956097756743E9, -294.64427810907364, -642.4250547885895, -2075.913748204708, -237.43876838684082
 1.7075956097756743E9, -288.6604381799698, -609.6336119771004, -2042.6435981988907, -220.68401658535004
 1.707595609789596E9, -303.7397148013115, -602.2136504650116, -2002.4321938753128, -226.18914932012558
 1.707595609789596E9, -297.9952284693718, -641.2282868027687, -2054.6112780570984, -235.04523241519928
 1.707595609804845E9, -284.11271983385086, -621.6012918353081, -2059.1589964032173, -217.57241982221603
 1.707595609804845E9, -301.1068252325058, -594.0756281614304, -1993.8154643774033, -213.74276226758957
 1.7075956098055875E9, -308.5267867445946, -622.7980598211288, -2030.675918340683, -233.60911083221436
 1.7075956098055875E9, -288.1817309856415, -634.0476788878441, -2070.1692618727684, -225.71044212579727
 1.707595609819195E9, -291.0539741516113, -594.3149817585945, -2006.2618514299393, -211.82793349027634
 1.707595609819195E9, -306.8513115644455, -610.3516727685928, -2011.0489233732224, -233.3697572350502
 1.7075956098349621E9, -284.59142702817917, -632.372203707695, -2075.43504101038, -232.8910500407219
 1.7075956098349621E9, -273.82051515579224, -599.3414072990417, -2033.0694543123245, -211.82793349027634
 1.707595609835559E9, -300.38876444101334, -607.2400760054588, -1991.4219284057617, -222.35949176549911
 1.707595609835559E9, -305.8938971757889, -646.2547123432159, -2064.4247755408287, -246.29485148191452
 1.7075956098493345E9, -291.2933277487755, -624.2341814041138, -2065.3821899294853, -224.0349669456482
 1.7075956098493345E9, -304.93648278713226, -597.6659321188927, -2005.0650834441185, -219.96595579385757
 1.707595609864952E9, -309.4842011332512, -633.8083252906799, -2036.6597582697868, -248.4490338563919
 1.707595609864952E9, -289.1391453742981, -636.2018612623215, -2088.5994888544083, -243.66196191310883
 1.7075956098655915E9, -291.53268134593964, -594.7936889529228, -2021.341128051281, -223.55625975131989
 1.7075956098655915E9, -309.24484753608704, -623.5161206126213, -2021.1017744541168, -239.5929507613182
 1.707595609879194E9, -304.45777559280396, -659.1798065900803, -2087.4027208685875, -242.94390112161636
 1.707595609879194E9, -294.64427810907364, -620.8832310438156, -2045.7551949620247, -224.5136741399765
 1.707595609894892E9, -302.7823004126549, -614.6600375175476, -2000.0386579036713, -226.90721011161804
 1.707595609894892E9, -299.4313500523567, -640.7495796084404, -2064.664129137993, -247.4916194677353
 1.7075956098957255E9, -279.56500148773193, -615.3780983090401, -2064.903482735157, -225.23173493146896
 1.7075956098957255E9, -295.3623389005661, -591.2033849954605, -2002.4321938753128, -218.7691878080368
 1.7075956099093642E9, -308.2874331474304, -632.1328501105309, -2037.3778190612793, -243.42260831594467
 1.7075956099093642E9, -295.12298530340195, -645.7760051488876, -2080.461466550827, -233.60911083221436
 1.7075956099250367E9, -301.1068252325058, -598.8627001047134, -2014.6392273306847, -216.1362982392311
 1.7075956099250367E9, -304.93648278713226, -613.4632695317268, -2012.4850449562073, -231.21557486057281
 1.7075956099257472E9, -290.575266957283, -639.0741044282913, -2075.674394607544, -231.93363565206528
 1.7075956099257472E9, -285.30948781967163, -605.0858936309814, -2038.8139406442642, -211.10987269878387
 1.7075956099396315E9, -301.1068252325058, -605.3252472281456, -2003.3896082639694, -225.23173493146896
 1.7075956099396315E9, -306.13325077295303, -643.6218227744102, -2066.339604318142, -241.7471331357956
 1.707595609954918E9, -281.7191838622093, -618.9684022665024, -2057.7228748202324, -223.55625975131989
 1.707595609954918E9, -294.8836317062378, -593.1182137727737, -1998.3631827235222, -224.27432054281235
 1.7075956099556563E9, -294.64427810907364, -623.7554742097855, -2032.112039923668, -237.91747558116913
 1.7075956099556563E9, -286.9849629998207, -633.8083252906799, -2072.56279784441, -228.34333169460297
 1.707595609969164E9, -285.30948781967163, -591.6820921897888, -2007.9373266100883, -211.58857989311218
 1.707595609969164E9, -302.5429468154907, -614.1813303232193, -2005.5437906384468, -222.35949176549911
 1.7075956099853451E9, -282.67659825086594, -635.483800470829, -2073.998919427395, -224.9923813343048
 1.7075956099853451E9, -276.6927583217621, -598.3839929103851, -2029.7185039520264, -207.04086154699326
 1.7075956099999013E9, -298.23458206653595, -587.8524346351624, -1990.464514017105, -211.10987269878387
 1.7075956099999013E9, -286.74560940265656, -624.9522421956062, -2057.7228748202324, -237.43876838684082
 1.7075956100006068E9, -280.04370868206024, -621.6012918353081, -2049.584852516651, -215.6575910449028
 1.7075956100006068E9, -299.910057246685, -595.7511033415794, -1992.6186963915825, -214.22146946191788
 1.7075956100151165E9, -299.910057246685, -620.8832310438156, -2029.7185039520264, -232.41234284639359
 1.7075956100151165E9, -285.0701342225075, -629.7393141388893, -2067.775725901127, -220.68401658535004
 1.7075956100156207E9, -286.5062558054924, -591.2033849954605, -2004.8257298469543, -197.4667176604271
 1.7075956100156207E9, -299.4313500523567, -610.1123191714287, -2007.9373266100883, -219.48724859952927
 1.7075956100294728E9, -288.42108458280563, -640.9889332056046, -2072.802151441574, -231.69428205490112
 1.7075956100294728E9, -287.463670194149, -604.8465400338173, -2029.239796757698, -204.88667917251587
 1.7075956100450675E9, -299.4313500523567, -596.9478713274002, -1984.7200276851654, -214.46082305908203
 1.7075956100450675E9, -295.3623389005661, -635.0050932765007, -2040.7287694215775, -218.52983421087265
 1.7075956100456336E9, -284.8307806253433, -621.8406454324722, -2050.3029133081436, -209.67375111579895
 1.7075956100456336E9, -291.7720349431038, -580.4324731230736, -1995.7302931547165, -216.61500543355942
 1.707595610059414E9, -299.910057246685, -620.8832310438156, -2026.128199994564, -227.86462450027466
 1.707595610059414E9, -284.352073431015, -641.4676403999329, -2059.87705719471, -215.6575910449028
 1.707595610075409E9, -286.9849629998207, -600.2988216876984, -2004.8257298469543, -203.6899111866951
 1.707595610075409E9, -297.75587487220764, -607.7187831997871, -2004.5863762497902, -222.59884536266327
 1.707595610075677E9, -299.910057246685, -642.9037619829178, -2074.9563338160515, -227.38591730594635
 1.707595610075677E9, -290.8146205544472, -614.4206839203835, -2033.0694543123245, -212.30664068460464
 1.7075956100897248E9, -307.8087259531021, -607.2400760054588, -1995.7302931547165, -222.59884536266327
 1.7075956100897248E9, -303.2610076069832, -640.9889332056046, -2057.9622284173965, -235.76329320669174
 1.7075956101050456E9, -287.463670194149, -621.6012918353081, -2061.0738251805305, -223.07755255699158
 1.7075956101050456E9, -309.0054939389229, -603.1710648536682, -1993.336757183075, -213.98211586475372
 1.7075956101055944E9, -305.6545435786247, -630.6967285275459, -2032.351393520832, -232.65169644355774
 1.7075956101055944E9, -292.49009573459625, -640.9889332056046, -2076.3924553990364, -227.38591730594635
 1.7075956101192489E9, -303.2610076069832, -605.0858936309814, -2015.3572881221771, -211.10987269878387
 1.7075956101192489E9, -318.10093063116074, -622.0799990296364, -2019.1869456768036, -231.69428205490112
 1.7075956101351607E9, -301.82488602399826, -647.6908339262009, -2079.9827593564987, -237.91747558116913
 1.7075956101351607E9, -292.2507421374321, -611.0697335600853, -2039.7713550329208, -218.52983421087265
 1.7075956101357183E9, -315.7073946595192, -607.7187831997871, -2002.910901069641, -229.30074608325958
 1.7075956101357183E9, -303.02165400981903, -638.1166900396347, -2066.578957915306, -240.55036514997482
 1.707595610149521E9, -291.0539741516113, -624.9522421956062, -2062.031239569187, -221.4020773768425
 1.707595610149521E9, -298.9526428580284, -593.8362745642662, -2003.1502546668053, -219.72660219669342
 1.7075956101648915E9, -304.45777559280396, -633.3296180963516, -2036.899111866951, -232.17298924922943
 1.7075956101648915E9, -291.0539741516113, -640.2708724141121, -2073.998919427395, -231.21557486057281
 1.7075956101656609E9, -287.9423773884773, -595.9904569387436, -2012.9637521505356, -214.46082305908203
 1.7075956101656609E9, -308.2874331474304, -622.0799990296364, -2018.7082384824753, -229.7794532775879
 1.707595610179158E9, -285.5488414168358, -629.260606944561, -2073.0415050387383, -232.8910500407219
 1.707595610179158E9, -277.88952630758286, -601.0168824791908, -2038.8139406442642, -218.2904806137085
 1.7075956101950347E9, -300.86747163534164, -601.7349432706833, -1989.5070996284485, -213.26405507326126
 1.7075956101950347E9, -303.2610076069832, -645.0579443573952, -2052.9358028769493, -231.21557486057281
 1.707595610195598E9, -288.89979177713394, -619.2077558636665, -2052.457095682621, -215.1788838505745
 1.707595610195598E9, -295.60169249773026, -590.485324203968, -1994.2941715717316, -214.93953025341034
 1.7075956102091248E9, -299.6707036495209, -624.4735350012779, -2033.787515103817, -234.08781802654266
 1.7075956102091248E9, -290.8146205544472, -630.9360821247101, -2071.126676261425, -228.1039780974388
 1.707595610225031E9, -287.70302379131317, -586.8950202465057, -2007.9373266100883, -208.23762953281403
 1.707595610225031E9, -301.82488602399826, -609.8729655742645, -2012.2456913590431, -228.34333169460297
 1.7075956102256117E9, -289.6178525686264, -636.9199220538139, -2075.913748204708, -228.82203888893127
 1.7075956102256117E9, -292.96880292892456, -610.8303799629211, -2034.7449294924736, -213.74276226758957
 1.7075956102392044E9, -314.0319194793701, -605.3252472281456, -1994.2941715717316, -223.07755255699158
 1.7075956102392044E9, -303.97906839847565, -644.1005299687386, -2058.680289208889, -234.32717162370682
 1.7075956102551167E9, -291.53268134593964, -629.9786677360535, -2057.9622284173965, -212.5459942817688
 1.7075956102551167E9, -293.9262173175812, -590.9640313982964, -1997.8844755291939, -213.0247014760971
 1.7075956102555497E9, -301.34617882966995, -623.9948278069496, -2033.787515103817, -234.32717162370682
 1.7075956102555497E9, -288.6604381799698, -632.6115573048592, -2076.3924553990364, -224.27432054281235
 1.707595610269377E9, -289.85720616579056, -597.6659321188927, -2012.006337761879, -211.82793349027634
 1.707595610269377E9, -306.13325077295303, -623.5161206126213, -2018.229531288147, -230.01880687475204
 1.707595610284839E9, -304.93648278713226, -656.7862706184387, -2079.9827593564987, -236.72070759534836
 1.707595610284839E9, -293.686863720417, -615.6174519062042, -2038.8139406442642, -214.46082305908203
 1.7075956102856128E9, -308.04807955026627, -609.3942583799362, -2003.6289618611336, -234.80587881803513
 1.7075956102856128E9, -296.3197532892227, -639.0741044282913, -2062.5099467635155, -238.39618277549744
 1.707595610299729E9, -289.1391453742981, -622.5587062239647, -2057.00481402874, -217.09371262788773
 1.707595610299729E9, -294.4049245119095, -587.8524346351624, -1994.2941715717316, -209.67375111579895
 1.7075956103148477E9, -296.08039969205856, -621.1225846409798, -2035.223636686802, -236.24200040102005
 1.7075956103148477E9, -283.8733662366867, -631.4147893190384, -2073.0415050387383, -225.94979572296143
 1.7075956103155663E9, -295.12298530340195, -600.7775288820267, -2010.0915089845657, -211.10987269878387
 1.7075956103155663E9, -310.20226192474365, -617.5322806835175, -2008.4160338044167, -217.57241982221603
 1.707595610329164E9, -295.12298530340195, -643.6218227744102, -2076.1531018018723, -232.8910500407219
 1.707595610329164E9, -289.6178525686264, -611.3090871572495, -2036.899111866951, -213.98211586475372
 1.7075956103448927E9, -305.41518998146057, -601.0168824791908, -1997.8844755291939, -224.5136741399765
 1.7075956103448927E9, -302.0642396211624, -640.5102260112762, -2059.87705719471, -243.66196191310883
 1.7075956103455825E9, -286.74560940265656, -611.7877943515778, -2055.0899852514267, -219.48724859952927
 1.7075956103455825E9, -297.9952284693718, -593.1182137727737, -1990.464514017105, -215.6575910449028
 1.7075956103592396E9, -304.45777559280396, -630.2180213332176, -2028.7610895633698, -232.41234284639359
 1.7075956103592396E9, -289.85720616579056, -636.2018612623215, -2070.1692618727684, -226.90721011161804
 1.7075956103751595E9, -294.64427810907364, -599.3414072990417, -2011.0489233732224, -214.22146946191788
 1.7075956103751595E9, -297.9952284693718, -608.9155511856079, -2000.9960722923279, -219.96595579385757
 1.707595610375814E9, -279.8043550848961, -629.7393141388893, -2058.680289208889, -219.72660219669342
 1.707595610375814E9, -264.4857248663902, -585.2195450663567, -2021.341128051281, -203.6899111866951
 1.707595610389156E9, -287.9423773884773, -589.2885562181473, -1987.8316244482994, -209.19504392147064
 1.707595610389156E9, -290.0965597629547, -628.5425461530685, -2051.9783884882927, -230.2581604719162
 1.7075956104049408E9, -278.6075870990753, -614.6600375175476, -2046.4732557535172, -216.37565183639526
 1.7075956104049408E9, -288.1817309856415, -589.0492026209831, -1989.0283924341202, -215.6575910449028
 1.707595610405644E9, -289.37849897146225, -618.0109878778458, -2022.0591888427734, -228.34333169460297
 1.707595610405644E9, -289.37849897146225, -629.7393141388893, -2070.6479690670967, -220.44466298818588
 1.7075956104191597E9, -280.7617694735527, -583.3047162890434, -2003.8683154582977, -205.84409356117249
 1.7075956104191597E9, -302.0642396211624, -610.591026365757, -2006.0224978327751, -222.35949176549911
 1.7075956104348557E9, -294.8836317062378, -639.7921652197838, -2072.56279784441, -232.41234284639359
 1.7075956104348557E9, -275.73534393310547, -594.0756281614304, -2034.9842830896378, -217.33306622505188
 1.7075956104356089E9, -303.02165400981903, -598.8627001047134, -1998.123829126358, -231.45492845773697
 1.7075956104356089E9, -301.1068252325058, -639.0741044282913, -2050.781620502472, -235.76329320669174
 1.707595610450078E9, -285.0701342225075, -617.2929270863533, -2052.9358028769493, -215.6575910449028
 1.707595610450078E9, -288.6604381799698, -582.8260090947151, -1989.2677460312843, -212.5459942817688
 1.7075956104648843E9, -300.1494108438492, -624.2341814041138, -2019.665652871132, -221.8807845711708
 1.7075956104648843E9, -284.8307806253433, -633.0902644991875, -2070.6479690670967, -222.12013816833496
 1.707595610465585E9, -282.9159518480301, -590.485324203968, -2007.2192658185959, -213.74276226758957
 1.707595610465585E9, -297.0378140807152, -606.2826616168022, -2017.0327633023262, -229.54009968042374
 1.7075956104791389E9, -289.6178525686264, -641.4676403999329, -2080.9401737451553, -241.98648673295975
 1.7075956104791389E9, -289.85720616579056, -609.6336119771004, -2040.7287694215775, -221.8807845711708
 1.7075956104953697E9, -303.50036120414734, -600.5381752848625, -1997.4057683348656, -226.90721011161804
 1.7075956104953697E9, -302.0642396211624, -638.8347508311272, -2060.5951179862022, -246.05549788475037
 1.7075956104957497E9, -287.22431659698486, -621.1225846409798, -2056.2867532372475, -221.8807845711708
 1.7075956104957497E9, -298.9526428580284, -591.6820921897888, -1985.4380884766579, -213.0247014760971
 1.7075956105092573E9, -299.4313500523567, -619.6864630579948, -2023.9740176200867, -230.01880687475204
 1.7075956105092573E9, -286.74560940265656, -636.4412148594856, -2070.4086154699326, -230.2581604719162
 1.7075956105250828E9, -284.8307806253433, -587.8524346351624, -2006.7405586242676, -210.63116550445557
 1.7075956105250828E9, -305.41518998146057, -613.702623128891, -2009.8521553874016, -232.8910500407219
 1.707595610525736E9, -292.7294493317604, -633.3296180963516, -2073.5202122330666, -241.98648673295975
 1.707595610525736E9, -280.7617694735527, -603.8891256451607, -2030.1972111463547, -211.58857989311218
 1.7075956105391593E9, -299.910057246685, -596.708517730236, -1989.2677460312843, -217.57241982221603
 1.7075956105391593E9, -293.686863720417, -630.9360821247101, -2051.9783884882927, -236.24200040102005
 1.7075956105549445E9, -273.5811615586281, -609.3942583799362, -2046.9519629478455, -216.37565183639526
 1.7075956105549445E9, -289.1391453742981, -583.5440698862076, -1975.8639445900917, -200.5783144235611
 1.7075956105556307E9, -291.2933277487755, -608.6761975884438, -2013.442459344864, -221.4020773768425
 1.7075956105556307E9, -279.8043550848961, -625.4309493899345, -2060.8344715833664, -217.57241982221603
 1.7075956105691526E9, -281.7191838622093, -579.7144123315811, -2006.7405586242676, -207.2802151441574
 1.7075956105691526E9, -292.49009573459625, -602.2136504650116, -2002.4321938753128, -227.38591730594635
 1.7075956105851767E9, -290.8146205544472, -639.3134580254555, -2067.0576651096344, -230.97622126340866
 1.7075956105851767E9, -275.73534393310547, -601.7349432706833, -2029.7185039520264, -207.04086154699326
 1.707595610585596E9, -293.686863720417, -601.9742968678474, -1986.3955028653145, -218.52983421087265
 1.707595610585596E9, -296.55910688638687, -635.9625076651573, -2051.7390348911285, -234.08781802654266
 1.7075956105991068E9, -284.8307806253433, -621.8406454324722, -2054.3719244599342, -219.2478950023651
 1.7075956105991068E9, -293.2081565260887, -588.809849023819, -1989.9858068227768, -215.1788838505745
 1.7075956106150737E9, -299.6707036495209, -620.1651702523232, -2028.7610895633698, -237.43876838684082
 1.7075956106150737E9, -283.8733662366867, -620.4045238494873, -2063.9460683465004, -222.35949176549911
 1.7075956106155896E9, -276.6927583217621, -580.1931195259094, -2005.3044370412827, -211.10987269878387
 1.7075956106155896E9, -289.1391453742981, -601.256236076355, -2002.910901069641, -224.27432054281235
 1.7075956106291268E9, -278.6075870990753, -631.6541429162025, -2057.7228748202324, -224.0349669456482
 1.7075956106291268E9, -262.33154249191284, -588.3311418294907, -2016.554056107998, -208.23762953281403
 1.7075956106448565E9, -289.1391453742981, -586.6556666493416, -1987.113563656807, -218.05112701654434
 1.7075956106448565E9, -283.3946590423584, -618.2503414750099, -2042.1648910045624, -228.34333169460297
 1.7075956106455908E9, -264.2463712692261, -602.2136504650116, -2039.0532942414284, -203.2112039923668
 1.7075956106455908E9, -270.70891839265823, -566.5499644875526, -1971.3162262439728, -192.91899931430817
 1.70759561065948E9, -275.9746975302696, -594.7936889529228, -2005.783144235611, -210.15245831012726
 1.70759561065948E9, -266.87926083803177, -614.6600375175476, -2047.4306701421738, -198.90283924341202
 1.7075956106750271E9, -264.7250784635544, -571.815743625164, -1982.0871381163597, -185.73839139938354
 1.7075956106750271E9, -284.11271983385086, -592.6395065784454, -1984.241320490837, -206.56215435266495
 1.707595610675624E9, -274.0598687529564, -621.1225846409798, -2049.345498919487, -210.63116550445557
 1.707595610675624E9, -266.6399072408676, -583.3047162890434, -2008.6553874015808, -187.17451298236847
 1.7075956106892824E9, -277.1714655160904, -570.8583292365074, -1961.0240215659142, -190.76481693983078
 1.7075956106892824E9, -274.0598687529564, -610.1123191714287, -2024.6920784115791, -202.49314320087433
 1.7075956107050984E9, -263.5283104777336, -584.7408378720284, -2026.3675535917282, -188.84998816251755
 1.7075956107050984E9, -277.1714655160904, -566.5499644875526, -1970.5981654524803, -192.679645717144
 1.7075956107056477E9, -292.96880292892456, -612.0271479487419, -2006.5012050271034, -206.3228007555008
 1.7075956107056477E9, -282.1978910565376, -621.6012918353081, -2049.584852516651, -204.88667917251587
 1.7075956107192392E9, -278.128879904747, -583.7834234833717, -1994.5335251688957, -195.55188888311386
 1.7075956107192392E9, -301.82488602399826, -607.7187831997871, -2002.910901069641, -226.18914932012558
 1.7075956107351816E9, -282.67659825086594, -629.4999605417252, -2066.8183115124702, -235.04523241519928
 1.7075956107351816E9, -272.3843935728073, -593.1182137727737, -2031.6333327293396, -212.30664068460464
 1.7075956107357678E9, -292.01138854026794, -592.4001529812813, -1995.2515859603882, -227.38591730594635
 1.7075956107357678E9, -279.0862942934036, -624.9522421956062, -2047.670023739338, -229.54009968042374
 1.7075956107492297E9, -264.96443206071854, -607.0007224082947, -2054.8506316542625, -216.1362982392311
 1.7075956107492297E9, -284.11271983385086, -585.2195450663567, -1992.6186963915825, -216.37565183639526
 1.707595610764736E9, -293.686863720417, -620.6438774466515, -2028.5217359662056, -230.7368676662445
 1.707595610764736E9, -284.59142702817917, -627.3457781672478, -2059.1589964032173, -216.1362982392311
 1.707595610780114E9, -299.4313500523567, -601.4955896735191, -2005.3044370412827, -227.6252709031105
 1.707595610780114E9, -292.2507421374321, -633.3296180963516, -2063.467361152172, -227.6252709031105
 1.7075956107806573E9, -278.84694069623947, -593.596920967102, -2026.3675535917282, -205.84409356117249
 1.7075956107806573E9, -297.0378140807152, -591.2033849954605, -1983.0445525050163, -204.64732557535172
 1.707595610794442E9, -297.5165212750435, -630.9360821247101, -2038.335233449936, -214.93953025341034
 1.707595610794442E9, -279.0862942934036, -604.367832839489, -2040.4894158244133, -197.9454248547554
 1.7075956108099155E9, -292.49009573459625, -575.8847547769547, -1974.906530201435, -194.8338280916214
 1.7075956108099155E9, -299.19199645519257, -619.6864630579948, -2012.9637521505356, -213.98211586475372
 1.7075956108105483E9, -270.70891839265823, -614.4206839203835, -2049.345498919487, -204.64732557535172
 1.7075956108105483E9, -273.3418079614639, -575.1666939854622, -1994.7728787660599, -196.74865686893463
 1.7075956108242824E9, -292.2507421374321, -596.708517730236, -1994.2941715717316, -214.22146946191788
 1.7075956108242824E9, -277.1714655160904, -625.4309493899345, -2061.0738251805305, -219.96595579385757
 1.707595610840283E9, -273.3418079614639, -591.6820921897888, -2022.777249634266, -203.6899111866951
 1.707595610840283E9, -288.89979177713394, -584.9801914691925, -1987.5922708511353, -212.78534787893295
 1.7075956108408191E9, -288.1817309856415, -625.6703029870987, -2050.5422669053078, -230.7368676662445
 1.7075956108408191E9, -284.59142702817917, -613.4632695317268, -2046.9519629478455, -215.89694464206696
 1.7075956108541915E9, -290.8146205544472, -582.3473019003868, -1980.1723093390465, -204.40797197818756
 1.7075956108541915E9, -296.3197532892227, -625.4309493899345, -2024.6920784115791, -225.71044212579727
 1.7075956108701804E9, -278.6075870990753, -621.8406454324722, -2058.680289208889, -215.1788838505745
 1.7075956108701804E9, -283.8733662366867, -589.5279098153114, -2011.0489233732224, -211.34922629594803
 1.707595610870571E9, -295.60169249773026, -601.9742968678474, -2005.783144235611, -224.75302773714066
 1.707595610870571E9, -277.41081911325455, -628.7818997502327, -2069.211847484112, -232.65169644355774
 1.7075956108844376E9, -279.0862942934036, -593.3575673699379, -2037.3778190612793, -209.4343975186348
 1.7075956108844376E9, -290.0965597629547, -591.2033849954605, -1985.9167956709862, -214.70017665624619
 1.7075956108998184E9, -297.0378140807152, -635.0050932765007, -2047.4306701421738, -233.13040363788605
 1.7075956108998184E9, -275.25663673877716, -612.0271479487419, -2044.0797197818756, -207.2802151441574
 1.7075956109005632E9, -280.52241587638855, -578.7569979429245, -1980.1723093390465, -199.62090003490448
 1.7075956109005632E9, -281.240476667881, -601.9742968678474, -2010.33086258173, -211.58857989311218
 1.7075956109141574E9, -273.1024543642998, -612.7452087402344, -2057.9622284173965, -208.71633672714233
 1.7075956109141574E9, -275.25663673877716, -577.0815227627754, -1996.687707543373, -200.33896082639694
 1.7075956109300816E9, -289.85720616579056, -589.0492026209831, -1986.1561492681503, -208.71633672714233
 1.7075956109300816E9, -281.9585374593735, -622.0799990296364, -2051.9783884882927, -208.9556903243065
 1.707595610930627E9, -272.8631007671356, -589.5279098153114, -2014.8785809278488, -193.87641370296478
 1.707595610930627E9, -282.67659825086594, -581.8685947060585, -1978.9755413532257, -201.0570216178894
 1.707595610944472E9, -284.8307806253433, -617.5322806835175, -2039.7713550329208, -210.15245831012726
 1.707595610944472E9, -272.14503997564316, -602.6923576593399, -2034.9842830896378, -198.18477845191956
 1.7075956109598293E9, -285.0701342225075, -579.7144123315811, -1969.4013974666595, -189.0893417596817
 1.7075956109598293E9, -292.01138854026794, -605.8039544224739, -2007.9373266100883, -209.67375111579895
 1.70759561096057E9, -279.56500148773193, -618.4896950721741, -2053.893217265606, -206.56215435266495
 1.70759561096057E9, -279.56500148773193, -580.6718267202377, -1989.9858068227768, -190.28610974550247
 1.7075956109741862E9, -291.2933277487755, -597.1872249245644, -1998.3631827235222, -215.6575910449028
 1.7075956109741862E9, -290.8146205544472, -636.9199220538139, -2065.3821899294853, -227.38591730594635
 1.7075956109899726E9, -283.15530544519424, -597.6659321188927, -2032.112039923668, -210.15245831012726
 1.7075956109899726E9, -294.64427810907364, -590.2459706068039, -1997.1664147377014, -220.44466298818588
 1.7075956109905589E9, -283.63401263952255, -624.4735350012779, -2057.9622284173965, -231.45492845773697
 1.7075956109905589E9, -277.1714655160904, -611.7877943515778, -2057.244167625904, -218.05112701654434
 1.7075956110206387E9, -287.70302379131317, -584.5014842748642, -1991.6612820029259, -216.85435903072357
 1.7075956110206387E9, -295.8410460948944, -616.814219892025, -2023.01660323143, -228.34333169460297
 1.7075956110212922E9, -276.45340472459793, -624.2341814041138, -2069.9299082756042, -220.9233701825142
 1.7075956110212922E9, -276.2140511274338, -580.1931195259094, -2000.2780115008354, -197.9454248547554
 1.7075956110220213E9, -287.70302379131317, -601.9742968678474, -2003.3896082639694, -216.61500543355942
 1.7075956110220213E9, -281.00112307071686, -628.3031925559044, -2064.4247755408287, -218.52983421087265
 1.7075956110342133E9, -262.33154249191284, -583.7834234833717, -2025.6494928002357, -195.55188888311386
 1.7075956110342133E9, -291.2933277487755, -588.3311418294907, -1981.6084309220314, -206.56215435266495
 1.707595611050325E9, -291.2933277487755, -627.5851317644119, -2044.797780573368, -219.00854140520096
 1.707595611050325E9, -266.87926083803177, -604.367832839489, -2042.6435981988907, -202.01443600654602
 1.7075956110507493E9, -281.47983026504517, -575.1666939854622, -1981.129723727703, -193.39770650863647
 1.7075956110507493E9, -281.00112307071686, -606.2826616168022, -2015.5966417193413, -214.22146946191788
 1.707595611064145E9, -270.70891839265823, -618.7290486693382, -2059.1589964032173, -208.47698312997818
 1.707595611064145E9, -272.3843935728073, -579.2357051372528, -1993.576110780239, -194.59447449445724
 1.7075956110799067E9, -286.9849629998207, -603.1710648536682, -2003.6289618611336, -218.7691878080368
 1.7075956110799067E9, -268.794089615345, -615.6174519062042, -2066.339604318142, -220.68401658535004
 1.707595611080606E9, -279.3256478905678, -603.1710648536682, -2032.5907471179962, -207.75892233848572
 1.707595611080606E9, -302.7823004126549, -600.7775288820267, -1997.4057683348656, -225.47108852863312
 1.7075956110941577E9, -288.89979177713394, -629.260606944561, -2055.568692445755, -232.17298924922943
 1.7075956110941577E9, -280.52241587638855, -615.6174519062042, -2058.2015820145607, -222.35949176549911
 1.707595611110382E9, -298.9526428580284, -595.033042550087, -1993.336757183075, -215.89694464206696
 1.707595611110382E9, -300.38876444101334, -624.2341814041138, -2034.2662222981453, -232.8910500407219
 1.7075956111108458E9, -283.15530544519424, -631.1754357218742, -2070.4086154699326, -225.94979572296143
 1.7075956111108458E9, -291.53268134593964, -596.9478713274002, -2006.7405586242676, -202.97185039520264
 1.70759561112439E9, -298.23458206653595, -606.7613688111305, -2008.1766802072525, -228.82203888893127
 1.70759561112439E9, -277.41081911325455, -630.2180213332176, -2063.9460683465004, -223.79561334848404
 1.7075956111405768E9, -277.41081911325455, -598.3839929103851, -2029.9578575491905, -204.40797197818756
 1.7075956111405768E9, -290.0965597629547, -587.1343738436699, -1984.9593812823296, -214.93953025341034
 1.7075956111549015E9, -285.30948781967163, -623.9948278069496, -2047.670023739338, -228.58268529176712
 1.7075956111549015E9, -272.3843935728073, -613.4632695317268, -2041.686183810234, -201.29637521505356
 1.7075956111555448E9, -278.36823350191116, -578.7569979429245, -1981.129723727703, -200.81766802072525
 1.7075956111555448E9, -288.6604381799698, -615.1387447118759, -2019.4262992739677, -217.8117734193802
 1.7075956111699004E9, -277.6501727104187, -618.9684022665024, -2063.9460683465004, -214.22146946191788
 1.7075956111699004E9, -276.6927583217621, -586.4163130521774, -2005.783144235611, -204.40797197818756
 1.7075956111705945E9, -298.4739356637001, -609.1549047827721, -2003.1502546668053, -219.2478950023651
 1.7075956111705945E9, -280.52241587638855, -638.1166900396347, -2065.6215435266495, -227.1465637087822
 1.7075956111844742E9, -279.8043550848961, -605.5646008253098, -2029.4791503548622, -207.99827593564987
 1.7075956111844742E9, -294.16557091474533, -593.596920967102, -1997.4057683348656, -223.07755255699158
 1.7075956111998534E9, -290.575266957283, -630.6967285275459, -2056.0473996400833, -233.8484644293785
 1.7075956111998534E9, -278.36823350191116, -612.7452087402344, -2056.2867532372475, -214.46082305908203
 1.7075956112005928E9, -286.74560940265656, -593.596920967102, -1991.90063560009, -208.9556903243065
 1.7075956112005928E9, -297.0378140807152, -622.3193526268005, -2028.7610895633698, -234.56652522087097
 1.7075956112145057E9, -274.5385759472847, -620.8832310438156, -2067.2970187067986, -221.16272377967834
 1.7075956112145057E9, -275.25663673877716, -588.3311418294907, -2000.0386579036713, -196.50930327177048
 1.7075956112464347E9, -292.2507421374321, -604.1284792423248, -1999.3205971121788, -214.22146946191788
 1.7075956112464347E9, -285.78819501399994, -631.4147893190384, -2060.5951179862022, -218.2904806137085
 1.707595611246887E9, -274.29922235012054, -592.4001529812813, -2017.5114704966545, -196.26994967460632
 1.707595611246887E9, -292.49009573459625, -591.4427385926247, -1979.2148949503899, -206.3228007555008
 1.7075956112480154E9, -280.2830622792244, -613.2239159345627, -2045.2764877676964, -222.35949176549911
 1.7075956112480154E9, -277.6501727104187, -620.1651702523232, -2044.558426976204, -206.56215435266495
 1.707595611248514E9, -301.5855324268341, -600.7775288820267, -1989.9858068227768, -208.71633672714233
 1.707595611248514E9, -303.97906839847565, -631.1754357218742, -2026.8462607860565, -230.01880687475204
 1.7075956112592607E9, -283.3946590423584, -631.4147893190384, -2073.2808586359024, -227.38591730594635
 1.7075956112592607E9, -282.9159518480301, -585.4588986635208, -1998.123829126358, -205.36538636684418
 1.7075956112743845E9, -293.2081565260887, -604.367832839489, -2002.671547472477, -222.59884536266327
 1.7075956112743845E9, -285.5488414168358, -634.0476788878441, -2068.7331402897835, -225.94979572296143
 1.7075956112901528E9, -275.017283141613, -599.3414072990417, -2029.7185039520264, -204.40797197818756
 1.7075956112901528E9, -287.9423773884773, -594.7936889529228, -1989.2677460312843, -213.74276226758957
 1.7075956112906902E9, -288.6604381799698, -636.2018612623215, -2050.781620502472, -224.0349669456482
 1.7075956112906902E9, -278.128879904747, -614.4206839203835, -2049.584852516651, -207.51956874132156
 1.7075956113041842E9, -286.74560940265656, -582.586655497551, -1981.6084309220314, -205.36538636684418
 1.7075956113041842E9, -288.6604381799698, -611.5484407544136, -2016.0753489136696, -217.33306622505188
 1.707595611319998E9, -273.5811615586281, -621.3619382381439, -2067.2970187067986, -215.41823744773865
 1.707595611319998E9, -281.7191838622093, -588.3311418294907, -2005.5437906384468, -204.64732557535172
 1.7075956113207164E9, -299.6707036495209, -616.0961591005325, -2009.1340945959091, -225.47108852863312
 1.7075956113207164E9, -285.5488414168358, -634.2870324850082, -2069.69055467844, -227.38591730594635
 1.7075956113341994E9, -275.4959903359413, -604.367832839489, -2025.6494928002357, -206.8015079498291
 1.7075956113341994E9, -294.8836317062378, -594.5543353557587, -1993.576110780239, -219.00854140520096
 1.7075956113498263E9, -286.9849629998207, -628.3031925559044, -2054.8506316542625, -236.72070759534836
 1.7075956113498263E9, -268.55473601818085, -600.7775288820267, -2048.3880845308304, -218.2904806137085
 1.707595611350552E9, -284.11271983385086, -584.7408378720284, -1995.7302931547165, -220.68401658535004
 1.707595611350552E9, -296.08039969205856, -618.0109878778458, -2028.7610895633698, -238.39618277549744
 1.7075956113643415E9, -286.5062558054924, -634.0476788878441, -2067.2970187067986, -229.7794532775879
 1.7075956113643415E9, -280.2830622792244, -584.5014842748642, -1999.3205971121788, -211.82793349027634
 1.707595611379854E9, -301.82488602399826, -608.1974903941154, -2003.3896082639694, -225.71044212579727
 1.707595611379854E9, -283.15530544519424, -633.5689716935158, -2064.903482735157, -228.82203888893127
 1.7075956113805485E9, -272.8631007671356, -593.596920967102, -2019.905006468296, -206.56215435266495
 1.7075956113805485E9, -285.30948781967163, -591.921445786953, -1982.3264917135239, -210.63116550445557
 1.7075956113942964E9, -274.29922235012054, -613.702623128891, -2047.4306701421738, -230.97622126340866
 1.7075956113942964E9, -272.62374716997147, -600.2988216876984, -2045.0371341705322, -209.4343975186348
 1.7075956114102235E9, -284.8307806253433, -580.9111803174019, -1980.4116629362106, -205.60473996400833
 1.7075956114102235E9, -287.463670194149, -612.2665015459061, -2015.3572881221771, -221.8807845711708
 1.7075956114107304E9, -277.1714655160904, -625.6703029870987, -2062.7493003606796, -214.46082305908203
 1.7075956114107304E9, -280.7617694735527, -586.6556666493416, -2001.4747794866562, -205.84409356117249
 1.707595611424375E9, -297.9952284693718, -609.8729655742645, -2001.4747794866562, -227.1465637087822
 1.707595611424375E9, -284.11271983385086, -636.2018612623215, -2066.578957915306, -231.93363565206528
 1.707595611439845E9, -270.9482719898224, -597.6659321188927, -2032.351393520832, -213.26405507326126
 1.707595611439845E9, -301.82488602399826, -602.2136504650116, -1992.6186963915825, -225.23173493146896
 1.707595611440558E9, -291.53268134593964, -631.8934965133667, -2046.9519629478455, -233.3697572350502
 1.707595611440558E9, -274.0598687529564, -604.6071864366531, -2057.00481402874, -221.64143097400665
 1.7075956114542997E9, -292.49009573459625, -592.8788601756096, -1989.5070996284485, -218.05112701654434
 1.7075956114542997E9, -297.75587487220764, -630.6967285275459, -2025.4101392030716, -235.04523241519928
 1.7075956114698727E9, -281.240476667881, -635.7231540679932, -2069.69055467844, -225.94979572296143
 1.7075956114698727E9, -274.5385759472847, -585.2195450663567, -2000.5173650979996, -206.08344715833664
 1.7075956114705832E9, -294.64427810907364, -606.5220152139664, -2002.910901069641, -229.06139248609543
 1.7075956114705832E9, -285.30948781967163, -625.1915957927704, -2068.4937866926193, -236.4813539981842
 1.707595611484481E9, -280.04370868206024, -604.1284792423248, -2028.7610895633698, -213.74276226758957
 1.707595611484481E9, -298.4739356637001, -603.1710648536682, -1996.9270611405373, -223.31690615415573
 1.7075956115000846E9, -299.6707036495209, -637.6379828453064, -2054.13257086277, -232.65169644355774
 1.7075956115000846E9, -272.8631007671356, -605.0858936309814, -2045.7551949620247, -214.22146946191788
 1.7075956115007834E9, -288.89979177713394, -586.8950202465057, -1987.352917253971, -209.67375111579895
 1.7075956115007834E9, -295.12298530340195, -622.7980598211288, -2019.905006468296, -222.59884536266327
 1.7075956115142746E9, -280.52241587638855, -619.925816655159, -2053.6538636684418, -218.7691878080368
 1.7075956115142746E9, -282.67659825086594, -586.1769594550133, -1994.5335251688957, -198.90283924341202
 1.707595611530182E9, -294.4049245119095, -601.7349432706833, -1995.2515859603882, -214.70017665624619
 1.707595611530182E9, -285.0701342225075, -637.6379828453064, -2058.680289208889, -219.96595579385757
 1.70759561153091E9, -281.7191838622093, -600.7775288820267, -2025.4101392030716, -208.47698312997818
 1.70759561153091E9, -298.23458206653595, -597.1872249245644, -1988.5496852397919, -214.93953025341034
 1.7075956115441775E9, -292.96880292892456, -628.5425461530685, -2044.3190733790398, -225.23173493146896
 1.7075956115441775E9, -286.74560940265656, -623.7554742097855, -2049.8242061138153, -213.74276226758957
 1.7075956115598629E9, -294.16557091474533, -591.2033849954605, -1982.565845310688, -205.36538636684418
 1.7075956115598629E9, -293.9262173175812, -618.2503414750099, -2021.1017744541168, -221.16272377967834
 1.707595611560563E9, -278.128879904747, -621.3619382381439, -2057.00481402874, -216.1362982392311
 1.707595611560563E9, -274.77792954444885, -582.1079483032227, -1992.1399891972542, -199.86025363206863
 1.7075956115742347E9, -287.463670194149, -593.596920967102, -1993.576110780239, -217.33306622505188
 1.7075956115742347E9, -284.8307806253433, -633.5689716935158, -2056.5261068344116, -221.64143097400665
 1.707595611590215E9, -281.7191838622093, -598.6233465075493, -2017.0327633023262, -204.40797197818756
 1.707595611590215E9, -288.1817309856415, -586.1769594550133, -1975.1458837985992, -210.87051910161972
 1.7075956115906265E9, -291.2933277487755, -629.4999605417252, -2040.4894158244133, -225.47108852863312
 1.7075956115906265E9, -279.8043550848961, -609.3942583799362, -2045.2764877676964, -210.63116550445557
 1.7075956116042197E9, -281.9585374593735, -582.8260090947151, -1981.6084309220314, -204.1686183810234
 1.7075956116042197E9, -289.37849897146225, -607.9581367969513, -2017.7508240938187, -228.1039780974388
 1.7075956116199074E9, -280.7617694735527, -624.9522421956062, -2060.8344715833664, -219.00854140520096
 1.7075956116199074E9, -287.9423773884773, -592.4001529812813, -2004.5863762497902, -210.3918119072914
 1.707595611620581E9, -297.9952284693718, -601.256236076355, -1998.8418899178505, -221.64143097400665
 1.707595611620581E9, -287.70302379131317, -631.8934965133667, -2060.116410791874, -229.30074608325958
 1.7075956116344695E9, -283.15530544519424, -604.1284792423248, -2023.4953104257584, -213.98211586475372
 1.7075956116344695E9, -299.910057246685, -600.2988216876984, -1985.1987348794937, -215.41823744773865
 1.707595611650276E9, -297.9952284693718, -635.9625076651573, -2044.797780573368, -227.38591730594635
 1.707595611650276E9, -280.52241587638855, -611.5484407544136, -2039.5320014357567, -211.58857989311218
 1.7075956116648216E9, -292.01138854026794, -585.9376058578491, -1987.352917253971, -209.19504392147064
 1.7075956116648216E9, -291.2933277487755, -614.8993911147118, -2026.6069071888924, -232.41234284639359
 1.7075956116671336E9, -280.04370868206024, -623.7554742097855, -2063.7067147493362, -218.2904806137085
 1.7075956116671336E9, -289.85720616579056, -595.033042550087, -1998.8418899178505, -208.71633672714233
 1.7075956116800096E9, -303.02165400981903, -610.3516727685928, -2005.3044370412827, -223.55625975131989
 1.7075956116800096E9, -289.1391453742981, -639.3134580254555, -2066.8183115124702, -226.18914932012558
 1.7075956116806288E9, -280.04370868206024, -601.7349432706833, -2022.0591888427734, -207.04086154699326
 1.7075956116806288E9, -292.2507421374321, -595.033042550087, -1981.3690773248672, -214.93953025341034
 1.7075956116941547E9, -296.08039969205856, -635.2444468736649, -2046.9519629478455, -226.6678565144539
 1.7075956116941547E9, -277.41081911325455, -604.6071864366531, -2044.558426976204, -207.04086154699326
 1.7075956117098744E9, -282.67659825086594, -581.3898875117302, -1975.8639445900917, -195.79124248027802
 1.7075956117098744E9, -292.96880292892456, -619.6864630579948, -2017.2721168994904, -222.59884536266327
 1.7075956117106073E9, -281.7191838622093, -620.4045238494873, -2060.8344715833664, -210.63116550445557
 1.7075956117106073E9, -287.463670194149, -589.7672634124756, -1995.2515859603882, -198.4241320490837
 1.7075956117242775E9, -289.85720616579056, -603.8891256451607, -2002.671547472477, -219.96595579385757
 1.7075956117242775E9, -279.0862942934036, -629.7393141388893, -2059.3983500003815, -225.71044212579727
 1.707595611740241E9, -278.84694069623947, -601.0168824791908, -2027.3249679803848, -212.30664068460464
 1.707595611740241E9, -297.75587487220764, -597.6659321188927, -1989.9858068227768, -216.61500543355942
 1.7075956117408197E9, -291.53268134593964, -631.8934965133667, -2047.4306701421738, -226.6678565144539
 1.7075956117408197E9, -282.67659825086594, -620.4045238494873, -2057.00481402874, -216.85435903072357
 1.707595611754172E9, -287.463670194149, -585.9376058578491, -1985.677442073822, -208.9556903243065
 1.707595611754172E9, -293.2081565260887, -619.2077558636665, -2025.1707856059074, -224.5136741399765
 1.7075956117691646E9, -276.6927583217621, -629.4999605417252, -2065.6215435266495, -222.35949176549911
 1.7075956117691646E9, -278.84694069623947, -595.2723961472511, -1999.3205971121788, -202.97185039520264
 1.7075956117855425E9, -283.8733662366867, -627.8244853615761, -2065.3821899294853, -221.4020773768425
 1.7075956117855425E9, -269.7515040040016, -591.4427385926247, -2020.3837136626244, -198.18477845191956
 1.7075956117857041E9, -287.22431659698486, -588.0917882323265, -1982.0871381163597, -211.58857989311218
 1.7075956117857041E9, -293.686863720417, -630.4573749303818, -2048.6274381279945, -223.79561334848404
 1.707595611799382E9, -272.8631007671356, -606.7613688111305, -2036.6597582697868, -202.73249679803848
 1.707595611799382E9, -281.00112307071686, -583.5440698862076, -1981.6084309220314, -204.40797197818756
 1.7075956118149817E9, -290.0965597629547, -614.4206839203835, -2019.1869456768036, -224.9923813343048
 1.7075956118149817E9, -278.6075870990753, -622.7980598211288, -2054.6112780570984, -207.99827593564987
 1.707595611815657E9, -286.9849629998207, -590.485324203968, -2002.671547472477, -200.81766802072525
 1.707595611815657E9, -298.71328926086426, -604.8465400338173, -2001.7141330838203, -219.72660219669342
 1.7075956118457172E9, -297.0378140807152, -638.3560436367989, -2064.4247755408287, -229.30074608325958
 1.7075956118457172E9, -278.84694069623947, -602.6923576593399, -2028.0430287718773, -199.14219284057617
 1.7075956118462477E9, -288.89979177713394, -594.3149817585945, -1985.1987348794937, -202.97185039520264
 1.7075956118462477E9, -286.0275486111641, -631.4147893190384, -2050.3029133081436, -221.4020773768425
 1.7075956118470185E9, -278.84694069623947, -611.3090871572495, -2039.5320014357567, -202.97185039520264
 1.7075956118470185E9, -280.7617694735527, -582.1079483032227, -1981.8477845191956, -205.60473996400833
 1.7075956118593652E9, -279.56500148773193, -605.0858936309814, -2017.9901776909828, -222.83819895982742
 1.7075956118593652E9, -274.5385759472847, -621.1225846409798, -2057.9622284173965, -209.19504392147064
 1.7075956118751884E9, -279.0862942934036, -581.8685947060585, -1993.336757183075, -193.63706010580063
 1.7075956118751884E9, -289.85720616579056, -595.7511033415794, -1992.6186963915825, -212.0672870874405
 1.7075956118756504E9, -284.8307806253433, -635.7231540679932, -2062.2705931663513, -220.9233701825142
 1.7075956118756504E9, -275.017283141613, -596.2298105359077, -2021.1017744541168, -191.96158492565155
 1.7075956118895352E9, -293.2081565260887, -587.373727440834, -1984.001966893673, -208.23762953281403
 1.7075956118895352E9, -284.352073431015, -622.5587062239647, -2047.1913165450096, -224.5136741399765
 1.7075956119048705E9, -274.77792954444885, -605.3252472281456, -2044.3190733790398, -205.84409356117249
 1.7075956119048705E9, -287.9423773884773, -581.3898875117302, -1983.5232596993446, -204.64732557535172
 1.7075956119055817E9, -285.30948781967163, -607.0007224082947, -2015.5966417193413, -216.1362982392311
 1.7075956119055817E9, -273.1024543642998, -616.814219892025, -2057.9622284173965, -212.0672870874405
 1.7075956119195824E9, -278.128879904747, -581.150533914566, -1989.2677460312843, -196.74865686893463
 1.7075956119195824E9, -286.0275486111641, -595.5117497444153, -1993.0974035859108, -213.26405507326126
 1.7075956119349315E9, -275.73534393310547, -621.8406454324722, -2055.0899852514267, -217.57241982221603
 1.7075956119349315E9, -275.73534393310547, -594.5543353557587, -2018.4688848853111, -198.18477845191956
 1.707595611935588E9, -292.2507421374321, -592.1607993841171, -1980.890370130539, -208.23762953281403
 1.707595611935588E9, -291.0539741516113, -629.9786677360535, -2046.4732557535172, -226.6678565144539
 1.707595611950252E9, -275.017283141613, -605.5646008253098, -2049.345498919487, -207.99827593564987
 1.707595611950252E9, -284.11271983385086, -582.1079483032227, -1979.6936021447182, -198.4241320490837
 1.7075956119651873E9, -297.27716767787933, -620.4045238494873, -2021.341128051281, -219.48724859952927
 1.7075956119651873E9, -271.18762558698654, -617.0535734891891, -2057.9622284173965, -216.37565183639526
 1.7075956119658258E9, -272.3843935728073, -582.8260090947151, -1997.8844755291939, -197.9454248547554
 1.7075956119658258E9, -290.575266957283, -608.6761975884438, -1999.559950709343, -220.20530939102173
 1.7075956119793372E9, -287.22431659698486, -638.595397233963, -2064.1854219436646, -226.6678565144539
 1.7075956119793372E9, -275.4959903359413, -598.6233465075493, -2022.777249634266, -201.77508240938187
 1.7075956119952035E9, -288.1817309856415, -588.809849023819, -1977.0607125759125, -208.71633672714233
 1.7075956119952035E9, -293.2081565260887, -627.3457781672478, -2044.797780573368, -214.93953025341034
 1.70759561199568E9, -270.4695647954941, -601.9742968678474, -2042.6435981988907, -199.86025363206863
 1.70759561199568E9, -282.67659825086594, -584.7408378720284, -1982.3264917135239, -205.36538636684418
 1.7075956120092027E9, -296.3197532892227, -621.8406454324722, -2016.793409705162, -217.33306622505188
 1.7075956120092027E9, -276.2140511274338, -621.3619382381439, -2054.6112780570984, -206.3228007555008
 1.707595612024872E9, -278.36823350191116, -578.038937151432, -1993.8154643774033, -199.62090003490448
 1.707595612024872E9, -298.4739356637001, -607.7187831997871, -2002.4321938753128, -221.64143097400665
 1.7075956120257318E9, -289.85720616579056, -636.4412148594856, -2066.578957915306, -226.90721011161804
 1.7075956120257318E9, -275.4959903359413, -594.3149817585945, -2022.777249634266, -204.1686183810234
 1.7075956120395958E9, -295.8410460948944, -588.5704954266548, -1989.9858068227768, -215.6575910449028
 1.7075956120395958E9, -290.0965597629547, -629.0212533473969, -2044.797780573368, -226.90721011161804
 1.707595612054881E9, -271.905686378479, -612.5058551430702, -2051.7390348911285, -209.9131047129631
 1.707595612054881E9, -291.0539741516113, -590.7246778011322, -1991.6612820029259, -215.6575910449028
 1.7075956120556219E9, -296.55910688638687, -617.0535734891891, -2025.4101392030716, -228.1039780974388
 1.7075956120556219E9, -278.36823350191116, -626.149010181427, -2066.578957915306, -222.35949176549911
 1.707595612069268E9, -290.8146205544472, -599.1020537018776, -2005.783144235611, -205.12603276968002
 1.707595612069268E9, -300.1494108438492, -613.4632695317268, -2008.894740998745, -224.27432054281235
 1.707595612085461E9, -290.33591336011887, -645.2972979545593, -2071.366029858589, -228.34333169460297
 1.707595612085461E9, -275.4959903359413, -598.8627001047134, -2024.6920784115791, -198.4241320490837
 1.7075956120856268E9, -288.6604381799698, -593.8362745642662, -1983.0445525050163, -209.19504392147064
 1.7075956120856268E9, -282.4372446537018, -619.4471094608307, -2045.0371341705322, -222.35949176549911
 1.7075956120995696E9, -270.70891839265823, -612.9845623373985, -2042.8829517960548, -204.88667917251587
 1.7075956120995696E9, -281.7191838622093, -587.373727440834, -1974.4278230071068, -198.90283924341202
 1.7075956121165924E9, -296.55910688638687, -624.9522421956062, -2024.452724814415, -228.1039780974388
 1.7075956121165924E9, -286.26690220832825, -629.9786677360535, -2066.578957915306, -219.2478950023651
 1.707595612117181E9, -286.5062558054924, -583.7834234833717, -2007.45861941576, -205.60473996400833
 1.707595612117181E9, -288.1817309856415, -598.144639313221, -2005.0650834441185, -223.55625975131989
 1.707595612129203E9, -291.0539741516113, -648.1695411205292, -2070.887322664261, -225.94979572296143
 1.707595612129203E9, -280.2830622792244, -600.7775288820267, -2029.239796757698, -202.97185039520264
 1.7075956121450713E9, -292.01138854026794, -596.9478713274002, -1991.90063560009, -213.0247014760971
 1.7075956121450713E9, -296.3197532892227, -637.1592756509781, -2054.3719244599342, -232.8910500407219
 1.7075956121456528E9, -274.29922235012054, -612.7452087402344, -2045.7551949620247, -211.82793349027634
 1.7075956121456528E9, -286.9849629998207, -584.5014842748642, -1984.001966893673, -211.58857989311218
 1.7075956121598635E9, -289.6178525686264, -612.2665015459061, -2019.905006468296, -225.23173493146896
 1.7075956121598635E9, -271.18762558698654, -619.4471094608307, -2063.9460683465004, -216.1362982392311
 1.7075956121750903E9, -279.0862942934036, -589.2885562181473, -1999.0812435150146, -198.66348564624786
 1.7075956121750903E9, -296.55910688638687, -609.1549047827721, -2003.6289618611336, -221.4020773768425
 1.7075956121901097E9, -286.0275486111641, -633.8083252906799, -2059.1589964032173, -220.68401658535004
 1.7075956121901097E9, -271.905686378479, -583.0653626918793, -2026.128199994564, -199.38154643774033
 1.707595612190617E9, -287.22431659698486, -580.4324731230736, -1985.4380884766579, -217.8117734193802
 1.707595612190617E9, -289.37849897146225, -635.9625076651573, -2042.8829517960548, -221.4020773768425
 1.7075956122213109E9, -277.6501727104187, -611.7877943515778, -2042.6435981988907, -207.75892233848572
 1.7075956122213109E9, -281.47983026504517, -581.8685947060585, -1983.0445525050163, -205.36538636684418
 1.7075956122220292E9, -289.6178525686264, -621.1225846409798, -2016.793409705162, -221.64143097400665
 1.7075956122220292E9, -275.9746975302696, -632.372203707695, -2072.56279784441, -224.5136741399765
 1.7075956122228065E9, -283.3946590423584, -593.1182137727737, -2003.8683154582977, -207.51956874132156
 1.7075956122228065E9, -299.6707036495209, -604.367832839489, -2010.8095697760582, -230.2581604719162
 1.7075956122235377E9, -284.11271983385086, -637.3986292481422, -2070.6479690670967, -232.65169644355774
 1.7075956122235377E9, -276.6927583217621, -599.5807608962059, -2029.239796757698, -214.22146946191788
 1.707595612234254E9, -297.27716767787933, -601.0168824791908, -1991.1825748085976, -217.33306622505188
 1.707595612234254E9, -286.0275486111641, -625.6703029870987, -2052.217742085457, -230.7368676662445
 1.7075956122496102E9, -275.4959903359413, -613.2239159345627, -2047.670023739338, -210.87051910161972
 1.7075956122496102E9, -288.6604381799698, -591.2033849954605, -1986.3955028653145, -206.3228007555008
 1.7075956122653077E9, -292.49009573459625, -623.5161206126213, -2025.1707856059074, -227.6252709031105
 1.7075956122653077E9, -279.3256478905678, -625.1915957927704, -2061.552532374859, -215.1788838505745
 1.7075956122657733E9, -274.0598687529564, -577.0815227627754, -2000.0386579036713, -196.50930327177048
 1.7075956122657733E9, -299.19199645519257, -610.3516727685928, -2003.1502546668053, -223.07755255699158
 1.707595612279509E9, -287.463670194149, -632.372203707695, -2068.015079498291, -231.93363565206528
 1.707595612279509E9, -283.63401263952255, -607.2400760054588, -2029.239796757698, -206.8015079498291
 1.7075956122948968E9, -293.2081565260887, -595.033042550087, -1987.8316244482994, -216.1362982392311
 1.7075956122948968E9, -294.4049245119095, -632.372203707695, -2056.0473996400833, -235.28458601236343
 1.7075956122956393E9, -277.6501727104187, -617.0535734891891, -2054.3719244599342, -221.16272377967834
 1.7075956122956393E9, -290.8146205544472, -590.485324203968, -1991.90063560009, -214.22146946191788
 1.7075956123095968E9, -293.2081565260887, -620.8832310438156, -2030.4365647435188, -231.45492845773697
 1.7075956123095968E9, -288.1817309856415, -638.595397233963, -2078.785991370678, -230.2581604719162
 1.7075956123251328E9, -287.9423773884773, -593.8362745642662, -2010.8095697760582, -209.67375111579895
 1.7075956123251328E9, -307.56937235593796, -619.925816655159, -2025.6494928002357, -240.55036514997482
 1.707595612325822E9, -303.97906839847565, -661.5733425617218, -2085.9665992856026, -248.68838745355606
 1.707595612325822E9, -284.59142702817917, -602.6923576593399, -2030.9152719378471, -208.23762953281403
 1.7075956123555703E9, -301.1068252325058, -594.7936889529228, -1999.0812435150146, -222.12013816833496
 1.7075956123555703E9, -318.3402842283249, -655.8288562297821, -2073.5202122330666, -243.66196191310883
 1.7075956123562667E9, -306.8513115644455, -633.8083252906799, -2054.6112780570984, -209.19504392147064
 1.7075956123562667E9, -332.70150005817413, -616.814219892025, -2005.783144235611, -208.23762953281403
 1.707595612357031E9, -342.7543511390686, -657.5043314099312, -2051.9783884882927, -236.0026468038559
 1.707595612357031E9, -328.87184250354767, -662.7701105475426, -2090.99302482605, -222.83819895982742
 1.7075956123692594E9, -334.8556824326515, -623.9948278069496, -2025.1707856059074, -201.0570216178894
 1.7075956123692594E9, -356.8762133717537, -648.8876019120216, -2026.128199994564, -223.07755255699158
 1.7075956123848689E9, -352.5678486227989, -681.6790447235107, -2100.327815115452, -235.76329320669174
 1.7075956123848689E9, -344.1904727220535, -646.9727731347084, -2057.4835212230682, -214.70017665624619
 1.7075956123855972E9, -357.8336277604103, -643.3824691772461, -2014.6392273306847, -220.44466298818588
 1.7075956123855972E9, -353.7646166086197, -681.2003375291824, -2071.6053834557533, -229.06139248609543
 1.7075956123995495E9, -337.24921840429306, -656.3075634241104, -2071.126676261425, -214.70017665624619
 1.7075956123995495E9, -351.131727039814, -633.3296180963516, -2016.3147025108337, -215.41823744773865
 1.7075956124151528E9, -349.4562518596649, -654.3927346467972, -2050.0635597109795, -232.8910500407219
 1.7075956124151528E9, -340.36081516742706, -666.3604145050049, -2092.907853603363, -224.9923813343048
 1.70759561241564E9, -340.36081516742706, -633.0902644991875, -2030.4365647435188, -216.1362982392311
 1.70759561241564E9, -344.1904727220535, -644.818590760231, -2025.8888463974, -221.8807845711708
 1.7075956124291804E9, -339.6427543759346, -674.259083211422, -2087.4027208685875, -221.64143097400665
 1.7075956124291804E9, -334.8556824326515, -640.5102260112762, -2053.4145100712776, -213.26405507326126
 1.7075956124448495E9, -344.908533513546, -623.2767670154572, -2012.7243985533714, -221.16272377967834
 1.7075956124448495E9, -341.0788759589195, -665.8817073106766, -2080.700820147991, -238.87488996982574
 1.707595612445582E9, -329.8292568922043, -656.5469170212746, -2078.0679305791855, -223.31690615415573
 1.707595612445582E9, -340.36081516742706, -619.4471094608307, -2012.2456913590431, -213.50340867042542
 1.7075956124592297E9, -347.78077667951584, -662.5307569503784, -2049.345498919487, -235.04523241519928
 1.7075956124592297E9, -333.8982680439949, -667.7965360879898, -2090.5143176317215, -233.3697572350502
 1.7075956124750383E9, -336.29180401563644, -627.3457781672478, -2025.1707856059074, -209.9131047129631
 1.7075956124750383E9, -351.37108063697815, -640.5102260112762, -2026.8462607860565, -231.21557486057281
 1.7075956124755807E9, -335.573743224144, -677.6100335717201, -2093.8652679920197, -236.4813539981842
 1.7075956124755807E9, -328.39313530921936, -636.6805684566498, -2051.7390348911285, -213.74276226758957
 1.7075956124892173E9, -340.83952236175537, -624.9522421956062, -2006.7405586242676, -220.9233701825142
 1.7075956124892173E9, -341.796936750412, -671.147486448288, -2075.43504101038, -237.67812198400497
 1.707595612505151E9, -319.05834501981735, -645.7760051488876, -2073.5202122330666, -217.57241982221603
 1.707595612505151E9, -332.9408536553383, -622.5587062239647, -2015.117934525013, -221.8807845711708
 1.7075956125055692E9, -344.1904727220535, -657.9830386042595, -2046.7126093506813, -236.0026468038559
 1.7075956125055692E9, -323.84541696310043, -667.0784752964973, -2091.7110856175423, -230.49751406908035
 1.7075956125197065E9, -319.7764058113098, -624.2341814041138, -2021.8198352456093, -215.89694464206696
 1.7075956125197065E9, -336.5311576128006, -641.4676403999329, -2024.2133712172508, -232.41234284639359
 1.7075956125350137E9, -326.238952934742, -669.711364865303, -2098.6523399353027, -240.31101155281067
 1.7075956125350137E9, -318.8189914226532, -628.0638389587402, -2055.329338848591, -222.83819895982742
 1.707595612535683E9, -345.14788711071014, -644.5792371630669, -2019.905006468296, -233.13040363788605
 1.707595612535683E9, -330.7866712808609, -668.5145968794823, -2073.0415050387383, -240.78971874713898
 1.7075956125491753E9, -317.3828698396683, -648.1695411205292, -2072.56279784441, -220.9233701825142
 1.7075956125491753E9, -327.91442811489105, -619.2077558636665, -2011.0489233732224, -219.96595579385757
 1.7075956125649393E9, -337.9672791957855, -655.1107954382896, -2049.584852516651, -241.26842594146729
 1.7075956125649393E9, -322.64864897727966, -665.8817073106766, -2096.019450366497, -236.72070759534836
 1.7075956125656455E9, -321.4518809914589, -620.8832310438156, -2030.1972111463547, -217.57241982221603
 1.7075956125656455E9, -338.92469358444214, -647.4514803290367, -2026.3675535917282, -230.97622126340866
 1.7075956125794868E9, -321.9305881857872, -663.0094641447067, -2093.8652679920197, -242.2258403301239
 1.7075956125794868E9, -313.5532122850418, -637.6379828453064, -2047.909377336502, -219.2478950023651
