 Timestamp, EXG Channel 0, EXG Channel 1, EXG Channel 2, EXG Channel 3
 1.7075960722032943E9, -120.8735665678978, -602.2136504650116, -1909.562998175621, -227.38591730594635
 1.7075960722032943E9, -171.13782197237015, -617.0535734891891, -1936.1312474608421, -230.97622126340866
 1.7075960722179458E9, -73.24220073223114, -433.23001086711884, -1674.757119357586, -128.77223527431488
 1.7075960722179458E9, -83.29505181312561, -536.8701184391975, -1801.8538794517517, -184.06291621923447
 1.7075960722324116E9, -178.31842988729477, -648.4088947176933, -1976.34265178442, -252.75739860534668
 1.7075960722324116E9, -120.39485937356949, -490.6748741865158, -1755.65863519907, -164.91462844610214
 1.7075960722331493E9, -67.49771440029144, -474.87753677368164, -1728.3723251223564, -162.28173887729645
 1.7075960722331493E9, -160.12755650281906, -656.3075634241104, -1983.0445525050163, -269.2727968096733
 1.7075960722467968E9, -162.9997996687889, -576.8421691656113, -1869.112240254879, -213.98211586475372
 1.7075960722467968E9, -66.54030001163483, -443.52221554517746, -1689.3576887845993, -146.00569427013397
 1.7075960722629411E9, -130.2083568572998, -606.5220152139664, -1899.2707934975624, -233.60911083221436
 1.7075960722629411E9, -174.01006513834, -619.4471094608307, -1936.8493082523346, -238.15682917833328
 1.7075960722631905E9, -89.75759893655777, -450.7028234601021, -1703.7189046144485, -141.93668311834335
 1.7075960722631905E9, -85.9279413819313, -512.4560515284538, -1765.2327790856361, -174.4887723326683
 1.7075960722771049E9, -146.9631086587906, -607.0007224082947, -1897.5953183174133, -231.45492845773697
 1.7075960722771049E9, -116.56520181894302, -528.0140353441238, -1802.33258664608, -182.8661482334137
 1.7075960722927766E9, -100.28915721178055, -517.9611842632294, -1775.764337360859, -174.01006513834
 1.7075960722927766E9, -148.87793743610382, -595.9904569387436, -1887.0637600421906, -214.93953025341034
 1.7075960722931864E9, -134.03801441192627, -556.4971134066582, -1843.2620517611504, -199.86025363206863
 1.7075960722931864E9, -89.03953814506531, -494.7438853383064, -1762.1211823225021, -166.82945722341537
 1.7075960723399715E9, -128.05417448282242, -568.9435004591942, -1851.1607204675674, -208.47698312997818
 1.7075960723399715E9, -147.9205230474472, -583.3047162890434, -1877.2502625584602, -212.5459942817688
 1.7075960723403337E9, -92.39048850536346, -496.8980677127838, -1759.7276463508606, -166.1113964319229
 1.7075960723403337E9, -112.4961906671524, -530.8862785100937, -1810.231255352497, -193.15835291147232
 1.7075960723411148E9, -156.7766061425209, -600.0594680905342, -1896.8772575259209, -223.55625975131989
 1.7075960723411148E9, -116.80455541610718, -530.6469249129295, -1812.1460841298103, -189.32869535684586
 1.7075960723417728E9, -104.59752196073532, -518.4398914575577, -1783.4236524701118, -176.16424751281738
 1.7075960723417728E9, -160.36691009998322, -605.8039544224739, -1892.8082463741302, -229.54009968042374
 1.7075960723524425E9, -139.0644399523735, -565.3531965017319, -1842.783344566822, -201.29637521505356
 1.7075960723524425E9, -101.72527879476547, -510.0625155568123, -1764.5147182941437, -183.10550183057785
 1.7075960723533738E9, -139.30379354953766, -576.8421691656113, -1855.4690852165222, -216.37565183639526
 1.7075960723533738E9, -153.6650093793869, -587.6130810379982, -1874.1386657953262, -212.78534787893295
 1.7075960723667853E9, -106.03364354372025, -513.1741123199463, -1771.4559726119041, -174.24941873550415
 1.7075960723667853E9, -124.46387052536011, -548.3590911030769, -1813.8215593099594, -196.03059607744217
 1.7075960723824384E9, -165.39333564043045, -614.4206839203835, -1898.0740255117416, -226.42850291728973
 1.7075960723824384E9, -121.59162735939026, -537.1094720363617, -1800.4177578687668, -183.8235626220703
 1.7075960723831701E9, -113.45360505580902, -523.2269634008408, -1779.115287721157, -185.25968420505524
 1.7075960723831701E9, -151.0321198105812, -587.373727440834, -1878.6863841414452, -221.64143097400665
 1.7075960723969867E9, -139.30379354953766, -562.480953335762, -1837.996272623539, -204.40797197818756
 1.7075960723969867E9, -102.20398598909378, -502.40320044755936, -1756.3766959905624, -170.18040758371353
 1.7075960724125025E9, -137.14961117506027, -567.5073788762093, -1842.543990969658, -202.97185039520264
 1.7075960724125025E9, -151.75018060207367, -584.5014842748642, -1867.676118671894, -212.0672870874405
 1.707596072413161E9, -108.18782591819763, -514.1315267086029, -1773.8495085835457, -182.3874410390854
 1.707596072413161E9, -124.70322412252426, -549.0771518945694, -1829.8582503199577, -203.2112039923668
 1.7075960724268787E9, -160.12755650281906, -594.7936889529228, -1895.2017823457718, -237.67812198400497
 1.7075960724268787E9, -122.78839534521103, -537.3488256335258, -1804.4867690205574, -194.59447449445724
 1.7075960724424253E9, -109.62394750118256, -527.5353281497955, -1787.9713708162308, -184.54162341356277
 1.7075960724424253E9, -152.70759499073029, -591.2033849954605, -1894.2443679571152, -230.01880687475204
 1.707596072443133E9, -135.4741359949112, -552.6674558520317, -1845.1768805384636, -209.9131047129631
 1.707596072443133E9, -100.5285108089447, -506.9509187936783, -1774.0888621807098, -174.01006513834
 1.7075960724571953E9, -147.68116945028305, -585.9376058578491, -1860.7348643541336, -220.20530939102173
 1.7075960724571953E9, -158.9307885169983, -593.3575673699379, -1878.2076769471169, -228.58268529176712
 1.70759607247289E9, -109.14524030685425, -514.1315267086029, -1781.2694700956345, -181.90873384475708
 1.70759607247289E9, -120.8735665678978, -546.922969520092, -1816.454448878765, -199.38154643774033
 1.7075960724732363E9, -160.60626369714737, -599.1020537018776, -1893.2869535684586, -228.1039780974388
 1.7075960724732363E9, -116.32584822177887, -530.1682177186012, -1799.4603434801102, -180.95131945610046
 1.7075960724868376E9, -104.35816836357117, -515.5676482915878, -1783.1842988729477, -186.21709859371185
 1.7075960724868376E9, -156.05854535102844, -598.6233465075493, -1881.0799201130867, -219.00854140520096
 1.7075960725026941E9, -145.76634067296982, -562.7203069329262, -1845.4162341356277, -198.4241320490837
 1.7075960725026941E9, -100.28915721178055, -511.25928354263306, -1767.6263150572777, -173.05265074968338
 1.7075960725032403E9, -137.14961117506027, -570.3796220421791, -1852.5968420505524, -209.19504392147064
 1.7075960725032403E9, -150.79276621341705, -585.698252260685, -1877.9683233499527, -216.1362982392311
 1.7075960725171657E9, -107.23041152954102, -509.3444547653198, -1777.2004589438438, -178.31842988729477
 1.7075960725171657E9, -127.33611369132996, -552.9068094491959, -1815.2576808929443, -192.679645717144
 1.7075960725324037E9, -160.12755650281906, -602.2136504650116, -1894.7230751514435, -222.59884536266327
 1.7075960725324037E9, -119.43744498491287, -526.0992065668106, -1805.444183409214, -185.4990378022194
 1.7075960725331273E9, -115.60778743028641, -531.1256321072578, -1788.9287852048874, -181.66938024759293
 1.7075960725331273E9, -154.38307017087936, -601.4955896735191, -1890.4147104024887, -230.49751406908035
 1.7075960725467484E9, -123.9851633310318, -552.6674558520317, -1834.884675860405, -197.70607125759125
 1.7075960725467484E9, -86.64600217342377, -504.3180292248726, -1769.3017902374268, -178.79713708162308
 1.7075960725624416E9, -120.39485937356949, -562.7203069329262, -1852.8361956477165, -218.7691878080368
 1.7075960725624416E9, -135.71348959207535, -578.2782907485962, -1879.6437985301018, -224.75302773714066
 1.7075960725631776E9, -85.9279413819313, -499.77031087875366, -1777.6791661381721, -179.03649067878723
 1.7075960725631776E9, -102.44333958625793, -542.6146047711372, -1809.991901755333, -190.28610974550247
 1.7075960725767968E9, -141.2186223268509, -592.8788601756096, -1897.3559647202492, -231.45492845773697
 1.7075960725767968E9, -108.42717951536179, -538.7849472165108, -1803.0506474375725, -189.0893417596817
 1.7075960725923932E9, -95.74143886566162, -518.6792450547218, -1778.3972269296646, -181.43002665042877
 1.7075960725923932E9, -144.8089262843132, -590.0066170096397, -1883.9521632790565, -224.75302773714066
 1.7075960725931258E9, -125.89999210834503, -556.7364670038223, -1846.3736485242844, -207.04086154699326
 1.7075960725931258E9, -89.51824533939362, -499.0522500872612, -1765.9508398771286, -175.92489391565323
 1.7075960726072128E9, -121.3522737622261, -561.5235389471054, -1850.6820132732391, -208.23762953281403
 1.7075960726072128E9, -131.88383203744888, -573.0125116109848, -1863.6071075201035, -201.77508240938187
 1.7075960726226828E9, -91.91178131103516, -501.44578605890274, -1774.328215777874, -175.44618672132492
 1.7075960726226828E9, -105.07622915506363, -534.476582467556, -1814.778973698616, -200.33896082639694
 1.7075960726233058E9, -146.00569427013397, -587.8524346351624, -1890.1753568053246, -228.34333169460297
 1.7075960726233058E9, -107.70911872386932, -535.4339968562126, -1797.0668075084686, -185.25968420505524
 1.7075960726372695E9, -95.26273167133331, -521.3121346235275, -1779.8333485126495, -173.5313579440117
 1.7075960726372695E9, -140.02185434103012, -586.8950202465057, -1880.12250572443, -220.68401658535004
 1.7075960726528547E9, -119.91615217924118, -554.1035774350166, -1844.4588197469711, -205.60473996400833
 1.7075960726528547E9, -81.61957663297653, -501.92449325323105, -1769.3017902374268, -175.92489391565323
 1.7075960726532412E9, -131.64447844028473, -567.2680252790451, -1855.4690852165222, -212.5459942817688
 1.7075960726532412E9, -130.2083568572998, -570.6189756393433, -1863.6071075201035, -208.47698312997818
 1.7075960726666791E9, -92.62984210252762, -502.40320044755936, -1770.7379118204117, -173.5313579440117
 1.7075960726666791E9, -106.75170433521271, -534.2372288703918, -1815.2576808929443, -193.39770650863647
 1.707596072682488E9, -148.87793743610382, -592.6395065784454, -1891.1327711939812, -223.31690615415573
 1.707596072682488E9, -108.18782591819763, -525.6204993724823, -1805.9228906035423, -181.19067305326462
 1.707596072683215E9, -101.00721800327301, -516.5250626802444, -1787.2533100247383, -180.7119658589363
 1.707596072683215E9, -151.0321198105812, -586.1769594550133, -1879.6437985301018, -216.85435903072357
 1.7075960726969004E9, -126.13934570550919, -550.5132734775543, -1842.0652837753296, -201.29637521505356
 1.7075960726969004E9, -82.337637424469, -494.7438853383064, -1760.206353545189, -167.786871612072
 1.7075960727124867E9, -116.32584822177887, -549.3165054917336, -1840.1504549980164, -199.38154643774033
 1.7075960727124867E9, -140.02185434103012, -572.2944508194923, -1863.6071075201035, -203.92926478385925
 1.7075960727131436E9, -89.03953814506531, -502.1638468503952, -1764.7540718913078, -163.71786046028137
 1.7075960727131436E9, -112.25683706998825, -539.2636544108391, -1812.1460841298103, -190.28610974550247
 1.70759607272676E9, -147.9205230474472, -591.4427385926247, -1886.106345653534, -217.09371262788773
 1.70759607272676E9, -103.6401075720787, -521.5514882206917, -1795.3913323283195, -179.27584427595139
 1.7075960727423687E9, -91.91178131103516, -515.5676482915878, -1784.8597740530968, -182.8661482334137
 1.7075960727423687E9, -142.41539031267166, -579.7144123315811, -1886.5850528478622, -216.61500543355942
 1.7075960727431736E9, -127.33611369132996, -546.4442623257637, -1845.655587732792, -195.79124248027802
 1.7075960727431736E9, -95.50208526849747, -503.360614836216, -1763.7966575026512, -168.2655788064003
 1.7075960727569463E9, -134.51672160625458, -573.0125116109848, -1851.6394276618958, -205.12603276968002
 1.7075960727569463E9, -144.09086549282074, -586.1769594550133, -1878.6863841414452, -215.1788838505745
 1.707596072772647E9, -99.57109642028809, -512.9347587227821, -1780.551409304142, -171.3771755695343
 1.707596072772647E9, -110.58136188983917, -539.2636544108391, -1815.7363880872726, -193.15835291147232
 1.7075960727731333E9, -151.75018060207367, -597.4265785217285, -1884.4308704733849, -220.44466298818588
 1.7075960727731333E9, -113.69295865297318, -533.9978752732277, -1803.768708229065, -182.3874410390854
 1.7075960727869349E9, -103.40075397491455, -520.3547202348709, -1793.4765035510063, -184.78097701072693
 1.7075960727869349E9, -161.08497089147568, -609.3942583799362, -1897.3559647202492, -232.8910500407219
 1.707596072802739E9, -131.16577124595642, -556.9758206009865, -1848.5278308987617, -194.3551208972931
 1.707596072802739E9, -90.47565972805023, -502.88190764188766, -1767.3869614601135, -165.6326892375946
 1.7075960728032165E9, -133.08060002326965, -575.4060475826263, -1848.0491237044334, -196.98801046609879
 1.7075960728032165E9, -146.9631086587906, -574.6879867911339, -1868.3941794633865, -201.29637521505356
 1.707596072817385E9, -100.28915721178055, -507.66897958517075, -1776.003690958023, -168.02622520923615
 1.707596072817385E9, -115.36843383312225, -537.8275328278542, -1808.7951337695122, -187.17451298236847
 1.7075960728327854E9, -147.68116945028305, -583.0653626918793, -1880.6012129187584, -209.9131047129631
 1.7075960728327854E9, -101.00721800327301, -515.5676482915878, -1791.561674773693, -170.898468375206
 1.7075960728331928E9, -100.5285108089447, -517.9611842632294, -1780.0727021098137, -172.33458995819092
 1.7075960728331928E9, -146.00569427013397, -586.6556666493416, -1872.7025442123413, -211.58857989311218
 1.707596072847344E9, -127.33611369132996, -552.1887486577034, -1830.097603917122, -183.8235626220703
 1.707596072847344E9, -97.4169140458107, -505.2754436135292, -1764.7540718913078, -169.22299319505692
 1.707596072862559E9, -135.23478239774704, -565.8319036960602, -1848.0491237044334, -206.08344715833664
 1.707596072862559E9, -145.04827988147736, -578.2782907485962, -1860.4955107569695, -202.01443600654602
 1.7075960728633647E9, -94.54467087984085, -501.92449325323105, -1771.6953262090683, -164.19656765460968
 1.7075960728633647E9, -119.67679858207703, -544.0507263541222, -1802.8112938404083, -185.25968420505524
 1.7075960728768394E9, -149.11729103326797, -586.8950202465057, -1877.7289697527885, -203.45055758953094
 1.7075960728768394E9, -108.18782591819763, -527.7746817469597, -1796.5881003141403, -174.4887723326683
 1.7075960728923936E9, -104.83687555789948, -519.3973058462143, -1774.0888621807098, -165.87204283475876
 1.7075960728923936E9, -138.5857327580452, -578.7569979429245, -1858.341328382492, -198.66348564624786
 1.7075960728931253E9, -127.81482088565826, -551.9493950605392, -1829.3795431256294, -184.54162341356277
 1.7075960728931253E9, -93.10854929685593, -503.360614836216, -1757.8128175735474, -159.4094957113266
 1.70759607290691E9, -130.6870640516281, -558.4119421839714, -1843.5014053583145, -194.59447449445724
 1.70759607290691E9, -143.61215829849243, -573.9699259996414, -1859.5380963683128, -202.25378960371017
 1.7075960729230456E9, -100.0498036146164, -514.6102339029312, -1767.3869614601135, -165.1539820432663
 1.7075960729230456E9, -121.59162735939026, -543.0933119654655, -1811.4280233383179, -187.41386657953262
 1.7075960729233596E9, -157.73402053117752, -591.6820921897888, -1884.4308704733849, -214.70017665624619
 1.7075960729233596E9, -105.07622915506363, -516.2857090830803, -1794.1945643424988, -169.70170038938522
 1.7075960729370437E9, -99.09238922595978, -508.3870403766632, -1779.3546413183212, -166.35075002908707
 1.7075960729370437E9, -146.9631086587906, -586.4163130521774, -1871.9844834208488, -214.46082305908203
 1.7075960729529889E9, -125.18193131685257, -549.0771518945694, -1831.5337255001068, -188.6106345653534
 1.7075960729529889E9, -91.1937205195427, -495.22259253263474, -1758.2915247678757, -154.1437165737152
 1.7075960729533432E9, -133.08060002326965, -564.3957821130753, -1840.8685157895088, -196.03059607744217
 1.7075960729533432E9, -143.37280470132828, -569.1828540563583, -1859.2987427711487, -193.87641370296478
 1.707596072966912E9, -96.22014605998993, -503.5999684333801, -1770.2592046260834, -160.60626369714737
 1.707596072966912E9, -115.1290802359581, -539.7423616051674, -1807.3590121865273, -183.8235626220703
 1.70759607298271E9, -152.70759499073029, -593.3575673699379, -1880.8405665159225, -210.3918119072914
 1.70759607298271E9, -111.53877627849579, -527.5353281497955, -1797.784868299961, -170.41976118087769
 1.707596072983233E9, -99.57109642028809, -512.2166979312897, -1780.0727021098137, -168.7442860007286
 1.707596072983233E9, -143.37280470132828, -580.9111803174019, -1871.7451298236847, -212.0672870874405
 1.707596072996757E9, -131.40512484312057, -553.6248702406883, -1840.3898085951805, -192.91899931430817
 1.707596072996757E9, -96.69885325431824, -508.62639397382736, -1770.9772654175758, -166.35075002908707
 1.7075960730126915E9, -132.8412464261055, -563.1990141272545, -1842.783344566822, -198.90283924341202
 1.7075960730126915E9, -145.04827988147736, -574.2092795968056, -1870.787715435028, -205.12603276968002
 1.7075960730131717E9, -101.24657160043716, -508.62639397382736, -1778.875934123993, -170.41976118087769
 1.7075960730131717E9, -116.08649462461472, -541.4178367853165, -1807.8377193808556, -190.04675614833832
 1.7075960730271657E9, -149.11729103326797, -588.5704954266548, -1883.7128096818924, -214.70017665624619
 1.7075960730271657E9, -113.21425145864487, -531.364985704422, -1798.5029290914536, -173.05265074968338
 1.7075960730424745E9, -92.62984210252762, -507.66897958517075, -1779.3546413183212, -167.30816441774368
 1.7075960730424745E9, -144.09086549282074, -580.6718267202377, -1875.335433781147, -211.10987269878387
 1.7075960730431635E9, -129.49029606580734, -556.0184062123299, -1847.331062912941, -194.59447449445724
 1.7075960730431635E9, -91.43307411670685, -502.6425540447235, -1759.9669999480247, -164.675274848938
 1.7075960730567887E9, -129.7296496629715, -568.70414686203, -1849.00653809309, -202.97185039520264
 1.7075960730567887E9, -152.46824139356613, -585.698252260685, -1879.883152127266, -218.2904806137085
 1.7075960730724783E9, -109.14524030685425, -516.2857090830803, -1783.1842988729477, -171.8558827638626
 1.7075960730724783E9, -128.53288167715073, -550.9919806718826, -1818.8479848504066, -196.50930327177048
 1.7075960730732307E9, -164.19656765460968, -603.4104184508324, -1897.8346719145775, -224.0349669456482
 1.7075960730732307E9, -128.05417448282242, -544.7687871456146, -1824.8318247795105, -200.81766802072525
 1.7075960730868287E9, -119.43744498491287, -528.9714497327805, -1802.8112938404083, -195.55188888311386
 1.7075960730868287E9, -164.675274848938, -599.3414072990417, -1892.568892776966, -232.65169644355774
 1.7075960731026986E9, -148.63858383893967, -571.5763900279999, -1854.7510244250298, -207.04086154699326
 1.7075960731026986E9, -110.58136188983917, -519.8760130405426, -1773.3708013892174, -174.72812592983246
 1.7075960731033523E9, -140.26120793819427, -565.592550098896, -1844.4588197469711, -201.29637521505356
 1.7075960731033523E9, -144.8089262843132, -571.815743625164, -1870.0696546435356, -204.40797197818756
 1.7075960731169822E9, -95.98079246282578, -497.85548210144043, -1769.780497431755, -162.5210924744606
 1.7075960731169822E9, -117.52261620759964, -536.3914112448692, -1812.1460841298103, -184.06291621923447
 1.7075960731325295E9, -154.86177736520767, -590.9640313982964, -1884.670224070549, -207.51956874132156
 1.7075960731325295E9, -108.42717951536179, -521.3121346235275, -1788.9287852048874, -167.06881082057953
 1.707596073133196E9, -105.31558275222778, -513.6528195142746, -1771.9346798062325, -162.28173887729645
 1.707596073133196E9, -146.00569427013397, -578.7569979429245, -1875.8141409754753, -199.86025363206863
 1.7075960731468675E9, -126.13934570550919, -541.8965439796448, -1830.8156647086143, -183.10550183057785
 1.7075960731468675E9, -84.97052699327469, -489.95681339502335, -1752.3076848387718, -151.27147340774536
 1.7075960731624343E9, -124.46387052536011, -558.1725885868073, -1836.7995046377182, -188.37128096818924
 1.7075960731624343E9, -131.64447844028473, -569.4222076535225, -1852.5968420505524, -191.00417053699493
 1.7075960731632605E9, -93.58725649118423, -491.39293497800827, -1772.892094194889, -163.23915326595306
 1.7075960731632605E9, -107.70911872386932, -526.0992065668106, -1806.4015977978706, -185.25968420505524
 1.7075960731768425E9, -143.37280470132828, -575.1666939854622, -1872.9418978095055, -200.5783144235611
 1.7075960731768425E9, -104.83687555789948, -519.3973058462143, -1798.9816362857819, -167.30816441774368
 1.7075960731921036E9, -91.1937205195427, -514.3708803057671, -1770.4985582232475, -162.5210924744606
 1.7075960731921036E9, -144.3302190899849, -578.038937151432, -1871.9844834208488, -203.45055758953094
 1.7075960732075064E9, -87.84277015924454, -499.29160368442535, -1759.7276463508606, -158.45208132266998
 1.7075960732075064E9, -119.19809138774872, -551.7100414633751, -1833.209200680256, -188.84998816251755
 1.7075960732081888E9, -133.55930721759796, -564.8744893074036, -1852.3574884533882, -193.87641370296478
 1.7075960732081888E9, -89.75759893655777, -502.1638468503952, -1764.5147182941437, -155.57983815670013
 1.7075960732226143E9, -112.25683706998825, -536.3914112448692, -1802.8112938404083, -178.79713708162308
 1.7075960732226143E9, -152.94694858789444, -592.4001529812813, -1883.4734560847282, -212.0672870874405
 1.7075960732379255E9, -114.88972663879395, -533.5191680788994, -1802.8112938404083, -173.5313579440117
 1.7075960732379255E9, -105.31558275222778, -521.5514882206917, -1780.551409304142, -171.8558827638626
 1.7075960732382689E9, -149.59599822759628, -593.596920967102, -1877.4896161556244, -215.89694464206696
 1.7075960732382689E9, -138.34637916088104, -566.3106108903885, -1840.3898085951805, -197.9454248547554
 1.7075960732521217E9, -97.89562124013901, -506.71156519651413, -1763.0785967111588, -162.28173887729645
 1.7075960732521217E9, -145.52698707580566, -575.8847547769547, -1847.0917093157768, -206.08344715833664
 1.707596073267726E9, -148.63858383893967, -586.1769594550133, -1872.223837018013, -211.34922629594803
 1.707596073267726E9, -95.74143886566162, -505.2754436135292, -1767.8656686544418, -166.82945722341537
 1.707596073268195E9, -118.00132340192795, -548.1197375059128, -1813.342852115631, -195.07318168878555
 1.707596073268195E9, -155.34048455953598, -589.5279098153114, -1893.0475999712944, -223.07755255699158
 1.7075960732821527E9, -119.19809138774872, -530.8862785100937, -1806.1622442007065, -184.06291621923447
 1.7075960732821527E9, -99.57109642028809, -513.4134659171104, -1778.1578733325005, -169.46234679222107
 1.7075960732976868E9, -145.76634067296982, -584.7408378720284, -1877.2502625584602, -216.37565183639526
 1.7075960732976868E9, -134.03801441192627, -560.5661245584488, -1843.5014053583145, -201.29637521505356
 1.7075960732981763E9, -95.50208526849747, -512.4560515284538, -1771.6953262090683, -172.81329715251923
 1.7075960732981763E9, -131.88383203744888, -568.4647932648659, -1845.655587732792, -207.51956874132156
 1.7075960733118284E9, -144.3302190899849, -576.1241083741188, -1870.787715435028, -203.45055758953094
 1.7075960733118284E9, -106.51235073804855, -515.5676482915878, -1776.003690958023, -171.13782197237015
 1.7075960733274915E9, -122.07033455371857, -538.0668864250183, -1815.2576808929443, -191.48287773132324
 1.7075960733274915E9, -161.56367808580399, -592.4001529812813, -1894.4837215542793, -224.75302773714066
 1.7075960733281944E9, -118.48003059625626, -530.6469249129295, -1814.5396201014519, -191.96158492565155
 1.7075960733281944E9, -109.14524030685425, -526.0992065668106, -1793.4765035510063, -189.56804895401
 1.707596073341794E9, -151.98953419923782, -590.485324203968, -1888.4998816251755, -223.79561334848404
 1.707596073341794E9, -137.14961117506027, -561.0448317527771, -1845.655587732792, -196.98801046609879
 1.7075960733578105E9, -88.08212375640869, -496.8980677127838, -1766.668900668621, -163.95721405744553
 1.7075960733578105E9, -126.85740649700165, -552.9068094491959, -1841.5865765810013, -196.26994967460632
 1.707596073358289E9, -139.5431471467018, -573.4912188053131, -1871.2664226293564, -207.51956874132156
 1.707596073358289E9, -101.24657160043716, -508.62639397382736, -1770.7379118204117, -168.7442860007286
 1.7075960733722093E9, -118.95873779058456, -538.0668864250183, -1805.444183409214, -187.17451298236847
 1.7075960733722093E9, -151.0321198105812, -586.4163130521774, -1886.8244064450264, -213.26405507326126
 1.707596073387437E9, -114.65037304162979, -528.0140353441238, -1806.4015977978706, -178.31842988729477
 1.707596073387437E9, -103.40075397491455, -510.0625155568123, -1781.0301164984703, -169.94105398654938
 1.7075960733881698E9, -147.9205230474472, -579.7144123315811, -1878.6863841414452, -214.22146946191788
 1.7075960733881698E9, -129.49029606580734, -552.9068094491959, -1839.9111014008522, -191.7222313284874
 1.7075960734022832E9, -97.65626764297485, -501.44578605890274, -1762.8392431139946, -156.2978989481926
 1.7075960734022832E9, -137.14961117506027, -567.028671681881, -1854.0329636335373, -207.04086154699326
 1.707596073418193E9, -143.13345110416412, -576.1241083741188, -1874.1386657953262, -208.9556903243065
 1.707596073418193E9, -102.20398598909378, -513.8921731114388, -1781.2694700956345, -170.41976118087769
 1.707596073432916E9, -112.73554426431656, -532.5617536902428, -1810.7099625468254, -187.17451298236847
 1.707596073432916E9, -148.3992302417755, -587.373727440834, -1886.8244064450264, -216.85435903072357
 1.707596073433236E9, -106.75170433521271, -518.4398914575577, -1800.657111465931, -174.01006513834
 1.707596073433236E9, -99.09238922595978, -512.9347587227821, -1781.0301164984703, -176.6429547071457
 1.7075960734476388E9, -146.24504786729813, -587.6130810379982, -1877.4896161556244, -214.46082305908203
 1.7075960734476388E9, -124.70322412252426, -553.3855166435242, -1843.9801125526428, -196.03059607744217
 1.707596073448312E9, -89.75759893655777, -499.0522500872612, -1761.6424751281738, -165.39333564043045
 1.707596073448312E9, -125.89999210834503, -560.3267709612846, -1838.7143334150314, -196.03059607744217
 1.707596073461712E9, -136.19219678640366, -569.4222076535225, -1867.676118671894, -205.60473996400833
 1.707596073461712E9, -90.71501332521439, -501.6851396560669, -1768.3443758487701, -168.02622520923615
 1.7075960734774764E9, -106.51235073804855, -531.6043393015862, -1800.1784042716026, -175.68554031848907
 1.7075960734774764E9, -144.09086549282074, -583.7834234833717, -1877.010908961296, -210.87051910161972
 1.7075960734781451E9, -106.2729971408844, -527.7746817469597, -1799.9390506744385, -175.20683312416077
 1.7075960734781451E9, -102.44333958625793, -515.5676482915878, -1776.003690958023, -170.898468375206
 1.7075960734923787E9, -152.94694858789444, -581.8685947060585, -1870.548361837864, -207.51956874132156
 1.7075960734923787E9, -133.3199536204338, -551.9493950605392, -1844.6981733441353, -191.2435241341591
 1.7075960735079403E9, -98.85303562879562, -505.2754436135292, -1763.0785967111588, -172.09523636102676
 1.7075960735079403E9, -134.27736800909042, -565.1138429045677, -1848.5278308987617, -206.56215435266495
 1.7075960735081992E9, -151.0321198105812, -577.0815227627754, -1871.0270690321922, -201.5357288122177
 1.7075960735081992E9, -106.2729971408844, -510.30186915397644, -1775.5249837636948, -167.786871612072
 1.7075960735218968E9, -115.60778743028641, -535.6733504533768, -1802.8112938404083, -179.27584427595139
 1.7075960735218968E9, -155.57983815670013, -594.3149817585945, -1884.4308704733849, -208.71633672714233
 1.7075960735377545E9, -113.21425145864487, -531.1256321072578, -1806.1622442007065, -175.20683312416077
 1.7075960735377545E9, -101.00721800327301, -518.2005378603935, -1773.6101549863815, -169.94105398654938
 1.707596073538299E9, -145.52698707580566, -590.0066170096397, -1878.2076769471169, -215.41823744773865
 1.707596073538299E9, -137.14961117506027, -560.3267709612846, -1849.00653809309, -198.90283924341202
 1.7075960735682716E9, -101.00721800327301, -513.6528195142746, -1765.2327790856361, -166.1113964319229
 1.7075960735682716E9, -135.71348959207535, -569.1828540563583, -1851.87878125906, -201.29637521505356
 1.7075960735689597E9, -147.4418158531189, -582.3473019003868, -1877.2502625584602, -203.92926478385925
 1.7075960735689597E9, -99.33174282312393, -507.19027239084244, -1779.3546413183212, -166.35075002908707
 1.7075960735698917E9, -120.63421297073364, -544.5294335484505, -1805.6835370063782, -184.78097701072693
 1.7075960735698917E9, -153.90436297655106, -596.4691641330719, -1903.339804649353, -219.00854140520096
 1.7075960735818768E9, -106.51235073804855, -520.3547202348709, -1794.673271536827, -165.1539820432663
 1.7075960735818768E9, -105.55493634939194, -517.7218306660652, -1776.003690958023, -167.06881082057953
 1.7075960735976636E9, -146.24504786729813, -588.5704954266548, -1875.0960801839828, -200.0996072292328
 1.7075960735976636E9, -135.9528431892395, -559.369356572628, -1847.0917093157768, -192.679645717144
 1.7075960735982692E9, -105.07622915506363, -508.8657475709915, -1762.1211823225021, -164.91462844610214
 1.7075960735982692E9, -140.26120793819427, -573.251865208149, -1857.3839139938354, -204.40797197818756
 1.707596073611812E9, -158.9307885169983, -592.8788601756096, -1879.6437985301018, -210.87051910161972
 1.707596073611812E9, -111.53877627849579, -518.6792450547218, -1774.328215777874, -165.6326892375946
 1.707596073627848E9, -131.40512484312057, -552.9068094491959, -1816.215095281601, -194.11576730012894
 1.707596073627848E9, -176.40360110998154, -611.5484407544136, -1904.2972190380096, -229.06139248609543
 1.7075960736282587E9, -126.6180528998375, -537.58817923069, -1802.5719402432442, -177.36101549863815
 1.7075960736282587E9, -106.03364354372025, -524.6630849838257, -1781.987530887127, -171.61652916669846
 1.7075960736420891E9, -155.8191917538643, -601.256236076355, -1883.9521632790565, -219.00854140520096
 1.7075960736420891E9, -138.5857327580452, -568.2254396677017, -1853.0755492448807, -197.70607125759125
 1.7075960736578207E9, -101.96463239192963, -512.4560515284538, -1759.9669999480247, -166.82945722341537
 1.7075960736578207E9, -141.2186223268509, -573.4912188053131, -1849.4852452874184, -200.81766802072525
 1.7075960736582563E9, -153.1863021850586, -589.7672634124756, -1883.234102487564, -212.5459942817688
 1.7075960736582563E9, -107.23041152954102, -510.78057634830475, -1776.4823981523514, -167.30816441774368
 1.7075960736720672E9, -118.48003059625626, -548.3590911030769, -1810.9493161439896, -190.52546334266663
 1.7075960736720672E9, -152.70759499073029, -593.3575673699379, -1892.0901855826378, -212.30664068460464
 1.7075960736874957E9, -113.21425145864487, -529.9288641214371, -1808.7951337695122, -176.88230830430984
 1.7075960736874957E9, -112.4961906671524, -529.2108033299446, -1787.0139564275742, -175.44618672132492
 1.7075960736883128E9, -160.12755650281906, -601.9742968678474, -1891.1327711939812, -211.58857989311218
 1.7075960736883128E9, -140.97926872968674, -562.7203069329262, -1854.5116708278656, -195.3125352859497
 1.707596073702093E9, -100.76786440610886, -510.30186915397644, -1770.2592046260834, -166.1113964319229
 1.707596073702093E9, -141.45797592401505, -574.927340388298, -1849.00653809309, -195.55188888311386
 1.7075960737178419E9, -153.90436297655106, -587.373727440834, -1872.7025442123413, -199.86025363206863
 1.7075960737178419E9, -110.58136188983917, -514.1315267086029, -1774.5675693750381, -163.23915326595306
 1.707596073718407E9, -124.70322412252426, -548.1197375059128, -1814.3002665042877, -189.32869535684586
 1.707596073718407E9, -167.54751801490784, -609.6336119771004, -1895.6804895401, -219.2478950023651
 1.7075960737320108E9, -123.02774894237518, -538.7849472165108, -1811.1886697411537, -177.83972269296646
 1.7075960737320108E9, -111.06006908416748, -527.5353281497955, -1782.9449452757835, -174.72812592983246
 1.7075960737479448E9, -155.10113096237183, -601.7349432706833, -1888.4998816251755, -219.72660219669342
 1.7075960737479448E9, -143.37280470132828, -567.2680252790451, -1856.1871460080147, -204.1686183810234
 1.707596073748291E9, -104.83687555789948, -511.0199299454689, -1764.993425488472, -171.13782197237015
 1.707596073748291E9, -142.1760367155075, -573.4912188053131, -1850.6820132732391, -204.64732557535172
 1.707596073761881E9, -152.94694858789444, -583.5440698862076, -1879.6437985301018, -214.93953025341034
 1.707596073761881E9, -108.9058867096901, -518.6792450547218, -1769.780497431755, -166.59010362625122
 1.7075960737775283E9, -119.67679858207703, -545.4868479371071, -1805.9228906035423, -179.51519787311554
 1.7075960737775283E9, -166.59010362625122, -603.6497720479965, -1900.4675614833832, -220.44466298818588
 1.7075960737782607E9, -120.39485937356949, -534.2372288703918, -1806.880304992199, -179.03649067878723
 1.7075960737782607E9, -100.28915721178055, -513.8921731114388, -1774.8069229722023, -165.6326892375946
 1.7075960737918785E9, -147.20246225595474, -589.5279098153114, -1882.9947488904, -207.2802151441574
 1.7075960737918785E9, -139.5431471467018, -562.9596605300903, -1852.118134856224, -195.79124248027802
 1.707596073807489E9, -100.28915721178055, -504.07867562770844, -1766.668900668621, -168.50493240356445
 1.707596073807489E9, -140.02185434103012, -567.7467324733734, -1858.341328382492, -214.70017665624619
 1.7075960738081596E9, -163.95721405744553, -591.6820921897888, -1891.3721247911453, -220.20530939102173
 1.7075960738081596E9, -107.23041152954102, -513.1741123199463, -1781.987530887127, -171.8558827638626
 1.707596073822077E9, -112.97489786148071, -535.4339968562126, -1817.4118632674217, -193.15835291147232
 1.707596073822077E9, -169.46234679222107, -612.9845623373985, -1903.5791582465172, -228.34333169460297
 1.7075960738377771E9, -128.53288167715073, -541.8965439796448, -1815.4970344901085, -189.56804895401
 1.7075960738377771E9, -112.4961906671524, -518.4398914575577, -1781.987530887127, -178.07907629013062
 1.7075960738382733E9, -149.83535182476044, -589.2885562181473, -1888.0211744308472, -215.1788838505745
 1.7075960738382733E9, -137.38896477222443, -559.369356572628, -1853.3149028420448, -203.45055758953094
 1.7075960738517373E9, -97.4169140458107, -504.3180292248726, -1761.881828725338, -161.32432448863983
 1.7075960738517373E9, -129.49029606580734, -564.3957821130753, -1846.3736485242844, -200.33896082639694
 1.7075960738675997E9, -148.3992302417755, -583.5440698862076, -1881.7979809045792, -205.36538636684418
 1.7075960738675997E9, -103.6401075720787, -501.44578605890274, -1776.2430445551872, -164.91462844610214
 1.707596073868234E9, -113.21425145864487, -537.58817923069, -1809.0344873666763, -185.9777449965477
 1.707596073868234E9, -167.54751801490784, -605.3252472281456, -1908.8449373841286, -226.18914932012558
 1.707596073882111E9, -128.53288167715073, -534.7159360647202, -1815.7363880872726, -191.96158492565155
 1.707596073882111E9, -114.17166584730148, -528.4927425384521, -1795.3913323283195, -187.41386657953262
 1.70759607389767E9, -165.87204283475876, -608.6761975884438, -1903.8185118436813, -236.24200040102005
 1.70759607389767E9, -150.31405901908875, -568.4647932648659, -1856.4264996051788, -203.2112039923668
 1.7075960738982646E9, -102.92204678058624, -495.9406533241272, -1760.445707142353, -162.76044607162476
 1.7075960738982646E9, -134.27736800909042, -568.2254396677017, -1850.442659676075, -198.4241320490837
 1.7075960739119017E9, -161.32432448863983, -594.3149817585945, -1892.8082463741302, -211.10987269878387
 1.7075960739119017E9, -112.25683706998825, -501.92449325323105, -1764.5147182941437, -164.675274848938
 1.707596073927504E9, -119.67679858207703, -539.2636544108391, -1811.1886697411537, -187.41386657953262
 1.707596073927504E9, -168.02622520923615, -617.5322806835175, -1922.4880924224854, -232.8910500407219
 1.707596073928182E9, -130.2083568572998, -529.4501569271088, -1808.3164265751839, -188.13192737102509
 1.707596073928182E9, -102.68269318342209, -515.5676482915878, -1767.6263150572777, -174.24941873550415
 1.7075960739421632E9, -159.8882029056549, -611.0697335600853, -1903.8185118436813, -226.42850291728973
 1.7075960739421632E9, -154.86177736520767, -578.2782907485962, -1860.4955107569695, -201.5357288122177
 1.707596073958495E9, -89.75759893655777, -480.14331591129303, -1734.8348722457886, -151.27147340774536
 1.707596073958495E9, -128.53288167715073, -572.2944508194923, -1853.3149028420448, -192.44029211997986
 1.7075960739585383E9, -164.91462844610214, -598.3839929103851, -1903.339804649353, -213.26405507326126
 1.7075960739585383E9, -113.69295865297318, -504.7967364192009, -1762.8392431139946, -165.6326892375946
 1.707596073972022E9, -114.88972663879395, -540.4604223966599, -1803.2900010347366, -186.93515938520432
 1.707596073972022E9, -164.43592125177383, -614.4206839203835, -1904.775926232338, -209.19504392147064
 1.707596074004225E9, -137.14961117506027, -529.2108033299446, -1792.0403819680214, -165.1539820432663
 1.707596074004225E9, -107.46976512670517, -507.4296259880066, -1748.2386736869812, -147.9205230474472
 1.7075960740046687E9, -165.6326892375946, -602.2136504650116, -1895.9198431372643, -205.36538636684418
 1.7075960740046687E9, -157.01595973968506, -567.9860860705376, -1848.5278308987617, -182.3874410390854
 1.7075960740054855E9, -100.0498036146164, -476.7923655509949, -1721.1917172074318, -131.40512484312057
 1.7075960740054855E9, -140.73991513252258, -571.5763900279999, -1850.6820132732391, -189.56804895401
 1.7075960740062578E9, -171.61652916669846, -596.708517730236, -1894.005014359951, -207.75892233848572
 1.7075960740062578E9, -113.45360505580902, -492.3503493666649, -1745.6057841181755, -147.68116945028305
 1.7075960740171323E9, -122.54904174804688, -529.9288641214371, -1791.8010283708572, -170.65911477804184
 1.7075960740171323E9, -183.344855427742, -623.5161206126213, -1918.658434867859, -217.33306622505188
 1.7075960740317109E9, -146.48440146446228, -537.58817923069, -1799.220989882946, -164.43592125177383
 1.7075960740317109E9, -106.99105793237686, -505.7541508078575, -1752.7863920331001, -154.86177736520767
 1.707596074047567E9, -158.45208132266998, -609.1549047827721, -1904.0578654408455, -218.05112701654434
 1.707596074047567E9, -160.84561729431152, -575.8847547769547, -1865.7612898945808, -196.50930327177048
 1.70759607404823E9, -92.15113490819931, -465.54274648427963, -1699.4105398654938, -135.9528431892395
 1.70759607404823E9, -125.66063851118088, -578.038937151432, -1858.341328382492, -201.29637521505356
 1.7075960740782273E9, -187.65322017669678, -631.1754357218742, -1928.7112859487534, -224.75302773714066
 1.7075960740782273E9, -106.03364354372025, -463.1492105126381, -1703.2401974201202, -129.01158887147903
 1.7075960740788753E9, -90.71501332521439, -509.3444547653198, -1776.2430445551872, -165.6326892375946
 1.7075960740788753E9, -181.66938024759293, -642.6644083857536, -1969.8801046609879, -246.29485148191452
 1.7075960740796351E9, -139.5431471467018, -509.82316195964813, -1783.663006067276, -166.82945722341537
 1.7075960740796351E9, -79.7047478556633, -467.2182216644287, -1711.3782197237015, -138.34637916088104
 1.7075960740919333E9, -161.32432448863983, -636.9199220538139, -1941.1576730012894, -233.3697572350502
 1.7075960740919333E9, -175.92489391565323, -583.5440698862076, -1878.6863841414452, -202.25378960371017
 1.707596074107908E9, -84.97052699327469, -448.78799468278885, -1677.86871612072, -127.0967600941658
 1.707596074107908E9, -120.39485937356949, -582.8260090947151, -1868.8728866577148, -203.45055758953094
 1.7075960741082351E9, -187.17451298236847, -625.6703029870987, -1937.328015446663, -229.06139248609543
 1.7075960741082351E9, -101.96463239192963, -457.8834313750267, -1711.3782197237015, -147.4418158531189
 1.7075960741219056E9, -93.34790289402008, -519.1579522490501, -1781.5088236927986, -174.9674795269966
 1.7075960741219056E9, -182.8661482334137, -661.3339889645576, -1973.4704086184502, -248.20968025922775
 1.7075960741380477E9, -139.78250074386597, -516.5250626802444, -1788.450078010559, -169.70170038938522
 1.7075960741380477E9, -84.73117339611053, -471.5265864133835, -1712.335634112358, -145.04827988147736
 1.7075960741382885E9, -169.46234679222107, -640.2708724141121, -1943.3118553757668, -239.83230435848236
 1.7075960741382885E9, -178.79713708162308, -587.373727440834, -1883.9521632790565, -216.37565183639526
 1.707596074151818E9, -82.09828382730484, -446.3944587111473, -1683.8525560498238, -137.86767196655273
 1.707596074151818E9, -127.57546728849411, -586.1769594550133, -1876.0534945726395, -216.1362982392311
 1.7075960741677046E9, -185.9777449965477, -626.3883637785912, -1940.9183194041252, -230.49751406908035
 1.7075960741677046E9, -102.20398598909378, -457.4047241806984, -1708.0272693634033, -140.26120793819427
 1.7075960741681538E9, -85.9279413819313, -511.9773443341255, -1773.8495085835457, -166.1113964319229
 1.7075960741681538E9, -178.79713708162308, -646.9727731347084, -1967.4865686893463, -237.67812198400497
 1.7075960741822636E9, -138.1070255637169, -514.3708803057671, -1772.892094194889, -158.9307885169983
 1.7075960741822636E9, -88.32147735357285, -477.51042634248734, -1716.4046452641487, -148.87793743610382
 1.7075960741970065E9, -151.51082700490952, -630.2180213332176, -1939.4821978211403, -235.76329320669174
 1.7075960741970065E9, -168.50493240356445, -578.2782907485962, -1875.8141409754753, -206.08344715833664
 1.7075960742128556E9, -120.39485937356949, -579.2357051372528, -1874.3780193924904, -216.1362982392311
 1.7075960742128556E9, -178.55778348445892, -621.8406454324722, -1945.7053913474083, -236.4813539981842
 1.707596074213287E9, -98.37432843446732, -457.16537058353424, -1698.4531254768372, -131.88383203744888
 1.707596074213287E9, -87.36406296491623, -522.2695490121841, -1774.0888621807098, -167.06881082057953
 1.7075960742270267E9, -177.83972269296646, -652.2385522723198, -1966.0504471063614, -244.14066910743713
 1.7075960742270267E9, -134.27736800909042, -511.73799073696136, -1776.003690958023, -167.06881082057953
 1.7075960742430067E9, -74.91767591238022, -472.9627079963684, -1708.2666229605675, -148.63858383893967
 1.7075960742430067E9, -154.38307017087936, -629.260606944561, -1946.1840985417366, -241.02907234430313
 1.7075960742432947E9, -166.35075002908707, -583.7834234833717, -1879.4044449329376, -214.70017665624619
 1.7075960742432947E9, -76.83250468969345, -446.15510511398315, -1679.544191300869, -135.23478239774704
 1.7075960742572713E9, -120.8735665678978, -587.6130810379982, -1871.7451298236847, -211.58857989311218
 1.7075960742572713E9, -184.78097701072693, -632.372203707695, -1957.673071205616, -252.75739860534668
 1.7075960742729857E9, -106.51235073804855, -464.82468569278717, -1712.335634112358, -148.15987664461136
 1.7075960742729857E9, -93.34790289402008, -528.0140353441238, -1793.4765035510063, -182.62679463624954
 1.7075960742733164E9, -195.55188888311386, -674.259083211422, -1991.6612820029259, -261.3741281032562
 1.7075960742733164E9, -148.3992302417755, -519.8760130405426, -1799.220989882946, -188.13192737102509
 1.707596074286939E9, -75.39638310670853, -478.46784073114395, -1719.994949221611, -158.69143491983414
 1.707596074286939E9, -163.71786046028137, -650.0843698978424, -1957.673071205616, -254.43287378549576
 1.7075960743029892E9, -172.81329715251923, -588.3311418294907, -1885.1489312648773, -219.00854140520096
 1.7075960743029892E9, -78.74733346700668, -448.5486410856247, -1683.8525560498238, -144.56957268714905
 1.7075960743032904E9, -127.0967600941658, -598.8627001047134, -1880.12250572443, -223.31690615415573
 1.7075960743032904E9, -182.62679463624954, -627.8244853615761, -1950.4924632906914, -243.90131551027298
 1.7075960743170338E9, -103.40075397491455, -458.362138569355, -1714.0111092925072, -152.70759499073029
 1.7075960743170338E9, -93.34790289402008, -529.2108033299446, -1783.1842988729477, -182.14808744192123
 1.7075960743330631E9, -185.9777449965477, -659.6585137844086, -1984.241320490837, -261.85283529758453
 1.7075960743330631E9, -134.99542880058289, -511.73799073696136, -1787.2533100247383, -178.07907629013062
 1.7075960743332758E9, -81.85893023014069, -484.9303878545761, -1718.558827638626, -155.34048455953598
 1.7075960743332758E9, -159.64884930849075, -644.1005299687386, -1956.4763032197952, -252.27869141101837
 1.7075960743468964E9, -170.65911477804184, -588.0917882323265, -1883.4734560847282, -220.44466298818588
 1.7075960743468964E9, -71.80607914924622, -439.93191158771515, -1682.8951416611671, -139.30379354953766
 1.707596074362468E9, -114.88972663879395, -582.1079483032227, -1881.558627307415, -221.16272377967834
 1.707596074362468E9, -191.96158492565155, -635.483800470829, -1953.8434136509895, -247.01291227340698
 1.707596074363194E9, -106.75170433521271, -461.9524425268173, -1709.9420981407166, -148.63858383893967
 1.707596074363194E9, -93.58725649118423, -520.3547202348709, -1781.7481772899628, -184.78097701072693
 1.707596074376827E9, -185.02033060789108, -659.1798065900803, -1984.001966893673, -259.21994572877884
 1.707596074376827E9, -139.30379354953766, -512.4560515284538, -1792.7584427595139, -178.55778348445892
 1.7075960743924768E9, -69.65189677476883, -467.9362824559212, -1711.6175733208656, -151.27147340774536
 1.7075960743924768E9, -151.27147340774536, -628.0638389587402, -1950.7318168878555, -244.14066910743713
 1.7075960743931823E9, -166.82945722341537, -583.5440698862076, -1881.0799201130867, -210.63116550445557
 1.7075960743931823E9, -78.26862627267838, -441.6073867678642, -1679.7835448980331, -137.38896477222443
 1.7075960744071949E9, -117.52261620759964, -582.3473019003868, -1875.0960801839828, -221.64143097400665
 1.7075960744071949E9, -192.2009385228157, -640.9889332056046, -1951.449877679348, -243.18325471878052
 1.707596074422799E9, -107.23041152954102, -461.23438173532486, -1708.0272693634033, -144.3302190899849
 1.707596074422799E9, -95.50208526849747, -521.0727810263634, -1790.1255531907082, -185.4990378022194
 1.707596074423364E9, -184.30226981639862, -662.5307569503784, -1987.113563656807, -258.9805921316147
 1.707596074423364E9, -139.5431471467018, -517.9611842632294, -1791.322321176529, -178.31842988729477
 1.7075960744373562E9, -65.34353202581406, -463.86727130413055, -1709.9420981407166, -141.6973295211792
 1.7075960744373562E9, -155.34048455953598, -631.8934965133667, -1951.2105240821838, -241.02907234430313
 1.7075960744527805E9, -162.9997996687889, -575.1666939854622, -1880.6012129187584, -207.75892233848572
 1.7075960744527805E9, -78.50797986984253, -442.804154753685, -1672.1242297887802, -135.9528431892395
 1.7075960744532375E9, -114.88972663879395, -584.7408378720284, -1869.3515938520432, -212.30664068460464
 1.7075960744532375E9, -183.58420902490616, -628.7818997502327, -1947.1415129303932, -243.42260831594467
 1.7075960744667964E9, -99.33174282312393, -465.3033928871155, -1714.2504628896713, -145.2876334786415
 1.7075960744667964E9, -79.46539425849915, -512.2166979312897, -1774.0888621807098, -169.46234679222107
 1.7075960744829285E9, -169.22299319505692, -646.9727731347084, -1978.9755413532257, -251.32127702236176
 1.7075960744829285E9, -142.41539031267166, -522.2695490121841, -1787.7320172190666, -172.81329715251923
 1.7075960744832852E9, -75.15702950954437, -473.20206159353256, -1712.8143413066864, -150.31405901908875
 1.7075960744832852E9, -151.0321198105812, -627.8244853615761, -1940.678965806961, -238.6355363726616
 1.7075960744968896E9, -163.71786046028137, -585.4588986635208, -1879.883152127266, -207.99827593564987
 1.7075960744968896E9, -78.74733346700668, -442.08609396219254, -1675.4751801490784, -129.49029606580734
 1.7075960745124896E9, -116.08649462461472, -580.4324731230736, -1866.2399970889091, -210.3918119072914
 1.7075960745124896E9, -179.51519787311554, -619.4471094608307, -1939.7215514183044, -235.04523241519928
 1.7075960745131595E9, -100.76786440610886, -463.6279177069664, -1714.0111092925072, -144.56957268714905
 1.7075960745131595E9, -92.15113490819931, -514.1315267086029, -1776.9611053466797, -181.90873384475708
 1.7075960745267785E9, -184.30226981639862, -651.041784286499, -1966.7685078978539, -252.51804500818253
 1.7075960745267785E9, -137.62831836938858, -525.8598529696465, -1798.5029290914536, -179.51519787311554
 1.707596074542462E9, -85.20988059043884, -478.2284871339798, -1721.67042440176, -155.34048455953598
 1.707596074542462E9, -157.2553133368492, -623.037413418293, -1925.8390427827835, -226.42850291728973
 1.7075960745431333E9, -156.05854535102844, -578.5176443457603, -1872.223837018013, -201.0570216178894
 1.7075960745431333E9, -91.91178131103516, -474.6381831765175, -1718.0801204442978, -152.70759499073029
 1.7075960745567677E9, -133.3199536204338, -585.9376058578491, -1856.665853202343, -211.82793349027634
 1.7075960745567677E9, -173.05265074968338, -616.3355126976967, -1915.3074845075607, -226.90721011161804
 1.7075960745730572E9, -117.04390901327133, -506.9509187936783, -1754.9405744075775, -169.70170038938522
 1.7075960745730572E9, -110.58136188983917, -532.5617536902428, -1798.9816362857819, -183.58420902490616
 1.707596074573388E9, -174.01006513834, -626.8670709729195, -1940.678965806961, -240.55036514997482
 1.707596074573388E9, -136.19219678640366, -536.3914112448692, -1811.667376935482, -190.04675614833832
 1.7075960745869896E9, -96.93820685148239, -505.99350440502167, -1756.6160495877266, -169.22299319505692
 1.7075960745869896E9, -150.31405901908875, -612.2665015459061, -1910.5204125642776, -227.38591730594635
 1.7075960746027157E9, -148.87793743610382, -573.9699259996414, -1867.1974114775658, -205.36538636684418
 1.7075960746027157E9, -90.95436692237854, -478.46784073114395, -1723.3458995819092, -151.51082700490952
 1.7075960746033344E9, -132.12318563461304, -579.475058734417, -1855.4690852165222, -210.87051910161972
 1.7075960746033344E9, -162.76044607162476, -603.1710648536682, -1902.8610974550247, -221.4020773768425
 1.7075960746171975E9, -98.85303562879562, -483.73361986875534, -1743.9303089380264, -151.75018060207367
 1.7075960746171975E9, -92.86919569969177, -523.9450241923332, -1791.0829675793648, -181.19067305326462
 1.7075960746325004E9, -159.64884930849075, -619.2077558636665, -1932.0622363090515, -236.4813539981842
 1.7075960746325004E9, -123.9851633310318, -525.141792178154, -1793.7158571481705, -175.44618672132492
 1.7075960746332047E9, -82.337637424469, -485.8878022432327, -1744.648369729519, -157.73402053117752
 1.7075960746332047E9, -153.42565578222275, -607.9581367969513, -1912.9139485359192, -231.69428205490112
 1.7075960746469977E9, -153.42565578222275, -570.3796220421791, -1865.2825827002525, -205.36538636684418
 1.7075960746469977E9, -79.94410145282745, -466.97886806726456, -1715.447230875492, -144.8089262843132
 1.7075960746625586E9, -122.07033455371857, -570.140268445015, -1856.665853202343, -210.87051910161972
 1.7075960746625586E9, -164.91462844610214, -601.9742968678474, -1907.4088158011436, -226.42850291728973
 1.707596074663237E9, -96.93820685148239, -481.10073029994965, -1740.1006513834, -151.75018060207367
 1.707596074663237E9, -99.09238922595978, -519.6366594433784, -1776.9611053466797, -168.2655788064003
 1.7075960746768107E9, -164.675274848938, -615.3780983090401, -1929.9080539345741, -233.8484644293785
 1.7075960746768107E9, -121.83098095655441, -516.5250626802444, -1798.2635754942894, -176.6429547071457
 1.7075960746925485E9, -81.14086943864822, -484.9303878545761, -1736.989054620266, -151.51082700490952
 1.7075960746925485E9, -152.46824139356613, -612.7452087402344, -1912.9139485359192, -226.18914932012558
 1.7075960746932049E9, -150.0747054219246, -577.5602299571037, -1869.112240254879, -210.63116550445557
 1.7075960746932049E9, -84.25246620178223, -474.6381831765175, -1728.3723251223564, -159.64884930849075
 1.7075960747068467E9, -122.07033455371857, -570.140268445015, -1857.6232675909996, -215.6575910449028
 1.7075960747068467E9, -169.94105398654938, -610.591026365757, -1914.3500701189041, -238.15682917833328
 1.7075960747227857E9, -108.18782591819763, -494.2651781439781, -1757.5734639763832, -168.7442860007286
 1.7075960747227857E9, -105.07622915506363, -533.9978752732277, -1800.1784042716026, -189.56804895401
 1.7075960747233307E9, -176.16424751281738, -627.5851317644119, -1937.567369043827, -243.42260831594467
 1.7075960747233307E9, -130.92641764879227, -528.4927425384521, -1798.9816362857819, -179.27584427595139
 1.7075960747372153E9, -95.50208526849747, -491.6322885751724, -1738.1858226060867, -156.2978989481926
 1.7075960747372153E9, -155.34048455953598, -608.1974903941154, -1904.2972190380096, -224.9923813343048
 1.7075960747527206E9, -150.0747054219246, -566.0712572932243, -1854.7510244250298, -199.62090003490448
 1.7075960747527206E9, -91.43307411670685, -472.9627079963684, -1717.1227060556412, -147.20246225595474
 1.707596074753268E9, -132.3625392317772, -578.038937151432, -1850.6820132732391, -201.29637521505356
 1.707596074753268E9, -174.72812592983246, -611.5484407544136, -1915.5468381047249, -229.30074608325958
 1.7075960747671778E9, -104.59752196073532, -486.6058630347252, -1744.1696625351906, -155.57983815670013
 1.7075960747671778E9, -111.77812987565994, -534.9552896618843, -1794.9126251339912, -182.14808744192123
 1.70759607478297E9, -173.05265074968338, -634.5263860821724, -1930.1474075317383, -230.7368676662445
 1.70759607478297E9, -133.79866081476212, -530.1682177186012, -1793.4765035510063, -174.72812592983246
 1.7075960747835567E9, -106.51235073804855, -506.2328580021858, -1759.4882927536964, -182.14808744192123
 1.7075960747835567E9, -156.05854535102844, -616.0961591005325, -1912.9139485359192, -234.32717162370682
 1.7075960747972195E9, -148.87793743610382, -564.8744893074036, -1857.8626211881638, -199.14219284057617
 1.7075960747972195E9, -89.75759893655777, -474.39882957935333, -1713.771755695343, -143.85151189565659
 1.707596074812712E9, -130.92641764879227, -573.251865208149, -1847.5704165101051, -197.4667176604271
 1.707596074812712E9, -162.5210924744606, -599.82011449337, -1902.3823902606964, -215.6575910449028
 1.7075960748132915E9, -110.10265469551086, -494.5045317411423, -1742.2548337578773, -155.57983815670013
 1.7075960748132915E9, -109.3845939040184, -526.3385601639748, -1799.6996970772743, -186.69580578804016
 1.707596074826835E9, -172.09523636102676, -630.6967285275459, -1937.0886618494987, -244.61937630176544
 1.707596074826835E9, -139.78250074386597, -535.4339968562126, -1806.1622442007065, -187.89257377386093
 1.7075960748424456E9, -104.35816836357117, -507.19027239084244, -1752.3076848387718, -173.05265074968338
 1.7075960748424456E9, -162.5210924744606, -617.5322806835175, -1915.786191701889, -230.97622126340866
 1.7075960748431811E9, -157.2553133368492, -583.0653626918793, -1863.1284003257751, -205.84409356117249
 1.7075960748431811E9, -100.5285108089447, -476.0743047595024, -1720.4736564159393, -152.46824139356613
 1.7075960748569512E9, -129.2509424686432, -569.6615612506866, -1850.442659676075, -213.74276226758957
 1.7075960748569512E9, -173.29200434684753, -607.9581367969513, -1904.2972190380096, -227.38591730594635
 1.7075960748729467E9, -111.29942268133163, -495.70129972696304, -1751.110916852951, -164.675274848938
 1.7075960748729467E9, -112.73554426431656, -533.5191680788994, -1790.1255531907082, -190.76481693983078
 1.707596074873303E9, -182.14808744192123, -637.1592756509781, -1941.1576730012894, -250.6032162308693
 1.707596074873303E9, -143.85151189565659, -546.922969520092, -1806.880304992199, -193.15835291147232
 1.707596074886816E9, -99.33174282312393, -499.5309572815895, -1752.7863920331001, -174.72812592983246
 1.707596074886816E9, -163.47850686311722, -618.0109878778458, -1917.4616668820381, -249.40644824504852
 1.7075960749029593E9, -167.54751801490784, -586.6556666493416, -1877.9683233499527, -227.86462450027466
 1.7075960749029593E9, -97.17756044864655, -483.4942662715912, -1729.329739511013, -166.1113964319229
 1.7075960749032881E9, -134.51672160625458, -584.5014842748642, -1866.2399970889091, -223.55625975131989
 1.7075960749032881E9, -180.233258664608, -626.3883637785912, -1918.1797276735306, -235.28458601236343
 1.7075960749170215E9, -125.66063851118088, -506.71156519651413, -1759.2489391565323, -171.61652916669846
 1.7075960749170215E9, -121.59162735939026, -542.1358975768089, -1799.4603434801102, -191.48287773132324
 1.7075960749328983E9, -182.3874410390854, -635.0050932765007, -1933.4983578920364, -241.7471331357956
 1.7075960749328983E9, -143.37280470132828, -531.1256321072578, -1803.768708229065, -188.37128096818924
 1.7075960749333677E9, -99.57109642028809, -497.3767749071121, -1742.0154801607132, -164.91462844610214
 1.7075960749333677E9, -161.80303168296814, -620.4045238494873, -1904.5365726351738, -230.7368676662445
 1.7075960749470284E9, -164.675274848938, -584.7408378720284, -1860.4955107569695, -204.64732557535172
 1.7075960749470284E9, -107.70911872386932, -489.95681339502335, -1729.0903859138489, -166.1113964319229
 1.7075960749625075E9, -125.18193131685257, -569.6615612506866, -1849.7245988845825, -211.34922629594803
 1.7075960749625075E9, -176.40360110998154, -610.3516727685928, -1905.7333406209946, -228.1039780974388
 1.7075960749632041E9, -100.28915721178055, -482.05814468860626, -1732.2019826769829, -150.31405901908875
 1.7075960749632041E9, -93.58725649118423, -514.1315267086029, -1771.9346798062325, -170.18040758371353
 1.7075960749768195E9, -163.71786046028137, -615.8568055033684, -1925.3603355884552, -235.5239396095276
 1.7075960749768195E9, -119.19809138774872, -512.4560515284538, -1787.7320172190666, -171.13782197237015
 1.7075960749925287E9, -85.9279413819313, -480.62202310562134, -1733.3987506628036, -152.46824139356613
 1.7075960749925287E9, -148.87793743610382, -600.5381752848625, -1899.9888542890549, -223.79561334848404
 1.7075960749932096E9, -160.36691009998322, -580.6718267202377, -1859.777449965477, -203.6899111866951
 1.7075960749932096E9, -91.1937205195427, -472.9627079963684, -1715.9259380698204, -151.51082700490952
 1.7075960750068693E9, -120.8735665678978, -564.1564285159111, -1844.4588197469711, -202.97185039520264
 1.7075960750068693E9, -159.8882029056549, -594.0756281614304, -1901.664329469204, -221.4020773768425
 1.707596075022843E9, -96.69885325431824, -481.10073029994965, -1734.3561650514603, -152.94694858789444
 1.707596075022843E9, -90.95436692237854, -515.807001888752, -1771.4559726119041, -170.65911477804184
 1.7075960750232036E9, -158.69143491983414, -607.0007224082947, -1918.4190812706947, -224.0349669456482
 1.7075960750232036E9, -126.6180528998375, -521.7908418178558, -1798.0242218971252, -176.16424751281738
 1.7075960750368345E9, -84.01311260461807, -484.21232706308365, -1738.9038833975792, -155.8191917538643
 1.7075960750368345E9, -146.00569427013397, -601.9742968678474, -1897.3559647202492, -222.35949176549911
 1.7075960750525322E9, -151.51082700490952, -570.140268445015, -1862.1709859371185, -205.60473996400833
 1.7075960750525322E9, -89.27889174222946, -466.50016087293625, -1712.335634112358, -147.68116945028305
 1.707596075053223E9, -125.66063851118088, -566.3106108903885, -1845.4162341356277, -201.5357288122177
 1.707596075053223E9, -165.87204283475876, -600.2988216876984, -1907.1694622039795, -218.52983421087265
 1.7075960750672786E9, -108.9058867096901, -486.1271558403969, -1744.4090161323547, -155.34048455953598
 1.7075960750672786E9, -101.24657160043716, -525.141792178154, -1775.764337360859, -176.88230830430984
 1.7075960750831556E9, -168.50493240356445, -621.6012918353081, -1927.2751643657684, -235.5239396095276
 1.7075960750831556E9, -126.37869930267334, -516.5250626802444, -1802.5719402432442, -179.99390506744385
 1.7075960750979524E9, -89.03953814506531, -493.3077637553215, -1733.3987506628036, -161.80303168296814
 1.7075960750979524E9, -152.70759499073029, -606.5220152139664, -1905.9726942181587, -228.82203888893127
 1.7075960750982227E9, -155.8191917538643, -578.2782907485962, -1864.8038755059242, -207.75892233848572
 1.7075960750982227E9, -87.36406296491623, -478.46784073114395, -1723.3458995819092, -149.83535182476044
 1.7075960751125565E9, -130.2083568572998, -569.9009148478508, -1849.4852452874184, -207.51956874132156
 1.7075960751125565E9, -162.76044607162476, -601.0168824791908, -1912.674594938755, -228.58268529176712
 1.7075960751133018E9, -107.46976512670517, -486.1271558403969, -1744.4090161323547, -158.21272772550583
 1.7075960751133018E9, -99.57109642028809, -528.253388941288, -1782.4662380814552, -179.7545514702797
 1.707596075126845E9, -163.23915326595306, -619.6864630579948, -1924.1635676026344, -236.9600611925125
 1.707596075126845E9, -120.63421297073364, -521.0727810263634, -1792.997796356678, -183.344855427742
 1.7075960751427798E9, -77.0718582868576, -484.69103425741196, -1731.4839218854904, -156.2978989481926
 1.7075960751427798E9, -143.13345110416412, -604.6071864366531, -1900.228207886219, -220.44466298818588
 1.7075960751433356E9, -144.09086549282074, -558.1725885868073, -1853.554256439209, -200.5783144235611
 1.7075960751433356E9, -81.38022303581238, -460.75567454099655, -1710.8995125293732, -145.04827988147736
 1.7075960751569521E9, -122.54904174804688, -567.028671681881, -1840.3898085951805, -200.81766802072525
 1.7075960751569521E9, -163.95721405744553, -603.1710648536682, -1898.792086303234, -215.6575910449028
 1.7075960751726875E9, -103.1614003777504, -494.5045317411423, -1742.0154801607132, -152.70759499073029
 1.7075960751726875E9, -99.81045001745224, -522.2695490121841, -1785.8171884417534, -180.47261226177216
 1.7075960751732392E9, -159.8882029056549, -623.2767670154572, -1925.8390427827835, -232.17298924922943
 1.7075960751732392E9, -131.16577124595642, -528.4927425384521, -1798.5029290914536, -179.27584427595139
 1.7075960751868339E9, -85.68858778476715, -494.2651781439781, -1742.2548337578773, -164.91462844610214
 1.7075960751868339E9, -144.56957268714905, -600.2988216876984, -1900.9462686777115, -222.83819895982742
 1.7075960752018988E9, -151.51082700490952, -576.8421691656113, -1865.7612898945808, -206.56215435266495
 1.7075960752018988E9, -83.05569821596146, -469.8511112332344, -1712.8143413066864, -146.00569427013397
 1.70759607521796E9, -165.87204283475876, -606.7613688111305, -1906.451401412487, -220.9233701825142
 1.70759607521796E9, -100.5285108089447, -480.62202310562134, -1737.2284082174301, -149.83535182476044
 1.7075960752182517E9, -97.65626764297485, -518.6792450547218, -1771.9346798062325, -174.01006513834
 1.7075960752182517E9, -169.46234679222107, -633.3296180963516, -1929.9080539345741, -246.77355867624283
 1.7075960752319343E9, -138.82508635520935, -533.5191680788994, -1811.667376935482, -185.4990378022194
 1.7075960752319343E9, -73.4815543293953, -476.0743047595024, -1715.6865844726562, -131.40512484312057
 1.7075960752474856E9, -140.50056153535843, -588.3311418294907, -1880.3618593215942, -200.0996072292328
 1.7075960752474856E9, -144.56957268714905, -551.2313342690468, -1835.6027366518974, -168.02622520923615
 1.7075960752481797E9, -91.1937205195427, -465.0640392899513, -1699.4105398654938, -127.0967600941658
 1.7075960752481797E9, -119.43744498491287, -542.3752511739731, -1813.5822057127953, -166.1113964319229
 1.7075960752618887E9, -166.35075002908707, -583.7834234833717, -1878.2076769471169, -188.6106345653534
 1.7075960752618887E9, -109.62394750118256, -481.57943749427795, -1725.0213747620583, -132.3625392317772
 1.7075960752774663E9, -111.29942268133163, -519.8760130405426, -1767.1476078629494, -151.51082700490952
 1.7075960752774663E9, -174.4887723326683, -615.8568055033684, -1915.786191701889, -219.96595579385757
 1.707596075278163E9, -138.5857327580452, -521.3121346235275, -1789.886199593544, -169.94105398654938
 1.707596075278163E9, -93.34790289402008, -490.43552058935165, -1724.3033139705658, -145.52698707580566
 1.7075960752918866E9, -152.94694858789444, -598.144639313221, -1889.217942416668, -207.99827593564987
 1.7075960752918866E9, -160.60626369714737, -576.1241083741188, -1858.8200355768204, -194.3551208972931
 1.7075960753075666E9, -89.75759893655777, -465.0640392899513, -1708.98468375206, -142.65474390983582
 1.7075960753075666E9, -129.2509424686432, -564.6351357102394, -1840.6291621923447, -196.03059607744217
 1.7075960753083136E9, -173.29200434684753, -609.6336119771004, -1898.3133791089058, -207.2802151441574
 1.7075960753083136E9, -120.63421297073364, -499.0522500872612, -1738.1858226060867, -143.85151189565659
 1.7075960753219783E9, -106.99105793237686, -524.4237313866615, -1769.0624366402626, -160.12755650281906
 1.7075960753219783E9, -170.65911477804184, -619.6864630579948, -1927.7538715600967, -226.18914932012558
 1.7075960753375046E9, -136.91025757789612, -525.3811457753181, -1790.6042603850365, -161.56367808580399
 1.7075960753375046E9, -96.93820685148239, -489.7174597978592, -1734.116811454296, -147.9205230474472
 1.7075960753382363E9, -152.46824139356613, -601.4955896735191, -1896.8772575259209, -213.74276226758957
 1.7075960753382363E9, -166.1113964319229, -580.1931195259094, -1864.8038755059242, -198.18477845191956
 1.7075960753521519E9, -92.39048850536346, -476.5530119538307, -1715.447230875492, -132.12318563461304
 1.7075960753521519E9, -135.9528431892395, -572.0550972223282, -1848.0491237044334, -196.50930327177048
 1.707596075367977E9, -172.33458995819092, -605.5646008253098, -1904.5365726351738, -211.10987269878387
 1.707596075367977E9, -115.1290802359581, -494.2651781439781, -1751.110916852951, -151.51082700490952
 1.707596075368247E9, -109.14524030685425, -523.2269634008408, -1787.2533100247383, -177.36101549863815
 1.707596075368247E9, -180.233258664608, -629.260606944561, -1933.7377114892006, -233.13040363788605
 1.7075960753821137E9, -140.73991513252258, -526.0992065668106, -1809.2738409638405, -181.66938024759293
 1.7075960753821137E9, -103.6401075720787, -502.88190764188766, -1743.4516017436981, -158.69143491983414
 1.7075960753975396E9, -165.87204283475876, -615.1387447118759, -1909.0842909812927, -227.38591730594635
 1.7075960753975396E9, -166.59010362625122, -583.7834234833717, -1877.2502625584602, -205.84409356117249
 1.7075960753982031E9, -96.93820685148239, -482.53685188293457, -1727.1755571365356, -144.3302190899849
 1.7075960753982031E9, -138.34637916088104, -581.150533914566, -1856.665853202343, -200.33896082639694
 1.7075960754118135E9, -180.47261226177216, -614.1813303232193, -1920.5732636451721, -225.94979572296143
 1.7075960754118135E9, -119.19809138774872, -500.4883716702461, -1750.6322096586227, -158.21272772550583
 1.7075960754274805E9, -109.14524030685425, -522.7482562065125, -1777.439812541008, -165.87204283475876
 1.7075960754274805E9, -176.6429547071457, -629.4999605417252, -1932.3015899062157, -229.06139248609543
 1.7075960754282792E9, -139.5431471467018, -536.6307648420334, -1803.2900010347366, -172.81329715251923
 1.7075960754282792E9, -75.15702950954437, -474.39882957935333, -1727.1755571365356, -142.65474390983582
 1.7075960754422512E9, -137.62831836938858, -593.596920967102, -1891.6114783883095, -208.47698312997818
 1.7075960754422512E9, -141.93668311834335, -565.1138429045677, -1852.3574884533882, -192.679645717144
 1.7075960754578831E9, -76.83250468969345, -462.1917961239815, -1706.8305013775826, -131.40512484312057
 1.7075960754578831E9, -112.25683706998825, -559.369356572628, -1840.1504549980164, -194.59447449445724
 1.7075960754583728E9, -157.49466693401337, -601.9742968678474, -1904.5365726351738, -216.37565183639526
 1.7075960754583728E9, -93.82661008834839, -479.9039623141289, -1737.4677618145943, -149.59599822759628
 1.7075960754717803E9, -87.36406296491623, -511.25928354263306, -1774.328215777874, -164.91462844610214
 1.7075960754717803E9, -167.30816441774368, -627.1064245700836, -1929.1899931430817, -227.6252709031105
 1.7075960754877489E9, -135.23478239774704, -529.2108033299446, -1793.9552107453346, -172.57394355535507
 1.7075960754877489E9, -88.32147735357285, -495.22259253263474, -1733.877457857132, -153.42565578222275
 1.707596075488218E9, -147.4418158531189, -611.0697335600853, -1895.441135942936, -218.52983421087265
 1.707596075488218E9, -156.05854535102844, -580.6718267202377, -1865.2825827002525, -205.84409356117249
 1.7075960755020852E9, -88.80018454790115, -472.0052936077118, -1714.2504628896713, -149.59599822759628
 1.7075960755020852E9, -129.7296496629715, -572.2944508194923, -1837.7569190263748, -199.62090003490448
 1.707596075517516E9, -176.6429547071457, -612.9845623373985, -1905.015279829502, -220.20530939102173
 1.707596075517516E9, -110.82071548700333, -493.54711735248566, -1737.2284082174301, -146.72375506162643
 1.7075960755181816E9, -105.07622915506363, -528.9714497327805, -1773.8495085835457, -166.1113964319229
 1.7075960755181816E9, -169.22299319505692, -627.3457781672478, -1916.2648988962173, -217.8117734193802
 1.707596075531866E9, -128.29352807998657, -528.0140353441238, -1795.8700395226479, -170.898468375206
 1.707596075531866E9, -81.38022303581238, -482.53685188293457, -1733.6381042599678, -147.9205230474472
 1.707596075547816E9, -153.1863021850586, -615.1387447118759, -1904.5365726351738, -226.42850291728973
 1.707596075547816E9, -162.9997996687889, -583.0653626918793, -1872.7025442123413, -217.09371262788773
 1.707596075548363E9, -98.37432843446732, -488.5206918120384, -1728.3723251223564, -159.64884930849075
 1.707596075548363E9, -133.08060002326965, -583.3047162890434, -1858.101974785328, -216.1362982392311
 1.7075960755617597E9, -179.51519787311554, -620.6438774466515, -1921.2913244366646, -235.04523241519928
 1.7075960755617597E9, -119.91615217924118, -501.44578605890274, -1752.547038435936, -164.19656765460968
 1.707596075577597E9, -105.07622915506363, -529.6895105242729, -1787.7320172190666, -184.06291621923447
 1.707596075577597E9, -177.6003690958023, -629.9786677360535, -1927.5145179629326, -231.45492845773697
 1.7075960755782242E9, -138.1070255637169, -532.3224000930786, -1792.7584427595139, -168.7442860007286
 1.7075960755782242E9, -92.62984210252762, -491.8716421723366, -1734.116811454296, -152.70759499073029
 1.7075960755917685E9, -155.34048455953598, -615.1387447118759, -1900.7069150805473, -224.9923813343048
 1.7075960755917685E9, -163.95721405744553, -584.5014842748642, -1869.3515938520432, -208.71633672714233
 1.707596075607754E9, -91.43307411670685, -473.20206159353256, -1716.1652916669846, -146.00569427013397
 1.707596075607754E9, -127.81482088565826, -575.6454011797905, -1842.783344566822, -205.12603276968002
 1.707596075608307E9, -170.65911477804184, -619.925816655159, -1911.4778269529343, -223.07755255699158
 1.707596075608307E9, -111.29942268133163, -498.81289649009705, -1745.3664305210114, -158.9307885169983
 1.7075960756220205E9, -108.42717951536179, -528.9714497327805, -1784.8597740530968, -178.31842988729477
 1.7075960756220205E9, -180.95131945610046, -636.6805684566498, -1933.4983578920364, -236.4813539981842
 1.7075960756388292E9, -142.89409750699997, -545.0081407427788, -1810.7099625468254, -194.8338280916214
 1.7075960756388292E9, -96.22014605998993, -501.6851396560669, -1749.435441672802, -171.61652916669846
 1.707596075668908E9, -164.43592125177383, -615.3780983090401, -1913.3926557302475, -240.07165795564651
 1.707596075668908E9, -159.8882029056549, -580.4324731230736, -1875.5747873783112, -216.61500543355942
 1.7075960756695879E9, -90.71501332521439, -472.72335439920425, -1720.2343028187752, -157.49466693401337
 1.7075960756695879E9, -127.0967600941658, -558.6512957811356, -1840.8685157895088, -198.66348564624786
 1.707596075670382E9, -166.35075002908707, -605.5646008253098, -1910.0417053699493, -220.9233701825142
 1.707596075670382E9, -109.14524030685425, -495.70129972696304, -1742.4941873550415, -153.90436297655106
 1.7075960756711457E9, -110.34200829267502, -523.9450241923332, -1775.2856301665306, -173.05265074968338
 1.7075960756711457E9, -161.08497089147568, -611.7877943515778, -1911.4778269529343, -217.57241982221603
 1.7075960756818671E9, -129.2509424686432, -528.0140353441238, -1796.109393119812, -175.92489391565323
 1.7075960756818671E9, -75.87509030103683, -481.10073029994965, -1721.431070804596, -152.46824139356613
 1.707596075697487E9, -139.5431471467018, -605.0858936309814, -1888.7392352223396, -215.6575910449028
 1.707596075697487E9, -140.73991513252258, -563.917074918747, -1853.3149028420448, -194.8338280916214
 1.707596075698183E9, -74.19961512088776, -463.1492105126381, -1707.3092085719109, -142.1760367155075
 1.707596075698183E9, -110.34200829267502, -554.1035774350166, -1833.44855427742, -194.11576730012894
 1.7075960757118526E9, -164.91462844610214, -606.2826616168022, -1907.1694622039795, -220.9233701825142
 1.7075960757118526E9, -105.31558275222778, -499.29160368442535, -1749.9141488671303, -159.4094957113266
 1.7075960757274604E9, -106.51235073804855, -531.1256321072578, -1786.0565420389175, -182.62679463624954
 1.7075960757274604E9, -169.94105398654938, -631.1754357218742, -1928.232578754425, -235.28458601236343
 1.7075960757282033E9, -129.49029606580734, -528.253388941288, -1804.2474154233932, -178.55778348445892
 1.7075960757282033E9, -86.88535577058792, -494.9832389354706, -1737.4677618145943, -164.675274848938
 1.7075960757421937E9, -140.26120793819427, -601.0168824791908, -1894.005014359951, -224.75302773714066
 1.7075960757421937E9, -145.52698707580566, -575.6454011797905, -1860.9742179512978, -202.97185039520264
 1.7075960757578065E9, -78.02927267551422, -472.72335439920425, -1699.649893462658, -133.55930721759796
 1.7075960757578065E9, -111.53877627849579, -562.7203069329262, -1828.661482334137, -189.56804895401
 1.707596075758291E9, -162.9997996687889, -608.9155511856079, -1893.0475999712944, -217.33306622505188
 1.707596075758291E9, -95.02337807416916, -481.8187910914421, -1734.116811454296, -149.83535182476044
 1.7075960757721035E9, -89.03953814506531, -512.2166979312897, -1767.8656686544418, -166.59010362625122
 1.7075960757721035E9, -162.28173887729645, -620.1651702523232, -1923.445506811142, -229.30074608325958
 1.7075960757878816E9, -127.33611369132996, -534.2372288703918, -1797.545514702797, -179.27584427595139
 1.7075960757878816E9, -88.80018454790115, -494.5045317411423, -1726.4574963450432, -150.31405901908875
 1.707596075788342E9, -155.34048455953598, -612.2665015459061, -1894.4837215542793, -219.48724859952927
 1.707596075788342E9, -156.7766061425209, -585.698252260685, -1862.6496931314468, -204.64732557535172
 1.7075960758020546E9, -89.75759893655777, -474.6381831765175, -1713.0536949038506, -145.52698707580566
 1.7075960758020546E9, -123.02774894237518, -570.3796220421791, -1837.5175654292107, -199.38154643774033
 1.7075960758177354E9, -171.3771755695343, -612.7452087402344, -1909.8023517727852, -224.5136741399765
 1.7075960758177354E9, -109.14524030685425, -499.29160368442535, -1748.7173808813095, -157.73402053117752
 1.7075960758181477E9, -105.55493634939194, -530.4075713157654, -1783.663006067276, -182.14808744192123
 1.7075960758181477E9, -168.02622520923615, -634.5263860821724, -1923.6848604083061, -230.97622126340866
 1.7075960758321517E9, -136.19219678640366, -540.9391295909882, -1805.6835370063782, -182.3874410390854
 1.7075960758321517E9, -83.53440541028976, -487.0845702290535, -1728.1329715251923, -155.8191917538643
 1.7075960758480933E9, -148.87793743610382, -607.9581367969513, -1895.2017823457718, -226.18914932012558
 1.7075960758480933E9, -157.73402053117752, -579.475058734417, -1861.6922787427902, -201.0570216178894
 1.7075960758483045E9, -84.01311260461807, -471.76594001054764, -1712.8143413066864, -143.61215829849243
 1.7075960758483045E9, -117.52261620759964, -571.0976828336716, -1832.0124326944351, -200.5783144235611
 1.7075960758621697E9, -161.80303168296814, -604.1284792423248, -1907.6481693983078, -219.00854140520096
 1.7075960758621697E9, -95.98079246282578, -479.42525511980057, -1732.2019826769829, -145.2876334786415
 1.70759607587811E9, -89.75759893655777, -506.47221159935, -1764.5147182941437, -161.56367808580399
 1.70759607587811E9, -165.39333564043045, -617.5322806835175, -1916.7436060905457, -228.1039780974388
 1.7075960758781862E9, -126.13934570550919, -530.6469249129295, -1791.0829675793648, -171.13782197237015
 1.7075960758781862E9, -73.9602615237236, -477.031719148159, -1725.9787891507149, -147.20246225595474
 1.707596075891891E9, -143.61215829849243, -604.6071864366531, -1900.9462686777115, -226.6678565144539
 1.707596075891891E9, -151.51082700490952, -577.5602299571037, -1868.8728866577148, -207.04086154699326
 1.7075960759079127E9, -73.72090792655945, -457.64407777786255, -1703.2401974201202, -140.73991513252258
 1.7075960759079127E9, -116.08649462461472, -559.369356572628, -1837.2782118320465, -193.63706010580063
 1.707596075908247E9, -164.43592125177383, -607.7187831997871, -1903.1004510521889, -212.30664068460464
 1.707596075908247E9, -101.96463239192963, -490.91422778367996, -1736.5103474259377, -149.35664463043213
 1.7075960759220104E9, -80.42280864715576, -513.8921731114388, -1763.7966575026512, -156.7766061425209
 1.7075960759220104E9, -155.57983815670013, -612.0271479487419, -1922.2487388253212, -225.71044212579727
 1.7075960759378283E9, -125.42128491401672, -529.2108033299446, -1808.555780172348, -176.40360110998154
 1.7075960759378283E9, -78.74733346700668, -486.1271558403969, -1729.5690931081772, -145.04827988147736
 1.7075960759382968E9, -143.61215829849243, -605.8039544224739, -1893.7656607627869, -213.98211586475372
 1.7075960759382968E9, -145.04827988147736, -567.028671681881, -1861.213571548462, -190.04675614833832
 1.707596075952204E9, -78.26862627267838, -466.50016087293625, -1712.8143413066864, -131.88383203744888
 1.707596075952204E9, -116.08649462461472, -562.2415997385979, -1836.32079744339, -180.95131945610046
 1.7075960759682941E9, -164.19656765460968, -609.8729655742645, -1906.9301086068153, -196.98801046609879
 1.7075960759682941E9, -100.0498036146164, -484.4516806602478, -1744.887723326683, -133.79866081476212
 1.7075960759683337E9, -95.98079246282578, -525.8598529696465, -1776.7217517495155, -152.70759499073029
 1.7075960759683337E9, -178.31842988729477, -639.3134580254555, -1944.7479769587517, -231.21557486057281
 1.7075960759819648E9, -137.62831836938858, -536.6307648420334, -1805.6835370063782, -153.90436297655106
 1.7075960759819648E9, -78.74733346700668, -474.87753677368164, -1720.4736564159393, -115.84714102745056
 1.7075960759975884E9, -143.37280470132828, -587.6130810379982, -1882.0373345017433, -182.62679463624954
 1.7075960759975884E9, -161.56367808580399, -579.2357051372528, -1860.7348643541336, -174.9674795269966
 1.7075960759982812E9, -89.51824533939362, -461.9524425268173, -1695.3415287137032, -97.4169140458107
 1.7075960759982812E9, -124.94257771968842, -561.2841853499413, -1824.3531175851822, -156.7766061425209
 1.7075960760119078E9, -169.22299319505692, -599.1020537018776, -1888.7392352223396, -172.57394355535507
 1.7075960760119078E9, -112.4961906671524, -477.51042634248734, -1723.106545984745, -101.96463239192963
 1.7075960760279639E9, -102.68269318342209, -500.7277252674103, -1751.8289776444435, -115.1290802359581
 1.7075960760279639E9, -165.6326892375946, -605.8039544224739, -1900.7069150805473, -176.6429547071457
 1.707596076028301E9, -134.03801441192627, -514.3708803057671, -1789.4074923992157, -131.64447844028473
 1.707596076028301E9, -93.34790289402008, -479.9039623141289, -1708.0272693634033, -106.99105793237686
 1.707596076042176E9, -157.2553133368492, -601.4955896735191, -1887.5424672365189, -178.79713708162308
 1.707596076042176E9, -163.95721405744553, -573.0125116109848, -1861.9316323399544, -165.87204283475876
 1.7075960760575447E9, -99.33174282312393, -469.61175763607025, -1705.6337333917618, -111.53877627849579
 1.7075960760575447E9, -130.92641764879227, -562.7203069329262, -1830.8156647086143, -166.82945722341537
 1.7075960760582669E9, -183.58420902490616, -615.1387447118759, -1900.4675614833832, -187.65322017669678
 1.7075960760582669E9, -122.07033455371857, -490.1961669921875, -1742.9728945493698, -119.67679858207703
 1.707596076071895E9, -105.79428994655609, -517.7218306660652, -1766.1901934742928, -134.75607520341873
 1.707596076071895E9, -182.62679463624954, -628.5425461530685, -1918.4190812706947, -201.77508240938187
 1.707596076087816E9, -143.13345110416412, -530.8862785100937, -1801.6145258545876, -146.72375506162643
 1.707596076087816E9, -98.85303562879562, -485.6484486460686, -1723.5852531790733, -118.00132340192795
 1.7075960760882742E9, -163.23915326595306, -613.2239159345627, -1895.441135942936, -191.7222313284874
 1.7075960760882742E9, -165.87204283475876, -582.3473019003868, -1865.2825827002525, -174.24941873550415
 1.7075960761017644E9, -97.65626764297485, -477.031719148159, -1709.4633909463882, -112.4961906671524
 1.7075960761017644E9, -133.08060002326965, -565.3531965017319, -1833.9272614717484, -170.65911477804184
 1.7075960761178668E9, -174.9674795269966, -609.6336119771004, -1903.339804649353, -191.96158492565155
 1.7075960761178668E9, -109.86330109834671, -487.5632774233818, -1738.664529800415, -122.30968815088272
 1.7075960761183455E9, -99.33174282312393, -520.1153666377068, -1766.1901934742928, -139.30379354953766
 1.7075960761183455E9, -173.29200434684753, -629.0212533473969, -1917.9403740763664, -200.0996072292328
 1.707596076132305E9, -138.5857327580452, -534.7159360647202, -1799.9390506744385, -151.51082700490952
 1.707596076132305E9, -96.93820685148239, -488.5206918120384, -1727.654264330864, -131.40512484312057
 1.707596076147683E9, -155.34048455953598, -606.0433080196381, -1892.329539179802, -198.90283924341202
 1.707596076147683E9, -164.19656765460968, -578.5176443457603, -1861.9316323399544, -176.88230830430984
 1.7075960761483972E9, -98.37432843446732, -471.28723281621933, -1708.98468375206, -123.50645613670349
 1.7075960761483972E9, -132.12318563461304, -567.2680252790451, -1837.0388582348824, -174.01006513834
 1.7075960761617606E9, -180.95131945610046, -619.925816655159, -1907.1694622039795, -202.73249679803848
 1.7075960761617606E9, -118.00132340192795, -500.96707886457443, -1743.9303089380264, -131.64447844028473
 1.7075960761775756E9, -105.79428994655609, -520.5940738320351, -1769.0624366402626, -146.72375506162643
 1.7075960761775756E9, -174.72812592983246, -632.6115573048592, -1924.6422747969627, -205.60473996400833
 1.7075960761781933E9, -141.2186223268509, -542.6146047711372, -1802.5719402432442, -157.2553133368492
 1.7075960761781933E9, -88.32147735357285, -489.47810620069504, -1731.4839218854904, -137.14961117506027
 1.7075960761918278E9, -153.1863021850586, -605.8039544224739, -1896.3985503315926, -206.08344715833664
 1.7075960761918278E9, -159.8882029056549, -579.9537659287453, -1870.0696546435356, -188.6106345653534
 1.7075960762070782E9, -98.85303562879562, -476.0743047595024, -1705.6337333917618, -118.2406769990921
 1.7075960762070782E9, -124.94257771968842, -566.3106108903885, -1830.5763111114502, -173.29200434684753
 1.7075960762230072E9, -116.56520181894302, -498.33418929576874, -1748.2386736869812, -135.4741359949112
 1.7075960762230072E9, -98.13497483730316, -522.5089026093483, -1772.652740597725, -157.2553133368492
 1.7075960762233295E9, -168.2655788064003, -632.6115573048592, -1927.2751643657684, -216.37565183639526
 1.7075960762233295E9, -142.41539031267166, -538.7849472165108, -1812.3854377269745, -171.8558827638626
 1.7075960762372124E9, -89.27889174222946, -483.9729734659195, -1723.3458995819092, -133.79866081476212
 1.7075960762372124E9, -152.94694858789444, -607.2400760054588, -1899.5101470947266, -203.92926478385925
 1.7075960762528596E9, -164.43592125177383, -583.0653626918793, -1869.5909474492073, -190.76481693983078
 1.7075960762528596E9, -98.13497483730316, -473.20206159353256, -1715.207877278328, -126.37869930267334
 1.7075960762532623E9, -121.83098095655441, -559.369356572628, -1834.6453222632408, -181.66938024759293
 1.7075960762532623E9, -177.121661901474, -622.5587062239647, -1920.5732636451721, -214.46082305908203
 1.7075960762670403E9, -121.11292016506195, -496.18000692129135, -1752.7863920331001, -148.63858383893967
 1.7075960762670403E9, -98.61368203163147, -517.4824770689011, -1777.439812541008, -159.4094957113266
 1.7075960762830243E9, -171.13782197237015, -634.5263860821724, -1924.4029211997986, -212.5459942817688
 1.7075960762830243E9, -134.75607520341873, -539.5030080080032, -1807.8377193808556, -169.46234679222107
 1.7075960762832487E9, -89.03953814506531, -492.58970296382904, -1736.0316402316093, -140.97926872968674
 1.7075960762832487E9, -143.13345110416412, -601.9742968678474, -1886.345699250698, -201.0570216178894
 1.7075960762969522E9, -152.22888779640198, -581.150533914566, -1867.676118671894, -190.52546334266663
 1.7075960762969522E9, -84.97052699327469, -470.808525621891, -1716.4046452641487, -134.27736800909042
 1.7075960763126125E9, -122.78839534521103, -570.6189756393433, -1838.2356262207031, -187.65322017669678
 1.7075960763126125E9, -168.2655788064003, -611.3090871572495, -1913.8713629245758, -213.0247014760971
 1.7075960763131833E9, -112.4961906671524, -501.2064324617386, -1758.5308783650398, -156.53725254535675
 1.7075960763131833E9, -100.76786440610886, -523.7056705951691, -1767.6263150572777, -161.32432448863983
 1.7075960763267996E9, -172.57394355535507, -631.6541429162025, -1933.9770650863647, -221.64143097400665
 1.7075960763267996E9, -131.88383203744888, -533.0404608845711, -1804.9654762148857, -168.02622520923615
 1.7075960763433957E9, -82.337637424469, -475.83495116233826, -1732.9200434684753, -141.45797592401505
 1.7075960763433957E9, -153.90436297655106, -608.6761975884438, -1900.228207886219, -219.96595579385757
 1.7075960763434343E9, -154.86177736520767, -573.7305724024773, -1867.9154722690582, -193.15835291147232
 1.7075960763434343E9, -96.45949965715408, -479.1859015226364, -1716.883352458477, -138.1070255637169
 1.7075960763574736E9, -117.52261620759964, -565.592550098896, -1833.6879078745842, -187.89257377386093
 1.7075960763574736E9, -175.92489391565323, -619.2077558636665, -1914.5894237160683, -212.5459942817688
 1.7075960763727655E9, -113.45360505580902, -494.9832389354706, -1754.7012208104134, -151.51082700490952
 1.7075960763727655E9, -111.53877627849579, -529.6895105242729, -1783.9023596644402, -177.6003690958023
 1.7075960763733578E9, -181.90873384475708, -640.9889332056046, -1934.455772280693, -233.13040363788605
 1.7075960763733578E9, -145.2876334786415, -543.0933119654655, -1817.6512168645859, -179.7545514702797
 1.707596076386897E9, -91.43307411670685, -488.7600454092026, -1731.005214691162, -149.59599822759628
 1.707596076386897E9, -149.83535182476044, -602.6923576593399, -1897.8346719145775, -212.30664068460464
 1.707596076402605E9, -159.4094957113266, -582.1079483032227, -1874.1386657953262, -196.98801046609879
 1.707596076402605E9, -84.73117339611053, -470.808525621891, -1703.9582582116127, -131.40512484312057
 1.7075960764032493E9, -123.74580973386765, -563.4383677244186, -1826.0285927653313, -186.456452190876
 1.7075960764032493E9, -166.1113964319229, -609.8729655742645, -1905.2546334266663, -206.56215435266495
 1.7075960764173317E9, -108.42717951536179, -496.18000692129135, -1742.0154801607132, -143.13345110416412
 1.7075960764173317E9, -91.43307411670685, -513.1741123199463, -1767.8656686544418, -158.45208132266998
 1.7075960764331589E9, -155.34048455953598, -617.0535734891891, -1925.120981991291, -218.05112701654434
 1.7075960764331589E9, -128.77223527431488, -527.5353281497955, -1807.119658589363, -166.35075002908707
 1.7075960764332688E9, -81.61957663297653, -487.0845702290535, -1729.329739511013, -141.2186223268509
 1.7075960764332688E9, -138.82508635520935, -606.5220152139664, -1891.1327711939812, -204.64732557535172
 1.707596076447142E9, -144.8089262843132, -571.815743625164, -1862.1709859371185, -192.91899931430817
 1.707596076447142E9, -79.46539425849915, -466.2608072757721, -1704.1976118087769, -131.88383203744888
 1.7075960764629903E9, -111.77812987565994, -559.1300029754639, -1824.8318247795105, -179.7545514702797
 1.7075960764629903E9, -161.08497089147568, -611.3090871572495, -1906.451401412487, -210.87051910161972
 1.7075960764634004E9, -108.18782591819763, -494.02582454681396, -1742.7335409522057, -141.6973295211792
 1.7075960764634004E9, -101.48592519760132, -520.5940738320351, -1764.7540718913078, -155.34048455953598
 1.7075960764771316E9, -180.47261226177216, -641.9463475942612, -1934.216418683529, -230.01880687475204
 1.7075960764771316E9, -132.12318563461304, -532.5617536902428, -1801.1358186602592, -161.32432448863983
 1.7075960764927423E9, -86.88535577058792, -474.1594759821892, -1714.0111092925072, -128.05417448282242
 1.7075960764927423E9, -141.2186223268509, -592.8788601756096, -1879.1650913357735, -198.18477845191956
 1.70759607649324E9, -148.3992302417755, -560.5661245584488, -1856.665853202343, -175.68554031848907
 1.70759607649324E9, -92.39048850536346, -465.0640392899513, -1706.5911477804184, -127.81482088565826
 1.7075960765069191E9, -117.7619698047638, -554.8216382265091, -1819.0873384475708, -178.31842988729477
 1.7075960765069191E9, -163.47850686311722, -595.5117497444153, -1899.5101470947266, -200.81766802072525
 1.7075960765224838E9, -100.28915721178055, -480.3826695084572, -1735.552933037281, -134.75607520341873
 1.7075960765224838E9, -88.560830950737, -508.8657475709915, -1752.547038435936, -148.15987664461136
 1.7075960765232956E9, -164.675274848938, -620.4045238494873, -1915.786191701889, -215.89694464206696
 1.7075960765232956E9, -131.64447844028473, -528.4927425384521, -1793.4765035510063, -162.76044607162476
 1.7075960765371132E9, -78.50797986984253, -477.031719148159, -1714.0111092925072, -134.27736800909042
 1.7075960765371132E9, -150.5534126162529, -604.6071864366531, -1886.345699250698, -199.38154643774033
 1.7075960765524492E9, -163.47850686311722, -585.2195450663567, -1868.1548258662224, -193.63706010580063
 1.7075960765524492E9, -90.47565972805023, -468.1756360530853, -1710.4208053350449, -130.2083568572998
 1.7075960765532024E9, -120.8735665678978, -559.6087101697922, -1826.7466535568237, -175.92489391565323
 1.7075960765532024E9, -168.50493240356445, -608.6761975884438, -1912.4352413415909, -208.9556903243065
 1.7075960765673027E9, -101.24657160043716, -487.80263102054596, -1744.1696625351906, -143.61215829849243
 1.7075960765673027E9, -97.4169140458107, -515.3282946944237, -1771.6953262090683, -157.73402053117752
 1.7075960765828872E9, -168.2655788064003, -627.1064245700836, -1926.0783963799477, -219.96595579385757
 1.7075960765828872E9, -145.52698707580566, -543.5720191597939, -1803.5293546319008, -164.19656765460968
 1.7075960765832453E9, -88.80018454790115, -477.2710727453232, -1730.2871538996696, -141.2186223268509
 1.7075960765832453E9, -154.1437165737152, -602.4530040621758, -1895.2017823457718, -207.75892233848572
 1.707596076597168E9, -162.5210924744606, -583.0653626918793, -1872.4631906151772, -196.50930327177048
 1.707596076597168E9, -94.784024477005, -469.3724040389061, -1712.8143413066864, -139.30379354953766
 1.7075960766128025E9, -132.3625392317772, -569.6615612506866, -1838.4749798178673, -192.679645717144
 1.7075960766128025E9, -177.121661901474, -616.5748662948608, -1909.0842909812927, -211.82793349027634
 1.7075960766132836E9, -112.97489786148071, -495.22259253263474, -1748.9567344784737, -151.27147340774536
 1.7075960766132836E9, -103.40075397491455, -521.3121346235275, -1774.0888621807098, -165.6326892375946
 1.7075960766269066E9, -173.77071154117584, -624.2341814041138, -1926.0783963799477, -227.6252709031105
 1.7075960766269066E9, -138.82508635520935, -532.3224000930786, -1801.3751722574234, -163.23915326595306
 1.7075960766430926E9, -93.10854929685593, -486.84521663188934, -1724.54266756773, -137.38896477222443
 1.7075960766430926E9, -154.86177736520767, -601.4955896735191, -1896.8772575259209, -212.0672870874405
 1.7075960766435678E9, -161.32432448863983, -584.5014842748642, -1867.1974114775658, -196.50930327177048
 1.7075960766435678E9, -88.32147735357285, -469.3724040389061, -1712.335634112358, -137.62831836938858
 1.7075960766568232E9, -113.45360505580902, -553.14616304636, -1833.9272614717484, -187.65322017669678
 1.7075960766568232E9, -164.91462844610214, -600.2988216876984, -1906.9301086068153, -210.3918119072914
 1.7075960766725144E9, -104.11881476640701, -486.1271558403969, -1739.6219441890717, -140.02185434103012
 1.7075960766725144E9, -95.50208526849747, -511.73799073696136, -1751.5896240472794, -147.4418158531189
 1.7075960766731658E9, -169.46234679222107, -625.6703029870987, -1915.786191701889, -209.4343975186348
 1.7075960766731658E9, -134.99542880058289, -529.9288641214371, -1799.220989882946, -158.9307885169983
 1.7075960766869817E9, -88.80018454790115, -488.5206918120384, -1717.1227060556412, -134.75607520341873
 1.7075960766869817E9, -151.27147340774536, -592.6395065784454, -1884.1915168762207, -199.86025363206863
 1.7075960767024553E9, -161.56367808580399, -574.6879867911339, -1864.56452190876, -185.9777449965477
 1.7075960767024553E9, -97.17756044864655, -476.5530119538307, -1712.096280515194, -125.42128491401672
 1.7075960767032835E9, -121.59162735939026, -559.8480637669563, -1828.9008359313011, -182.62679463624954
 1.7075960767032835E9, -168.02622520923615, -609.1549047827721, -1913.3926557302475, -209.19504392147064
 1.7075960767169988E9, -107.70911872386932, -494.7438853383064, -1742.4941873550415, -145.04827988147736
 1.7075960767169988E9, -89.03953814506531, -505.7541508078575, -1756.8554031848907, -149.59599822759628
 1.7075960767327592E9, -162.76044607162476, -616.814219892025, -1917.222313284874, -210.63116550445557
 1.7075960767327592E9, -132.12318563461304, -530.4075713157654, -1801.8538794517517, -165.87204283475876
 1.7075960767332745E9, -80.42280864715576, -477.7497799396515, -1719.5162420272827, -131.16577124595642
 1.7075960767332745E9, -137.62831836938858, -597.4265785217285, -1883.9521632790565, -201.77508240938187
 1.7075960767631752E9, -160.84561729431152, -581.6292411088943, -1861.9316323399544, -186.69580578804016
 1.7075960767631752E9, -92.39048850536346, -465.3033928871155, -1709.7027445435524, -127.57546728849411
 1.707596076763898E9, -125.42128491401672, -565.592550098896, -1833.6879078745842, -189.80740255117416
 1.707596076763898E9, -165.87204283475876, -603.6497720479965, -1898.0740255117416, -202.73249679803848
 1.7075960767646072E9, -109.62394750118256, -491.6322885751724, -1744.887723326683, -148.63858383893967
 1.7075960767646072E9, -86.16729497909546, -502.1638468503952, -1758.770231962204, -149.11729103326797
 1.707596076777016E9, -166.35075002908707, -628.0638389587402, -1928.232578754425, -221.4020773768425
 1.707596076777016E9, -127.33611369132996, -527.7746817469597, -1804.2474154233932, -161.56367808580399
 1.7075960768092089E9, -75.63573670387268, -479.1859015226364, -1724.3033139705658, -138.82508635520935
 1.7075960768092089E9, -141.6973295211792, -604.8465400338173, -1896.6379039287567, -211.82793349027634
 1.70759607680979E9, -154.62242376804352, -581.8685947060585, -1882.2766880989075, -199.62090003490448
 1.70759607680979E9, -81.61957663297653, -467.45757526159286, -1717.3620596528053, -134.99542880058289
 1.707596076810333E9, -118.2406769990921, -558.4119421839714, -1831.0550183057785, -185.9777449965477
 1.707596076810333E9, -164.675274848938, -614.1813303232193, -1914.11071652174, -216.37565183639526
 1.707596076811058E9, -105.07622915506363, -488.7600454092026, -1748.9567344784737, -148.87793743610382
 1.707596076811058E9, -97.17756044864655, -516.0463554859161, -1766.9082542657852, -164.19656765460968
 1.7075960768223653E9, -162.28173887729645, -615.8568055033684, -1927.2751643657684, -223.55625975131989
 1.7075960768223653E9, -131.64447844028473, -530.6469249129295, -1810.231255352497, -172.09523636102676
 1.7075960768370616E9, -78.02927267551422, -482.05814468860626, -1721.9097779989243, -141.2186223268509
 1.7075960768370616E9, -141.2186223268509, -599.3414072990417, -1892.0901855826378, -207.04086154699326
 1.7075960768527362E9, -154.62242376804352, -577.3208763599396, -1872.4631906151772, -198.4241320490837
 1.7075960768527362E9, -90.71501332521439, -475.83495116233826, -1707.0698549747467, -134.51672160625458
 1.7075960768532388E9, -121.83098095655441, -569.9009148478508, -1833.44855427742, -187.17451298236847
 1.7075960768532388E9, -168.02622520923615, -610.8303799629211, -1918.658434867859, -213.50340867042542
 1.7075960768669767E9, -107.46976512670517, -492.3503493666649, -1751.110916852951, -145.52698707580566
 1.7075960768669767E9, -94.54467087984085, -510.30186915397644, -1764.5147182941437, -156.7766061425209
 1.7075960768827963E9, -170.65911477804184, -627.5851317644119, -1925.5996891856194, -221.8807845711708
 1.7075960768827963E9, -134.03801441192627, -539.0243008136749, -1811.667376935482, -168.98363959789276
 1.7075960768833635E9, -82.57699102163315, -480.14331591129303, -1723.5852531790733, -141.45797592401505
 1.7075960768833635E9, -142.1760367155075, -603.1710648536682, -1891.6114783883095, -207.2802151441574
 1.7075960768968868E9, -153.42565578222275, -582.3473019003868, -1871.0270690321922, -189.80740255117416
 1.7075960768968868E9, -97.4169140458107, -478.46784073114395, -1719.994949221611, -138.1070255637169
 1.7075960769125369E9, -118.95873779058456, -554.3429310321808, -1830.097603917122, -187.17451298236847
 1.7075960769125369E9, -172.81329715251923, -619.925816655159, -1915.3074845075607, -215.89694464206696
 1.7075960769132605E9, -105.79428994655609, -502.6425540447235, -1751.110916852951, -151.51082700490952
 1.7075960769132605E9, -85.449234187603, -513.8921731114388, -1759.9669999480247, -157.49466693401337
 1.7075960769268372E9, -157.97337412834167, -618.4896950721741, -1925.120981991291, -216.85435903072357
 1.7075960769268372E9, -131.64447844028473, -534.2372288703918, -1805.444183409214, -171.8558827638626
 1.7075960769425244E9, -74.91767591238022, -472.0052936077118, -1716.1652916669846, -135.71348959207535
 1.7075960769425244E9, -152.22888779640198, -607.479429602623, -1901.903683066368, -222.12013816833496
 1.7075960769432042E9, -151.75018060207367, -574.927340388298, -1859.2987427711487, -184.54162341356277
 1.7075960769432042E9, -89.03953814506531, -466.97886806726456, -1714.2504628896713, -125.89999210834503
 1.707596076957198E9, -109.3845939040184, -547.6410303115845, -1823.8744103908539, -175.20683312416077
 1.707596076957198E9, -160.84561729431152, -612.2665015459061, -1900.9462686777115, -205.60473996400833
 1.7075960769728265E9, -108.9058867096901, -493.3077637553215, -1743.6909553408623, -140.26120793819427
 1.7075960769728265E9, -89.27889174222946, -498.81289649009705, -1753.7438064217567, -145.76634067296982
 1.7075960769733956E9, -167.54751801490784, -623.5161206126213, -1919.3764956593513, -213.98211586475372
 1.7075960769733956E9, -133.79866081476212, -538.7849472165108, -1801.8538794517517, -163.95721405744553
 1.7075960769870512E9, -82.337637424469, -474.6381831765175, -1721.1917172074318, -134.99542880058289
 1.7075960769870512E9, -138.1070255637169, -596.9478713274002, -1888.4998816251755, -206.08344715833664
 1.7075960770025916E9, -151.0321198105812, -569.1828540563583, -1869.3515938520432, -189.80740255117416
 1.7075960770025916E9, -85.449234187603, -466.2608072757721, -1713.771755695343, -137.38896477222443
 1.7075960770033915E9, -112.73554426431656, -557.2151741981506, -1828.4221287369728, -185.4990378022194
 1.7075960770033915E9, -161.80303168296814, -603.6497720479965, -1912.1958877444267, -213.50340867042542
 1.7075960770168886E9, -110.58136188983917, -496.65871411561966, -1747.0419057011604, -148.3992302417755
 1.7075960770168886E9, -93.58725649118423, -504.7967364192009, -1767.6263150572777, -163.71786046028137
 1.707596077032673E9, -160.60626369714737, -614.4206839203835, -1926.3177499771118, -227.86462450027466
 1.707596077032673E9, -134.51672160625458, -533.5191680788994, -1820.7628136277199, -184.30226981639862
 1.7075960770332825E9, -79.22604066133499, -472.72335439920425, -1728.6116787195206, -149.11729103326797
 1.7075960770332825E9, -148.3992302417755, -597.6659321188927, -1891.8508319854736, -215.89694464206696
 1.7075960770468507E9, -158.45208132266998, -576.1241083741188, -1874.1386657953262, -196.98801046609879
 1.7075960770468507E9, -92.62984210252762, -474.1594759821892, -1717.1227060556412, -136.67090398073196
 1.7075960770626383E9, -123.02774894237518, -567.028671681881, -1838.4749798178673, -189.0893417596817
 1.7075960770626383E9, -174.9674795269966, -616.814219892025, -1923.2061532139778, -213.0247014760971
 1.7075960770632422E9, -115.84714102745056, -496.18000692129135, -1764.993425488472, -158.9307885169983
 1.7075960770632422E9, -96.22014605998993, -516.0463554859161, -1768.3443758487701, -159.17014211416245
 1.7075960770768726E9, -170.18040758371353, -632.372203707695, -1930.6261147260666, -227.1465637087822
 1.7075960770768726E9, -135.23478239774704, -539.0243008136749, -1814.3002665042877, -173.77071154117584
 1.7075960770925407E9, -84.73117339611053, -481.3400838971138, -1726.218142747879, -134.75607520341873
 1.7075960770925407E9, -143.37280470132828, -598.6233465075493, -1894.7230751514435, -204.64732557535172
 1.7075960770932083E9, -156.7766061425209, -578.9963515400887, -1868.3941794633865, -196.03059607744217
 1.7075960770932083E9, -91.672427713871, -472.0052936077118, -1717.1227060556412, -137.38896477222443
 1.7075960771070056E9, -119.43744498491287, -560.805478155613, -1826.2679463624954, -185.02033060789108
 1.7075960771070056E9, -170.898468375206, -614.4206839203835, -1916.0255452990532, -224.5136741399765
 1.7075960771231942E9, -112.4961906671524, -497.6161285042763, -1756.3766959905624, -155.10113096237183
 1.7075960771231942E9, -101.00721800327301, -510.30186915397644, -1766.9082542657852, -158.69143491983414
 1.7075960771232548E9, -160.84561729431152, -614.4206839203835, -1925.8390427827835, -216.61500543355942
 1.7075960771232548E9, -149.11729103326797, -542.8539583683014, -1810.9493161439896, -167.30816441774368
 1.7075960771371813E9, -92.39048850536346, -488.28133821487427, -1728.3723251223564, -140.97926872968674
 1.7075960771371813E9, -149.59599822759628, -606.5220152139664, -1885.1489312648773, -208.47698312997818
 1.7075960771531332E9, -154.62242376804352, -577.7995835542679, -1871.9844834208488, -197.9454248547554
 1.7075960771531332E9, -92.39048850536346, -466.97886806726456, -1712.335634112358, -130.92641764879227
 1.7075960771531963E9, -118.00132340192795, -549.7952126860619, -1827.4647143483162, -179.27584427595139
 1.7075960771531963E9, -164.91462844610214, -606.0433080196381, -1907.887522995472, -207.2802151441574
 1.7075960771670275E9, -112.97489786148071, -500.24901807308197, -1744.648369729519, -146.00569427013397
 1.7075960771670275E9, -90.71501332521439, -505.99350440502167, -1761.4031215310097, -152.70759499073029
 1.7075960771834512E9, -158.21272772550583, -615.6174519062042, -1917.222313284874, -207.99827593564987
 1.7075960771834512E9, -134.03801441192627, -531.6043393015862, -1804.7261226177216, -162.0423852801323
 1.7075960771836789E9, -79.22604066133499, -472.24464720487595, -1710.8995125293732, -132.3625392317772
 1.7075960771836789E9, -137.14961117506027, -590.9640313982964, -1877.9683233499527, -203.2112039923668
 1.7075960771973412E9, -165.1539820432663, -579.9537659287453, -1868.3941794633865, -189.0893417596817
 1.7075960771973412E9, -93.82661008834839, -468.1756360530853, -1702.0434294342995, -136.91025757789612
 1.707596077212244E9, -123.26710253953934, -564.1564285159111, -1829.8582503199577, -195.79124248027802
 1.707596077212244E9, -175.44618672132492, -620.1651702523232, -1916.7436060905457, -224.27432054281235
 1.7075960772278104E9, -110.34200829267502, -524.1843777894974, -1781.0301164984703, -180.47261226177216
 1.7075960772278104E9, -166.1113964319229, -624.7128885984421, -1923.2061532139778, -226.90721011161804
 1.7075960772283812E9, -124.46387052536011, -534.476582467556, -1810.231255352497, -168.7442860007286
 1.7075960772283812E9, -71.08801835775375, -481.10073029994965, -1716.883352458477, -138.34637916088104
 1.7075960772422984E9, -123.9851633310318, -592.4001529812813, -1887.5424672365189, -214.46082305908203
 1.7075960772422984E9, -139.0644399523735, -586.1769594550133, -1881.0799201130867, -213.26405507326126
 1.7075960772579E9, -69.89125037193298, -470.56917202472687, -1723.5852531790733, -148.87793743610382
 1.7075960772579E9, -88.08212375640869, -536.1520576477051, -1818.6086312532425, -187.41386657953262
 1.707596077258228E9, -152.46824139356613, -608.1974903941154, -1917.9403740763664, -229.06139248609543
 1.707596077258228E9, -97.89562124013901, -486.36650943756104, -1752.547038435936, -155.10113096237183
 1.7075960772723188E9, -86.16729497909546, -513.8921731114388, -1768.105022251606, -175.68554031848907
 1.7075960772723188E9, -162.5210924744606, -640.2708724141121, -1932.0622363090515, -239.1142435669899
 1.7075960772874825E9, -122.78839534521103, -537.3488256335258, -1820.5234600305557, -186.456452190876
 1.7075960772874825E9, -72.52413994073868, -487.80263102054596, -1736.2709938287735, -164.43592125177383
 1.7075960772881677E9, -129.96900326013565, -601.7349432706833, -1892.329539179802, -229.7794532775879
 1.7075960772881677E9, -150.0747054219246, -594.0756281614304, -1889.217942416668, -223.31690615415573
 1.707596077318486E9, -79.22604066133499, -469.61175763607025, -1722.1491315960884, -156.53725254535675
 1.707596077318486E9, -101.72527879476547, -549.7952126860619, -1834.1666150689125, -201.5357288122177
 1.7075960773189285E9, -157.2553133368492, -611.0697335600853, -1933.9770650863647, -243.18325471878052
 1.7075960773189285E9, -105.55493634939194, -507.4296259880066, -1769.541143834591, -182.14808744192123
 1.7075960773196523E9, -90.47565972805023, -518.2005378603935, -1778.1578733325005, -187.17451298236847
 1.7075960773196523E9, -159.8882029056549, -634.0476788878441, -1937.567369043827, -252.75739860534668
 1.707596077331875E9, -125.42128491401672, -542.8539583683014, -1817.6512168645859, -199.14219284057617
 1.707596077331875E9, -69.89125037193298, -476.31365835666656, -1731.005214691162, -167.30816441774368
 1.7075960773475776E9, -130.44771045446396, -597.6659321188927, -1903.8185118436813, -243.66196191310883
 1.7075960773475776E9, -154.86177736520767, -592.1607993841171, -1891.3721247911453, -232.65169644355774
 1.7075960773482285E9, -86.16729497909546, -487.0845702290535, -1728.6116787195206, -168.98363959789276
 1.7075960773482285E9, -109.14524030685425, -566.3106108903885, -1838.7143334150314, -213.26405507326126
 1.7075960773618948E9, -164.675274848938, -618.7290486693382, -1932.5409435033798, -242.94390112161636
 1.7075960773618948E9, -108.42717951536179, -504.3180292248726, -1772.892094194889, -184.78097701072693
 1.7075960773775885E9, -91.1937205195427, -519.3973058462143, -1778.1578733325005, -187.41386657953262
 1.7075960773775885E9, -153.1863021850586, -629.7393141388893, -1934.9344794750214, -247.9703266620636
 1.7075960773782053E9, -131.16577124595642, -545.0081407427788, -1825.0711783766747, -198.66348564624786
 1.7075960773782053E9, -73.00284713506699, -474.6381831765175, -1730.5265074968338, -164.43592125177383
 1.707596077391968E9, -133.79866081476212, -600.2988216876984, -1890.6540639996529, -232.17298924922943
 1.707596077391968E9, -153.90436297655106, -591.2033849954605, -1888.0211744308472, -222.12013816833496
 1.7075960774079823E9, -80.66216224431992, -480.62202310562134, -1719.994949221611, -160.60626369714737
 1.7075960774079823E9, -112.4961906671524, -561.5235389471054, -1847.5704165101051, -215.41823744773865
 1.70759607740824E9, -169.46234679222107, -622.3193526268005, -1934.216418683529, -248.68838745355606
 1.70759607740824E9, -112.4961906671524, -507.9083331823349, -1770.9772654175758, -177.6003690958023
 1.7075960774220457E9, -95.50208526849747, -523.7056705951691, -1781.2694700956345, -188.13192737102509
 1.7075960774220457E9, -171.61652916669846, -635.7231540679932, -1942.3544409871101, -249.64580184221268
 1.7075960774375737E9, -140.50056153535843, -552.6674558520317, -1831.5337255001068, -202.97185039520264
 1.7075960774375737E9, -93.58725649118423, -490.91422778367996, -1746.8025521039963, -174.4887723326683
 1.7075960774385264E9, -147.20246225595474, -607.479429602623, -1913.6320093274117, -241.02907234430313
 1.7075960774385264E9, -163.95721405744553, -591.2033849954605, -1899.7495006918907, -228.1039780974388
 1.7075960774521775E9, -94.06596368551254, -487.0845702290535, -1734.5955186486244, -162.5210924744606
 1.7075960774521775E9, -119.67679858207703, -568.9435004591942, -1838.7143334150314, -210.3918119072914
 1.7075960774679189E9, -174.24941873550415, -630.4573749303818, -1939.003490626812, -248.92774105072021
 1.7075960774679189E9, -104.59752196073532, -498.0948356986046, -1769.0624366402626, -174.72812592983246
 1.7075960774683208E9, -93.58725649118423, -521.7908418178558, -1783.663006067276, -189.80740255117416
 1.7075960774683208E9, -158.21272772550583, -631.1754357218742, -1937.567369043827, -245.09808349609375
 1.7075960774822516E9, -146.72375506162643, -562.0022461414337, -1839.9111014008522, -214.22146946191788
 1.7075960774822516E9, -98.61368203163147, -505.51479721069336, -1753.5044528245926, -178.31842988729477
 1.7075960774976456E9, -138.82508635520935, -610.1123191714287, -1909.3236445784569, -241.98648673295975
 1.7075960774976456E9, -151.98953419923782, -592.4001529812813, -1895.441135942936, -233.3697572350502
 1.7075960774983058E9, -85.449234187603, -483.4942662715912, -1742.0154801607132, -173.05265074968338
 1.7075960774983058E9, -100.28915721178055, -559.6087101697922, -1841.107869386673, -212.5459942817688
 1.7075960775120232E9, -161.80303168296814, -619.6864630579948, -1940.678965806961, -251.79998421669006
 1.7075960775120232E9, -100.0498036146164, -501.6851396560669, -1769.0624366402626, -179.51519787311554
 1.7075960775274744E9, -77.78991907835007, -506.9509187936783, -1772.4133870005608, -181.90873384475708
 1.7075960775274744E9, -148.87793743610382, -628.3031925559044, -1934.6951258778572, -247.25226587057114
 1.7075960775282495E9, -123.26710253953934, -542.1358975768089, -1833.6879078745842, -198.66348564624786
 1.7075960775282495E9, -67.01900720596313, -479.42525511980057, -1739.1432369947433, -166.1113964319229
 1.70759607754225E9, -139.78250074386597, -610.591026365757, -1912.1958877444267, -246.53420507907867
 1.70759607754225E9, -146.00569427013397, -586.8950202465057, -1894.9624287486076, -229.06139248609543
 1.7075960775576787E9, -85.20988059043884, -480.3826695084572, -1733.6381042599678, -171.13782197237015
 1.7075960775576787E9, -112.97489786148071, -567.028671681881, -1844.4588197469711, -215.1788838505745
 1.7075960775583546E9, -166.35075002908707, -631.4147893190384, -1936.6099546551704, -249.64580184221268
 1.7075960775583546E9, -114.17166584730148, -512.4560515284538, -1770.4985582232475, -186.456452190876
 1.7075960775720303E9, -92.39048850536346, -520.3547202348709, -1782.9449452757835, -192.91899931430817
 1.7075960775720303E9, -157.73402053117752, -628.3031925559044, -1937.328015446663, -249.40644824504852
 1.7075960775877132E9, -137.86767196655273, -553.14616304636, -1832.4911398887634, -203.92926478385925
 1.7075960775877132E9, -79.46539425849915, -481.10073029994965, -1731.005214691162, -162.76044607162476
 1.7075960775883071E9, -142.41539031267166, -608.9155511856079, -1905.9726942181587, -237.43876838684082
 1.7075960775883071E9, -154.1437165737152, -591.2033849954605, -1900.4675614833832, -226.42850291728973
 1.707596077602105E9, -85.68858778476715, -474.6381831765175, -1731.2445682883263, -164.43592125177383
 1.707596077602105E9, -108.18782591819763, -556.9758206009865, -1838.7143334150314, -213.0247014760971
 1.7075960776175451E9, -166.59010362625122, -623.037413418293, -1928.232578754425, -238.6355363726616
 1.7075960776175451E9, -110.58136188983917, -508.62639397382736, -1765.4721326828003, -173.29200434684753
 1.707596077618209E9, -85.9279413819313, -513.6528195142746, -1768.3443758487701, -173.77071154117584
 1.707596077618209E9, -156.53725254535675, -629.0212533473969, -1928.232578754425, -241.02907234430313
 1.7075960776318405E9, -132.12318563461304, -543.0933119654655, -1827.9434215426445, -196.03059607744217
 1.7075960776318405E9, -80.18345504999161, -483.4942662715912, -1732.2019826769829, -162.5210924744606
 1.707596077647812E9, -143.37280470132828, -604.1284792423248, -1897.116611123085, -233.13040363788605
 1.707596077647812E9, -157.97337412834167, -591.921445786953, -1890.6540639996529, -222.12013816833496
 1.707596077648259E9, -93.58725649118423, -483.73361986875534, -1735.552933037281, -162.5210924744606
 1.707596077648259E9, -109.3845939040184, -570.3796220421791, -1834.1666150689125, -205.12603276968002
 1.7075960776620345E9, -166.35075002908707, -623.7554742097855, -1927.0358107686043, -239.83230435848236
 1.7075960776620345E9, -107.23041152954102, -505.99350440502167, -1767.1476078629494, -171.13782197237015
 1.7075960776776896E9, -92.39048850536346, -517.2431234717369, -1770.7379118204117, -180.47261226177216
 1.7075960776776896E9, -157.01595973968506, -624.4735350012779, -1933.0196506977081, -240.55036514997482
 1.7075960776783807E9, -131.88383203744888, -550.2739198803902, -1830.336957514286, -193.15835291147232
 1.7075960776783807E9, -77.31121188402176, -479.42525511980057, -1733.6381042599678, -156.05854535102844
 1.70759607769183E9, -132.12318563461304, -596.9478713274002, -1896.6379039287567, -228.1039780974388
 1.70759607769183E9, -156.53725254535675, -590.0066170096397, -1893.0475999712944, -225.47108852863312
 1.7075960777078407E9, -91.672427713871, -479.42525511980057, -1725.5000819563866, -162.28173887729645
 1.7075960777078407E9, -115.60778743028641, -560.5661245584488, -1840.1504549980164, -209.67375111579895
 1.7075960777083604E9, -167.06881082057953, -619.925816655159, -1934.455772280693, -239.83230435848236
 1.7075960777083604E9, -112.97489786148071, -509.82316195964813, -1769.0624366402626, -171.13782197237015
 1.707596077722031E9, -82.09828382730484, -508.62639397382736, -1768.105022251606, -173.5313579440117
 1.707596077722031E9, -165.1539820432663, -635.9625076651573, -1940.2002586126328, -247.9703266620636
 1.7075960777376142E9, -145.52698707580566, -548.5984447002411, -1826.0285927653313, -198.18477845191956
 1.7075960777376142E9, -85.20988059043884, -485.8878022432327, -1726.6968499422073, -158.21272772550583
 1.7075960777382276E9, -141.2186223268509, -605.8039544224739, -1903.339804649353, -227.6252709031105
 1.7075960777382276E9, -156.05854535102844, -592.4001529812813, -1886.8244064450264, -217.8117734193802
 1.7075960777518263E9, -86.64600217342377, -472.24464720487595, -1719.5162420272827, -150.31405901908875
 1.7075960777518263E9, -112.73554426431656, -560.5661245584488, -1825.7892391681671, -200.33896082639694
 1.7075960777674963E9, -171.13782197237015, -629.260606944561, -1928.232578754425, -233.60911083221436
 1.7075960777674963E9, -113.93231225013733, -506.71156519651413, -1770.2592046260834, -168.98363959789276
 1.7075960777682216E9, -86.88535577058792, -504.7967364192009, -1762.5998895168304, -170.898468375206
 1.7075960777682216E9, -154.62242376804352, -628.0638389587402, -1929.4293467402458, -236.72070759534836
 1.7075960777823296E9, -138.5857327580452, -547.6410303115845, -1826.5072999596596, -190.52546334266663
 1.7075960777823296E9, -72.52413994073868, -477.031719148159, -1725.9787891507149, -151.0321198105812
 1.7075960777977197E9, -133.55930721759796, -599.82011449337, -1893.2869535684586, -219.00854140520096
 1.7075960777977197E9, -159.64884930849075, -595.9904569387436, -1885.8669920563698, -212.0672870874405
 1.7075960777981892E9, -89.75759893655777, -474.87753677368164, -1717.3620596528053, -150.5534126162529
 1.7075960777981892E9, -117.52261620759964, -563.6777213215828, -1832.0124326944351, -200.33896082639694
 1.7075960778118138E9, -165.39333564043045, -622.7980598211288, -1926.557103574276, -229.7794532775879
 1.7075960778118138E9, -117.28326261043549, -511.25928354263306, -1769.780497431755, -173.77071154117584
 1.7075960778275833E9, -97.17756044864655, -523.9450241923332, -1776.2430445551872, -180.233258664608
 1.7075960778275833E9, -155.57983815670013, -622.5587062239647, -1932.5409435033798, -227.6252709031105
 1.7075960778282435E9, -138.1070255637169, -541.8965439796448, -1819.8053992390633, -182.3874410390854
 1.7075960778282435E9, -78.50797986984253, -476.31365835666656, -1718.0801204442978, -144.3302190899849
 1.707596077841832E9, -137.62831836938858, -594.7936889529228, -1875.5747873783112, -209.67375111579895
 1.707596077841832E9, -159.64884930849075, -591.2033849954605, -1882.5160416960716, -212.5459942817688
 1.7075960778743727E9, -87.60341656208038, -466.02145367860794, -1708.0272693634033, -137.38896477222443
 1.7075960778743727E9, -108.66653311252594, -548.5984447002411, -1819.326692044735, -177.83972269296646
 1.707596077874698E9, -169.94105398654938, -607.2400760054588, -1920.333910048008, -218.52983421087265
 1.707596077874698E9, -108.18782591819763, -494.7438853383064, -1752.0683312416077, -152.46824139356613
 1.70759607787531E9, -93.58725649118423, -501.6851396560669, -1752.547038435936, -157.49466693401337
 1.70759607787531E9, -163.95721405744553, -627.8244853615761, -1918.1797276735306, -229.7794532775879
 1.7075960778761294E9, -141.6973295211792, -541.1784831881523, -1821.7202280163765, -178.07907629013062
 1.7075960778761294E9, -86.88535577058792, -475.5955975651741, -1725.5000819563866, -143.61215829849243
 1.7075960778869443E9, -139.30379354953766, -593.3575673699379, -1883.9521632790565, -205.84409356117249
 1.7075960778869443E9, -157.01595973968506, -580.9111803174019, -1884.9095776677132, -203.92926478385925
 1.7075960779023595E9, -89.03953814506531, -473.20206159353256, -1715.6865844726562, -139.5431471467018
 1.7075960779023595E9, -107.70911872386932, -547.1623231172562, -1815.4970344901085, -182.3874410390854
 1.7075960779177175E9, -165.39333564043045, -613.4632695317268, -1918.1797276735306, -223.55625975131989
 1.7075960779177175E9, -110.34200829267502, -493.06841015815735, -1751.5896240472794, -151.51082700490952
 1.7075960779182332E9, -88.80018454790115, -498.33418929576874, -1755.1799280047417, -154.38307017087936
 1.7075960779182332E9, -163.71786046028137, -624.4735350012779, -1925.3603355884552, -228.34333169460297
 1.707596077931888E9, -142.65474390983582, -549.5558590888977, -1821.002167224884, -189.32869535684586
 1.707596077931888E9, -80.90151584148407, -467.45757526159286, -1717.8407668471336, -144.09086549282074
 1.707596077947525E9, -146.48440146446228, -601.256236076355, -1890.6540639996529, -218.05112701654434
 1.707596077947525E9, -156.7766061425209, -584.2621306777, -1881.558627307415, -201.5357288122177
 1.70759607794824E9, -92.62984210252762, -469.3724040389061, -1707.3092085719109, -134.27736800909042
 1.70759607794824E9, -114.88972663879395, -557.9332349896431, -1817.6512168645859, -179.51519787311554
 1.7075960779619732E9, -171.3771755695343, -613.9419767260551, -1921.2913244366646, -219.72660219669342
 1.7075960779619732E9, -113.93231225013733, -488.99939900636673, -1754.4618672132492, -150.5534126162529
 1.7075960779783287E9, -95.74143886566162, -507.9083331823349, -1755.8979887962341, -157.97337412834167
 1.7075960779783287E9, -161.32432448863983, -621.8406454324722, -1930.8654683232307, -224.0349669456482
 1.7075960779784353E9, -142.89409750699997, -547.1623231172562, -1818.6086312532425, -182.14808744192123
 1.7075960779784353E9, -89.99695253372192, -486.6058630347252, -1721.431070804596, -140.97926872968674
 1.7075960779920967E9, -143.13345110416412, -599.1020537018776, -1881.0799201130867, -205.36538636684418
 1.7075960779920967E9, -159.8882029056549, -595.5117497444153, -1882.2766880989075, -202.73249679803848
 1.7075960780076551E9, -91.672427713871, -473.20206159353256, -1711.8569269180298, -141.93668311834335
