 Timestamp, EXG Channel 0, EXG Channel 1, EXG Channel 2, EXG Channel 3
 1.7054512524199524E9, -392.53989934921265, -404.7469328045845, -206.56215435266495, -65.82223922014236
 1.7054512524199524E9, -460.5163209438324, -400.1992144584656, -193.63706010580063, -89.03953814506531
 1.705451252434554E9, -373.15225797891617, -387.5134738087654, -186.456452190876, 24.89277410507202
 1.705451252434554E9, -346.10530149936676, -387.9921810030937, -199.86025363206863, -24.653420507907867
 1.7054512524490538E9, -435.14483964443207, -376.98191553354263, -194.3551208972931, -94.784024477005
 1.7054512524490538E9, -396.60891050100327, -374.34902596473694, -176.6429547071457, 2.6328895688056946
 1.7054512524497619E9, -329.1111961007118, -386.5560594201088, -188.84998816251755, 21.30247014760971
 1.7054512524497619E9, -421.9803918004036, -403.3108112215996, -198.90283924341202, -90.95436692237854
 1.705451252463772E9, -429.6397069096565, -380.57221949100494, -179.99390506744385, -36.62110036611557
 1.705451252463772E9, -337.0098648071289, -386.5560594201088, -183.8235626220703, 34.466917991638184
 1.7054512524954927E9, -372.912904381752, -388.470888197422, -200.33896082639694, -63.90741044282913
 1.7054512524954927E9, -443.04350835084915, -376.5032083392143, -194.8338280916214, -91.91178131103516
 1.7054512524961765E9, -367.40777164697647, -388.94959539175034, -183.8235626220703, 26.08954209089279
 1.7054512524961765E9, -352.8072022199631, -395.65149611234665, -209.9131047129631, -27.525663673877716
 1.7054512524968948E9, -438.97449719905853, -387.0347666144371, -199.86025363206863, -100.5285108089447
 1.7054512524968948E9, -398.0450320839882, -375.78514754772186, -173.29200434684753, 7.898668706417084
 1.7054512524977317E9, -328.6324889063835, -389.6676561832428, -191.48287773132324, 24.414066910743713
 1.7054512524977317E9, -410.4914191365242, -386.5560594201088, -192.679645717144, -79.94410145282745
 1.7054512525083745E9, -429.1609997153282, -376.7425619363785, -182.8661482334137, -32.07338201999664
 1.7054512525083745E9, -331.98343926668167, -375.78514754772186, -184.78097701072693, 41.88687950372696
 1.7054512525397573E9, -379.8541586995125, -392.3005457520485, -202.25378960371017, -59.59904569387436
 1.7054512525397573E9, -448.78799468278885, -381.7689874768257, -186.456452190876, -84.25246620178223
 1.705451252540439E9, -353.52526301145554, -367.6471252441406, -171.61652916669846, 39.73269712924957
 1.705451252540439E9, -344.66917991638184, -389.1889489889145, -196.26994967460632, -13.882508635520935
 1.7054512525411947E9, -440.6499723792076, -382.4870482683182, -182.8661482334137, -86.64600217342377
 1.7054512525411947E9, -397.80567848682404, -371.71613639593124, -171.3771755695343, 3.829657554626465
 1.7054512525533805E9, -320.73382019996643, -376.98191553354263, -187.17451298236847, 23.217298924922943
 1.7054512525533805E9, -413.6030158996582, -389.42830258607864, -205.36538636684418, -89.51824533939362
 1.7054512525694036E9, -422.9378061890602, -363.57811409235, -176.16424751281738, -37.09980756044388
 1.7054512525694036E9, -324.0847705602646, -368.12583243846893, -172.57394355535507, 42.844293892383575
 1.7054512525699687E9, -356.63685977458954, -372.912904381752, -185.73839139938354, -44.041061878204346
 1.7054512525699687E9, -440.1712651848793, -372.67355078458786, -175.92489391565323, -74.67832231521606
 1.7054512525833492E9, -344.1904727220535, -361.4239317178726, -165.39333564043045, 44.519769072532654
 1.7054512525833492E9, -326.238952934742, -371.71613639593124, -186.69580578804016, -12.44638705253601
 1.705451252600124E9, -423.17715978622437, -370.7587220072746, -183.58420902490616, -94.784024477005
 1.705451252600124E9, -384.4018770456314, -363.33876049518585, -164.675274848938, 19.626994967460632
 1.705451252600594E9, -324.0847705602646, -381.52963387966156, -174.9674795269966, 39.253989934921265
 1.705451252600594E9, -400.1992144584656, -375.78514754772186, -190.04675614833832, -73.4815543293953
 1.7054512526133137E9, -425.81004935503006, -371.23742920160294, -178.31842988729477, -32.3127356171608
 1.7054512526133137E9, -331.7440856695175, -378.89674431085587, -182.8661482334137, 44.041061878204346
 1.70545125262943E9, -370.2800148129463, -384.64123064279556, -195.3125352859497, -49.54619461297989
 1.70545125262943E9, -439.2138507962227, -374.82773315906525, -184.30226981639862, -77.78991907835007
 1.7054512526299508E9, -348.73819106817245, -360.9452245235443, -176.40360110998154, 36.860453963279724
 1.7054512526299508E9, -332.2227928638458, -372.4341971874237, -191.48287773132324, -11.010265469551086
 1.7054512526434176E9, -436.1022540330887, -383.20510905981064, -197.70607125759125, -107.23041152954102
 1.7054512526434176E9, -392.06119215488434, -372.67355078458786, -172.33458995819092, -6.9412543177604675
 1.705451252659538E9, -325.5208921432495, -381.2902802824974, -189.56804895401, 16.276044607162476
 1.705451252659538E9, -400.43856805562973, -376.98191553354263, -193.63706010580063, -82.8163446187973
 1.7054512526599293E9, -414.0817230939865, -363.57811409235, -163.23915326595306, -28.483078062534332
 1.7054512526599293E9, -330.54731768369675, -375.78514754772186, -170.898468375206, 47.15265864133835
 1.705451252673384E9, -358.7910421490669, -373.3916115760803, -186.93515938520432, -39.73269712924957
 1.705451252673384E9, -432.9906572699547, -366.689710855484, -175.44618672132492, -84.49181979894638
 1.7054512526892233E9, -353.0465558171272, -367.1684180498123, -171.61652916669846, 28.004370868206024
 1.7054512526892233E9, -338.44598639011383, -384.4018770456314, -194.8338280916214, -22.020530939102173
 1.7054512526898382E9, -431.3151820898056, -376.26385474205017, -191.2435241341591, -96.22014605998993
 1.7054512526898382E9, -395.4121425151825, -375.78514754772186, -166.35075002908707, 5.505132734775543
 1.7054512527033896E9, -324.0847705602646, -374.34902596473694, -185.25968420505524, 27.76501727104187
 1.7054512527033896E9, -407.14046877622604, -388.7102417945862, -198.18477845191956, -89.27889174222946
 1.705451252719054E9, -417.43267345428467, -365.97165006399155, -175.92489391565323, -43.08364748954773
 1.705451252719054E9, -335.81309682130814, -376.7425619363785, -175.44618672132492, 40.69011151790619
 1.7054512527197785E9, -372.19484359025955, -391.8218385577202, -196.98801046609879, -47.3920122385025
 1.7054512527197785E9, -444.9583371281624, -379.6148051023483, -182.14808744192123, -76.83250468969345
 1.7054512527335472E9, -348.25948387384415, -362.1419925093651, -159.4094957113266, 47.63136583566666
 1.7054512527335472E9, -339.40340077877045, -379.3754515051842, -182.62679463624954, -2.8722431659698486
 1.7054512527495089E9, -425.81004935503006, -374.34902596473694, -179.99390506744385, -82.09828382730484
 1.7054512527495089E9, -384.8805842399597, -357.59427416324615, -164.43592125177383, 13.882508635520935
 1.7054512527643688E9, -307.56937235593796, -355.9187989830971, -177.121661901474, 37.578514754772186
 1.7054512527643688E9, -396.3695569038391, -374.82773315906525, -183.10550183057785, -76.5931510925293
 1.7054512527648575E9, -426.5281101465225, -369.3226004242897, -168.02622520923615, -30.15855324268341
 1.7054512527648575E9, -335.0950360298157, -369.801307618618, -171.61652916669846, 50.98231619596481
 1.7054512527790978E9, -371.23742920160294, -382.9657554626465, -190.28610974550247, -46.19524425268173
 1.7054512527790978E9, -448.30928748846054, -373.15225797891617, -184.78097701072693, -76.35379749536514
 1.7054512527797775E9, -361.9026389122009, -371.9554899930954, -168.7442860007286, 35.663685977458954
 1.7054512527797775E9, -352.0891414284706, -399.9598608613014, -192.679645717144, -11.010265469551086
 1.7054512527935596E9, -438.0170828104019, -380.8115730881691, -182.8661482334137, -88.32147735357285
 1.7054512527935596E9, -398.28438568115234, -362.86005330085754, -154.38307017087936, 21.78117734193802
 1.7054512528090613E9, -339.1640471816063, -384.16252344846725, -185.9777449965477, 25.850188493728638
 1.7054512528090613E9, -413.36366230249405, -392.06119215488434, -205.84409356117249, -94.54467087984085
 1.7054512528097675E9, -410.25206553936005, -352.0891414284706, -162.0423852801323, -22.97794532775879
 1.7054512528097675E9, -328.1537817120552, -366.92906445264816, -163.95721405744553, 53.1364985704422
 1.7054512528237011E9, -363.33876049518585, -382.4870482683182, -177.36101549863815, -32.07338201999664
 1.7054512528237011E9, -417.6720270514488, -354.48267740011215, -158.69143491983414, -62.71064245700836
 1.7054512528390615E9, -334.61632883548737, -347.30206948518753, -146.48440146446228, 48.58878022432327
 1.7054512528390615E9, -289.85720616579056, -341.55758315324783, -161.08497089147568, 12.925094246864319
 1.7054512528398235E9, -378.1786835193634, -337.72792559862137, -152.70759499073029, -58.40227770805359
 1.7054512528398235E9, -376.024501144886, -349.69560545682907, -148.3992302417755, 15.31863021850586
 1.705451252853578E9, -286.5062558054924, -342.51499754190445, -147.20246225595474, 52.65779137611389
 1.705451252853578E9, -366.45035725831985, -356.63685977458954, -167.786871612072, -61.27452087402344
 1.7054512528690803E9, -382.9657554626465, -336.77051120996475, -145.52698707580566, -18.190873384475708
 1.7054512528690803E9, -292.01138854026794, -341.0788759589195, -146.48440146446228, 63.66805684566498
 1.7054512528697772E9, -329.350549697876, -354.96138459444046, -164.19656765460968, -18.430226981639862
 1.7054512528697772E9, -401.87468963861465, -348.02013027668, -157.2553133368492, -60.31710648536682
 1.7054512528835945E9, -320.01575940847397, -330.54731768369675, -142.65474390983582, 51.700376987457275
 1.7054512528835945E9, -293.2081565260887, -340.1214615702629, -158.9307885169983, 10.292204678058624
 1.705451252898809E9, -376.26385474205017, -336.5311576128006, -154.38307017087936, -65.34353202581406
 1.705451252898809E9, -349.9349590539932, -330.54731768369675, -147.68116945028305, 17.472812592983246
 1.7054512529140975E9, -280.52241587638855, -336.77051120996475, -158.45208132266998, 49.06748741865158
 1.7054512529140975E9, -358.07298135757446, -347.78077667951584, -166.59010362625122, -57.68421691656113
 1.7054512529147837E9, -393.49731373786926, -350.6530198454857, -160.60626369714737, -38.77528274059296
 1.7054512529147837E9, -306.8513115644455, -353.7646166086197, -163.95721405744553, 46.434597849845886
 1.7054512529294508E9, -342.99370473623276, -367.1684180498123, -182.3874410390854, -45.237829864025116
 1.7054512529294508E9, -410.73077273368835, -354.00397020578384, -175.20683312416077, -78.26862627267838
 1.7054512529299312E9, -325.0421849489212, -335.573743224144, -159.64884930849075, 35.663685977458954
 1.7054512529299312E9, -312.35644429922104, -362.38134610652924, -174.72812592983246, -3.3509503602981567
 1.7054512529433718E9, -400.1992144584656, -362.6206997036934, -172.57394355535507, -77.78991907835007
 1.7054512529433718E9, -371.4767827987671, -353.7646166086197, -162.9997996687889, 4.547718346118927
 1.705451252959246E9, -291.0539741516113, -354.96138459444046, -173.05265074968338, 30.876614034175873
 1.705451252959246E9, -374.34902596473694, -364.29617488384247, -175.92489391565323, -74.43896871805191
 1.7054512529598303E9, -390.6250705718994, -345.3872407078743, -151.27147340774536, -34.22756439447403
 1.7054512529598303E9, -305.1758363842964, -355.6794453859329, -162.28173887729645, 45.95589065551758
 1.705451252973551E9, -336.0524504184723, -366.689710855484, -185.25968420505524, -43.80170828104019
 1.705451252973551E9, -423.8952205777168, -371.4767827987671, -185.25968420505524, -83.05569821596146
 1.7054512529890788E9, -339.6427543759346, -357.8336277604103, -166.82945722341537, 32.07338201999664
 1.7054512529890788E9, -319.7764058113098, -369.56195402145386, -189.80740255117416, -18.669580578804016
 1.7054512529897664E9, -406.9011151790619, -363.0994068980217, -187.17451298236847, -95.50208526849747
 1.7054512529897664E9, -370.2800148129463, -349.69560545682907, -164.19656765460968, -7.898668706417084
 1.7054512530036972E9, -304.45777559280396, -361.4239317178726, -169.94105398654938, 32.55208921432495
 1.7054512530036972E9, -378.1786835193634, -370.5193684101105, -184.54162341356277, -75.39638310670853
 1.7054512530190716E9, -409.29465115070343, -363.33876049518585, -160.36691009998322, -37.578514754772186
 1.7054512530190716E9, -316.6648090481758, -366.689710855484, -160.12755650281906, 44.99847626686096
 1.705451253019771E9, -339.88210797309875, -367.40777164697647, -177.83972269296646, -37.81786835193634
 1.705451253019771E9, -413.1243087053299, -354.243323802948, -177.36101549863815, -74.43896871805191
 1.7054512530501244E9, -332.9408536553383, -351.6104342341423, -162.0423852801323, 33.74885720014572
 1.7054512530501244E9, -310.68096911907196, -359.9878101348877, -184.78097701072693, -8.8560830950737
 1.7054512530505464E9, -410.73077273368835, -371.4767827987671, -179.51519787311554, -90.47565972805023
 1.7054512530505464E9, -368.60453963279724, -347.5414230823517, -158.21272772550583, -0.23935359716415405
 1.7054512530512347E9, -297.0378140807152, -360.22716373205185, -178.07907629013062, 26.328895688056946
 1.7054512530512347E9, -376.98191553354263, -364.7748820781708, -190.04675614833832, -86.16729497909546
 1.7054512530634131E9, -397.5663248896599, -352.32849502563477, -174.01006513834, -52.897144973278046
 1.7054512530634131E9, -314.5106266736984, -359.74845653772354, -182.8661482334137, 27.046956479549408
 1.7054512530795043E9, -349.9349590539932, -379.3754515051842, -188.84998816251755, -49.54619461297989
 1.7054512530795043E9, -415.7571982741356, -360.70587092638016, -181.19067305326462, -86.88535577058792
 1.7054512530798156E9, -337.9672791957855, -354.48267740011215, -161.56367808580399, 27.046956479549408
 1.7054512530798156E9, -325.5208921432495, -379.6148051023483, -192.2009385228157, -17.233458995819092
 1.705451253093456E9, -410.0127119421959, -372.67355078458786, -186.21709859371185, -102.20398598909378
 1.705451253093456E9, -369.801307618618, -344.908533513546, -167.30816441774368, -5.983839929103851
 1.7054512531097257E9, -297.5165212750435, -363.57811409235, -178.79713708162308, 25.610834896564484
 1.7054512531097257E9, -382.4870482683182, -377.93932992219925, -184.06291621923447, -73.00284713506699
 1.705451253124467E9, -411.9275407195091, -362.6206997036934, -168.2655788064003, -40.92946511507034
 1.705451253124467E9, -310.9203227162361, -356.63685977458954, -165.1539820432663, 41.647525906562805
 1.7054512531248703E9, -333.18020725250244, -360.9452245235443, -181.66938024759293, -44.2804154753685
 1.7054512531248703E9, -395.65149611234665, -343.7117655277252, -168.98363959789276, -73.24220073223114
 1.7054512531398032E9, -320.9731737971306, -339.6427543759346, -161.56367808580399, 33.988210797309875
 1.7054512531398032E9, -316.42545545101166, -372.19484359025955, -182.3874410390854, -11.24961906671524
 1.7054512531404736E9, -405.46499359607697, -369.801307618618, -191.96158492565155, -95.74143886566162
 1.7054512531404736E9, -368.3651860356331, -354.7220309972763, -169.70170038938522, -5.505132734775543
 1.705451253153412E9, -300.38876444101334, -360.70587092638016, -179.99390506744385, 21.063116550445557
 1.705451253153412E9, -374.1096723675728, -370.2800148129463, -195.07318168878555, -81.38022303581238
 1.7054512531694264E9, -397.5663248896599, -353.0465558171272, -176.40360110998154, -44.041061878204346
 1.7054512531694264E9, -319.2976986169815, -367.8864788413048, -178.31842988729477, 40.69011151790619
 1.7054512531698337E9, -350.6530198454857, -373.15225797891617, -200.81766802072525, -53.1364985704422
 1.7054512531698337E9, -429.40035331249237, -374.1096723675728, -183.8235626220703, -81.38022303581238
 1.7054512531833453E9, -351.6104342341423, -369.3226004242897, -178.07907629013062, 22.259884536266327
 1.7054512531833453E9, -320.2551130056381, -374.5883795619011, -186.69580578804016, -5.505132734775543
 1.7054512531990974E9, -411.4488335251808, -364.5355284810066, -187.41386657953262, -95.50208526849747
 1.7054512531990974E9, -383.20510905981064, -361.6632853150368, -170.18040758371353, -10.531558275222778
 1.7054512531997898E9, -310.4416155219078, -367.40777164697647, -178.79713708162308, 31.35532122850418
 1.7054512531997898E9, -386.31670582294464, -378.1786835193634, -193.15835291147232, -82.8163446187973
 1.7054512532135053E9, -405.7043471932411, -356.8762133717537, -167.30816441774368, -38.29657554626465
 1.7054512532135053E9, -309.0054939389229, -350.1743126511574, -169.94105398654938, 44.75912266969681
 1.7054512532291026E9, -349.21689826250076, -367.6471252441406, -187.65322017669678, -47.3920122385025
 1.7054512532291026E9, -423.17715978622437, -365.2535892724991, -176.16424751281738, -78.74733346700668
 1.7054512532297971E9, -347.30206948518753, -361.6632853150368, -163.23915326595306, 32.07338201999664
 1.7054512532297971E9, -315.94674825668335, -366.689710855484, -184.54162341356277, -5.983839929103851
 1.7054512532434165E9, -405.46499359607697, -361.6632853150368, -188.6106345653534, -93.10854929685593
 1.7054512532434165E9, -374.82773315906525, -352.5678486227989, -167.54751801490784, -4.069011151790619
 1.7054512532592924E9, -310.68096911907196, -372.912904381752, -180.95131945610046, 27.286310076713562
 1.7054512532592924E9, -381.2902802824974, -372.19484359025955, -189.0893417596817, -74.91767591238022
 1.705451253259858E9, -427.246170938015, -375.5457939505577, -174.9674795269966, -46.913305044174194
 1.705451253259858E9, -335.81309682130814, -374.5883795619011, -173.05265074968338, 40.92946511507034
 1.705451253273398E9, -365.2535892724991, -385.11993783712387, -204.1686183810234, -52.41843777894974
 1.705451253273398E9, -430.8364748954773, -364.29617488384247, -187.17451298236847, -83.53440541028976
 1.7054512532891119E9, -354.48267740011215, -367.40777164697647, -169.22299319505692, 21.78117734193802
 1.7054512532891119E9, -331.02602487802505, -383.4444626569748, -192.91899931430817, -18.190873384475708
 1.7054512532897873E9, -418.3900878429413, -375.0670867562294, -184.54162341356277, -93.10854929685593
 1.7054512532897873E9, -382.00834107398987, -358.3123349547386, -158.45208132266998, 4.308364748954773
 1.7054512533034027E9, -312.35644429922104, -370.9980756044388, -181.66938024759293, 26.5682492852211
 1.7054512533034027E9, -384.16252344846725, -371.71613639593124, -190.52546334266663, -76.35379749536514
 1.705451253319508E9, -404.02887201309204, -348.02013027668, -171.3771755695343, -43.32300108671188
 1.705451253319508E9, -318.8189914226532, -356.15815258026123, -172.33458995819092, 42.844293892383575
 1.705451253334368E9, -363.0994068980217, -385.5986450314522, -183.344855427742, -45.237829864025116
 1.705451253334368E9, -434.4267788529396, -376.26385474205017, -171.8558827638626, -77.78991907835007
 1.70545125333484E9, -354.48267740011215, -362.1419925093651, -163.47850686311722, 31.35532122850418
 1.70545125333484E9, -330.06861048936844, -373.6309651732445, -188.6106345653534, -8.616729497909546
 1.7054512533491228E9, -410.4914191365242, -363.0994068980217, -183.344855427742, -87.84277015924454
 1.7054512533491228E9, -379.6148051023483, -354.48267740011215, -163.23915326595306, -1.9148287773132324
 1.7054512533498588E9, -309.0054939389229, -366.45035725831985, -175.68554031848907, 29.919199645519257
 1.7054512533498588E9, -388.2315346002579, -376.5032083392143, -186.69580578804016, -78.98668706417084
 1.705451253363444E9, -414.5604302883148, -363.81746768951416, -181.19067305326462, -50.98231619596481
 1.705451253363444E9, -336.77051120996475, -380.57221949100494, -175.44618672132492, 39.49334353208542
 1.705451253379196E9, -362.38134610652924, -389.42830258607864, -194.59447449445724, -49.78554821014404
 1.705451253379196E9, -431.7938892841339, -372.67355078458786, -184.78097701072693, -92.62984210252762
 1.7054512533800771E9, -359.5091029405594, -370.2800148129463, -172.33458995819092, 19.866348564624786
 1.7054512533800771E9, -334.13762164115906, -387.5134738087654, -195.79124248027802, -16.754751801490784
 1.7054512533933983E9, -426.0494029521942, -384.16252344846725, -190.28610974550247, -103.1614003777504
 1.7054512533933983E9, -385.5986450314522, -355.9187989830971, -167.786871612072, -8.8560830950737
 1.7054512534086177E9, -319.05834501981735, -379.8541586995125, -182.3874410390854, 26.08954209089279
 1.7054512534086177E9, -389.1889489889145, -376.26385474205017, -191.00417053699493, -79.46539425849915
 1.7054512534240754E9, -342.2756439447403, -387.27412021160126, -191.7222313284874, 25.850188493728638
 1.7054512534240754E9, -371.9554899930954, -395.8908497095108, -202.01443600654602, -55.53003454208374
 1.7054512534247863E9, -439.93191158771515, -374.5883795619011, -171.61652916669846, -87.84277015924454
 1.7054512534247863E9, -361.6632853150368, -367.1684180498123, -168.02622520923615, 29.919199645519257
 1.7054512534548476E9, -335.573743224144, -385.83799862861633, -183.58420902490616, -4.069011151790619
 1.7054512534548476E9, -422.9378061890602, -380.09351229667664, -192.44029211997986, -96.93820685148239
 1.7054512534554744E9, -390.6250705718994, -360.22716373205185, -172.09523636102676, -16.994105398654938
 1.7054512534554744E9, -302.30359321832657, -366.92906445264816, -182.8661482334137, 23.456652522087097
 1.7054512534563987E9, -380.57221949100494, -371.9554899930954, -193.15835291147232, -83.77375900745392
 1.7054512534563987E9, -416.7146126627922, -366.45035725831985, -178.79713708162308, -53.61520576477051
 1.7054512534683983E9, -318.3402842283249, -360.22716373205185, -174.01006513834, 33.988210797309875
 1.7054512534683983E9, -333.65891444683075, -368.12583243846893, -180.95131945610046, -38.5359291434288
 1.705451253483809E9, -408.09788316488266, -345.8659479022026, -172.81329715251923, -77.55056548118591
 1.705451253483809E9, -329.58990329504013, -346.58400869369507, -155.34048455953598, 35.90303957462311
 1.7054512534994931E9, -308.04807955026627, -364.7748820781708, -179.99390506744385, -4.787071943283081
 1.7054512534994931E9, -400.6779216527939, -360.9452245235443, -180.7119658589363, -84.01311260461807
 1.705451253499819E9, -375.30644035339355, -354.00397020578384, -160.36691009998322, -2.3935359716415405
 1.705451253499819E9, -305.8938971757889, -369.08324682712555, -175.20683312416077, 31.594674825668335
 1.705451253514127E9, -380.3328658938408, -366.92906445264816, -188.37128096818924, -77.31121188402176
 1.705451253514127E9, -414.0817230939865, -358.07298135757446, -173.77071154117584, -46.913305044174194
 1.7054512535148091E9, -327.43572092056274, -373.3916115760803, -176.6429547071457, 40.450757920742035
 1.7054512535148091E9, -348.73819106817245, -381.05092668533325, -185.02033060789108, -35.4243323802948
 1.705451253528411E9, -428.6822925209999, -374.5883795619011, -178.55778348445892, -78.74733346700668
 1.705451253528411E9, -350.89237344264984, -362.6206997036934, -164.675274848938, 27.76501727104187
 1.7054512535442588E9, -312.83515149354935, -363.81746768951416, -180.7119658589363, -2.6328895688056946
 1.7054512535442588E9, -403.7895184159279, -367.40777164697647, -176.88230830430984, -87.36406296491623
 1.7054512535448012E9, -375.5457939505577, -351.84978783130646, -155.57983815670013, 8.138022303581238
 1.7054512535448012E9, -301.82488602399826, -358.3123349547386, -168.98363959789276, 39.73269712924957
 1.7054512535585425E9, -382.00834107398987, -373.6309651732445, -181.43002665042877, -68.69448238611221
 1.7054512535585425E9, -410.9701263308525, -357.11556696891785, -162.9997996687889, -41.1688187122345
 1.7054512535741231E9, -321.4518809914589, -359.0303957462311, -170.898468375206, 43.32300108671188
 1.7054512535741231E9, -349.4562518596649, -375.30644035339355, -185.73839139938354, -40.69011151790619
 1.705451253574867E9, -424.85263496637344, -363.33876049518585, -171.61652916669846, -78.98668706417084
 1.705451253574867E9, -352.32849502563477, -361.6632853150368, -156.05854535102844, 31.83402842283249
 1.705451253604782E9, -317.8615770339966, -368.3651860356331, -173.05265074968338, -0.23935359716415405
 1.705451253604782E9, -415.7571982741356, -369.56195402145386, -182.14808744192123, -93.58725649118423
 1.705451253605558E9, -380.8115730881691, -358.7910421490669, -159.64884930849075, 0.7180607914924622
 1.705451253605558E9, -308.7661403417587, -373.87031877040863, -182.3874410390854, 25.610834896564484
 1.7054512536062632E9, -384.4018770456314, -377.93932992219925, -185.4990378022194, -77.31121188402176
 1.7054512536062632E9, -402.83210402727127, -358.3123349547386, -159.64884930849075, -40.92946511507034
 1.7054512536184044E9, -313.5532122850418, -358.07298135757446, -168.50493240356445, 38.77528274059296
 1.7054512536184044E9, -344.4298263192177, -376.7425619363785, -185.25968420505524, -45.716537058353424
 1.7054512536340828E9, -428.44293892383575, -371.9554899930954, -177.121661901474, -83.77375900745392
 1.7054512536340828E9, -345.3872407078743, -357.11556696891785, -170.41976118087769, 27.76501727104187
 1.7054512536348157E9, -323.6060633659363, -380.09351229667664, -187.41386657953262, -6.7019007205963135
 1.7054512536348157E9, -421.5016846060753, -379.3754515051842, -181.43002665042877, -85.9279413819313
 1.7054512536486824E9, -384.64123064279556, -355.2007381916046, -156.2978989481926, 5.265779137611389
 1.7054512536486824E9, -303.50036120414734, -365.97165006399155, -174.01006513834, 31.83402842283249
 1.7054512536651523E9, -376.26385474205017, -371.9554899930954, -182.62679463624954, -62.231935262680054
 1.7054512536651523E9, -412.88495510816574, -357.354920566082, -168.98363959789276, -38.5359291434288
 1.7054512536657844E9, -316.6648090481758, -364.7748820781708, -164.19656765460968, 48.110073029994965
 1.7054512536657844E9, -337.9672791957855, -367.1684180498123, -177.121661901474, -30.63726043701172
 1.70545125367844E9, -430.8364748954773, -366.92906445264816, -166.82945722341537, -67.97642159461975
 1.70545125367844E9, -353.7646166086197, -360.70587092638016, -156.2978989481926, 41.647525906562805
 1.7054512536941087E9, -320.4944666028023, -368.60453963279724, -179.27584427595139, 0.7180607914924622
 1.7054512536941087E9, -413.1243087053299, -367.40777164697647, -174.01006513834, -83.05569821596146
 1.7054512536948051E9, -386.0773522257805, -366.92906445264816, -161.56367808580399, 4.547718346118927
 1.7054512536948051E9, -303.7397148013115, -363.81746768951416, -167.30816441774368, 41.40817230939865
 1.7054512537087424E9, -373.15225797891617, -373.3916115760803, -177.83972269296646, -66.77965360879898
 1.7054512537087424E9, -407.8585295677185, -359.5091029405594, -159.17014211416245, -30.397906839847565
 1.7054512537240915E9, -311.6383835077286, -353.52526301145554, -160.36691009998322, 52.65779137611389
 1.7054512537240915E9, -352.5678486227989, -379.6148051023483, -181.19067305326462, -39.253989934921265
 1.7054512537247975E9, -425.0919885635376, -372.4341971874237, -179.27584427595139, -82.57699102163315
 1.7054512537247975E9, -345.8659479022026, -358.07298135757446, -158.21272772550583, 41.1688187122345
 1.705451253738495E9, -311.3990299105644, -364.5355284810066, -174.72812592983246, 9.095436692237854
 1.705451253738495E9, -407.14046877622604, -364.5355284810066, -177.6003690958023, -80.18345504999161
 1.7054512537543156E9, -372.912904381752, -345.14788711071014, -160.60626369714737, -4.308364748954773
 1.7054512537543156E9, -298.4739356637001, -360.466517329216, -164.675274848938, 39.97205072641373
 1.705451253754855E9, -369.56195402145386, -372.19484359025955, -177.121661901474, -68.69448238611221
 1.705451253754855E9, -410.73077273368835, -367.1684180498123, -167.06881082057953, -45.716537058353424
 1.705451253768725E9, -319.53705221414566, -361.9026389122009, -169.94105398654938, 44.99847626686096
 1.705451253768725E9, -333.65891444683075, -365.2535892724991, -179.03649067878723, -29.44049245119095
 1.7054512537841017E9, -433.469364464283, -374.82773315906525, -176.40360110998154, -82.8163446187973
 1.7054512537841017E9, -338.92469358444214, -345.62659430503845, -158.9307885169983, 37.578514754772186
 1.705451253784835E9, -306.3726043701172, -366.689710855484, -172.33458995819092, 8.138022303581238
 1.705451253784835E9, -404.50757920742035, -361.9026389122009, -170.65911477804184, -77.0718582868576
 1.7054512537987103E9, -360.466517329216, -339.1640471816063, -150.31405901908875, 7.898668706417084
 1.7054512537987103E9, -303.2610076069832, -363.81746768951416, -158.45208132266998, 41.647525906562805
 1.7054512538141143E9, -367.1684180498123, -369.56195402145386, -173.5313579440117, -62.71064245700836
 1.7054512538141143E9, -402.35339683294296, -347.30206948518753, -152.94694858789444, -39.01463633775711
 1.705451253814876E9, -303.50036120414734, -352.5678486227989, -152.70759499073029, 55.290680944919586
 1.705451253814876E9, -334.13762164115906, -371.9554899930954, -181.19067305326462, -35.90303957462311
 1.7054512538284707E9, -418.62944144010544, -366.92906445264816, -186.69580578804016, -92.39048850536346
 1.7054512538284707E9, -339.1640471816063, -356.15815258026123, -166.35075002908707, 29.679846048355103
 1.705451253844106E9, -316.1861018538475, -376.024501144886, -185.9777449965477, 0.23935359716415405
 1.705451253844106E9, -402.5927504301071, -372.19484359025955, -179.7545514702797, -90.71501332521439
 1.7054512538448248E9, -376.5032083392143, -351.6104342341423, -154.1437165737152, 2.3935359716415405
 1.7054512538448248E9, -298.23458206653595, -365.97165006399155, -174.9674795269966, 33.74885720014572
 1.70545125387518E9, -375.0670867562294, -370.7587220072746, -189.0893417596817, -72.28478634357452
 1.70545125387518E9, -397.3269712924957, -348.02013027668, -155.8191917538643, -33.50950360298157
 1.7054512538758836E9, -299.910057246685, -346.3446550965309, -146.24504786729813, 67.01900720596313
 1.7054512538758836E9, -317.1435162425041, -349.69560545682907, -164.675274848938, -11.967679858207703
 1.705451253889135E9, -391.1037777662277, -334.8556824326515, -149.11729103326797, -63.90741044282913
 1.705451253889135E9, -327.91442811489105, -337.72792559862137, -144.09086549282074, 46.434597849845886
 1.7054512538897743E9, -309.72355473041534, -364.5355284810066, -174.4887723326683, 11.728326261043549
 1.7054512538897743E9, -413.36366230249405, -372.67355078458786, -174.01006513834, -85.68858778476715
 1.7054512539041295E9, -389.42830258607864, -359.74845653772354, -163.23915326595306, -4.547718346118927
 1.7054512539041295E9, -294.4049245119095, -353.2859094142914, -165.6326892375946, 44.99847626686096
 1.7054512539048314E9, -364.5355284810066, -356.8762133717537, -164.19656765460968, -53.375852167606354
 1.7054512539048314E9, -405.2256399989128, -345.14788711071014, -153.90436297655106, -30.397906839847565
 1.7054512539183872E9, -318.10093063116074, -351.84978783130646, -156.2978989481926, 55.53003454208374
 1.7054512539183872E9, -341.3182295560837, -372.912904381752, -179.99390506744385, -28.96178525686264
 1.7054512539343324E9, -414.0817230939865, -361.6632853150368, -157.73402053117752, -64.38611763715744
 1.7054512539343324E9, -336.77051120996475, -352.8072022199631, -153.42565578222275, 41.88687950372696
 1.7054512539349196E9, -300.1494108438492, -352.0891414284706, -160.12755650281906, 23.935359716415405
 1.7054512539349196E9, -384.4018770456314, -350.89237344264984, -159.8882029056549, -64.86482483148575
 1.705451253948398E9, -359.5091029405594, -330.54731768369675, -140.02185434103012, 15.797337412834167
 1.705451253948398E9, -284.8307806253433, -339.1640471816063, -147.9205230474472, 62.231935262680054
 1.7054512539645276E9, -350.1743126511574, -343.9511191248894, -162.5210924744606, -47.15265864133835
 1.7054512539645276E9, -387.27412021160126, -336.0524504184723, -143.85151189565659, -28.004370868206024
 1.7054512539649558E9, -281.240476667881, -319.2976986169815, -132.12318563461304, 76.83250468969345
 1.7054512539649558E9, -312.1170907020569, -343.9511191248894, -162.9997996687889, -0.9574143886566162
 1.7054512539783857E9, -374.5883795619011, -316.6648090481758, -143.37280470132828, -42.12623310089111
 1.7054512539783857E9, -297.9952284693718, -305.8938971757889, -119.91615217924118, 74.43896871805191
 1.7054512540107453E9, -277.88952630758286, -331.7440856695175, -149.11729103326797, 37.09980756044388
 1.7054512540107453E9, -367.1684180498123, -330.06861048936844, -151.98953419923782, -53.1364985704422
 1.7054512540112553E9, -359.5091029405594, -330.7866712808609, -138.5857327580452, 22.97794532775879
 1.7054512540112553E9, -285.0701342225075, -343.7117655277252, -147.9205230474472, 61.51387447118759
 1.705451254012024E9, -359.74845653772354, -356.15815258026123, -172.09523636102676, -60.556460082530975
 1.705451254012024E9, -408.57659035921097, -351.131727039814, -152.46824139356613, -35.663685977458954
 1.7054512540128684E9, -316.42545545101166, -351.6104342341423, -158.9307885169983, 54.33326655626297
 1.7054512540128684E9, -335.0950360298157, -360.70587092638016, -171.61652916669846, -20.10570216178894
 1.705451254023614E9, -424.37392777204514, -370.04066121578217, -174.01006513834, -77.55056548118591
 1.705451254023614E9, -350.89237344264984, -354.00397020578384, -150.79276621341705, 34.466917991638184
 1.7054512540385463E9, -313.0745050907135, -369.08324682712555, -174.9674795269966, 6.223193526268005
 1.7054512540385463E9, -410.9701263308525, -369.801307618618, -173.05265074968338, -81.38022303581238
 1.7054512540540767E9, -392.53989934921265, -363.33876049518585, -161.56367808580399, -5.744486331939697
 1.7054512540540767E9, -315.94674825668335, -373.3916115760803, -175.68554031848907, 36.860453963279724
 1.7054512540548458E9, -374.34902596473694, -365.7322964668274, -187.65322017669678, -68.2157751917839
 1.7054512540548458E9, -415.0391374826431, -364.0568212866783, -168.02622520923615, -47.63136583566666
 1.7054512540683815E9, -328.6324889063835, -367.40777164697647, -167.54751801490784, 50.0249018073082
 1.7054512540683815E9, -351.84978783130646, -384.64123064279556, -189.0893417596817, -35.184978783130646
 1.7054512540840676E9, -427.7248781323433, -375.0670867562294, -181.43002665042877, -85.449234187603
 1.7054512540840676E9, -359.0303957462311, -365.49294286966324, -168.02622520923615, 24.414066910743713
 1.7054512540847695E9, -333.65891444683075, -386.0773522257805, -185.9777449965477, -1.4361215829849243
 1.7054512540847695E9, -421.9803918004036, -387.75282740592957, -202.49314320087433, -98.37432843446732
 1.7054512540987163E9, -395.17278891801834, -368.12583243846893, -173.05265074968338, -19.626994967460632
 1.7054512540987163E9, -336.5311576128006, -395.4121425151825, -191.7222313284874, 18.669580578804016
 1.7054512541144931E9, -404.02887201309204, -401.6353360414505, -200.5783144235611, -85.9279413819313
 1.7054512541144931E9, -437.29902201890945, -385.11993783712387, -178.31842988729477, -57.20550972223282
 1.7054512541307209E9, -335.573743224144, -379.3754515051842, -181.19067305326462, 30.63726043701172
 1.7054512541307209E9, -349.21689826250076, -382.4870482683182, -189.56804895401, -42.36558669805527
 1.705451254131287E9, -438.0170828104019, -382.247694671154, -190.76481693983078, -94.54467087984085
 1.705451254131287E9, -374.1096723675728, -378.89674431085587, -174.9674795269966, 23.935359716415405
 1.7054512541319244E9, -333.18020725250244, -387.75282740592957, -191.96158492565155, -3.3509503602981567
 1.7054512541319244E9, -421.9803918004036, -384.8805842399597, -187.89257377386093, -89.27889174222946
 1.7054512541592476E9, -397.80567848682404, -371.4767827987671, -168.2655788064003, -10.292204678058624
 1.7054512541592476E9, -318.8189914226532, -375.0670867562294, -181.19067305326462, 28.004370868206024
 1.7054512541597934E9, -382.72640186548233, -381.52963387966156, -192.91899931430817, -77.0718582868576
 1.7054512541597934E9, -427.246170938015, -372.4341971874237, -175.68554031848907, -49.06748741865158
 1.7054512541905355E9, -342.7543511390686, -379.8541586995125, -177.121661901474, 33.988210797309875
 1.7054512541905355E9, -356.8762133717537, -389.1889489889145, -199.38154643774033, -40.21140432357788
 1.705451254191358E9, -440.88932597637177, -387.0347666144371, -192.91899931430817, -96.45949965715408
 1.705451254191358E9, -374.34902596473694, -387.0347666144371, -179.51519787311554, 12.685740649700165
 1.7054512541920547E9, -341.796936750412, -403.3108112215996, -204.40797197818756, -12.925094246864319
 1.7054512541920547E9, -429.1609997153282, -392.7792529463768, -213.0247014760971, -112.4961906671524
 1.7054512541928587E9, -412.40624791383743, -382.72640186548233, -183.10550183057785, -25.610834896564484
 1.7054512541928587E9, -332.70150005817413, -389.6676561832428, -184.78097701072693, 31.35532122850418
 1.705451254203369E9, -401.39598244428635, -401.39598244428635, -200.0996072292328, -81.61957663297653
 1.705451254203369E9, -442.804154753685, -387.0347666144371, -182.3874410390854, -67.97642159461975
 1.7054512542185E9, -342.51499754190445, -382.247694671154, -177.83972269296646, 30.876614034175873
 1.7054512542185E9, -362.38134610652924, -398.28438568115234, -202.25378960371017, -53.375852167606354
 1.7054512542341335E9, -449.5060554742813, -395.65149611234665, -187.41386657953262, -101.48592519760132
 1.7054512542341335E9, -374.1096723675728, -381.7689874768257, -172.09523636102676, 18.190873384475708
 1.7054512542348187E9, -323.3667097687721, -383.68381625413895, -192.2009385228157, -10.770911872386932
 1.7054512542348187E9, -426.0494029521942, -395.4121425151825, -193.87641370296478, -106.03364354372025
 1.7054512542485068E9, -395.8908497095108, -367.6471252441406, -170.18040758371353, -23.69600611925125
 1.7054512542485068E9, -314.5106266736984, -380.57221949100494, -179.03649067878723, 24.414066910743713
 1.7054512542641485E9, -393.49731373786926, -397.5663248896599, -201.5357288122177, -88.80018454790115
 1.7054512542641485E9, -431.55453568696976, -376.024501144886, -165.6326892375946, -57.44486331939697
 1.7054512542648156E9, -342.7543511390686, -383.4444626569748, -170.41976118087769, 28.483078062534332
 1.7054512542648156E9, -362.1419925093651, -401.1566288471222, -200.5783144235611, -56.00874173641205
 1.7054512542784495E9, -437.0596684217453, -385.5986450314522, -192.44029211997986, -100.28915721178055
 1.7054512542784495E9, -373.6309651732445, -378.89674431085587, -185.9777449965477, -0.23935359716415405
 1.7054512542944286E9, -334.3769752383232, -390.1463633775711, -190.28610974550247, -14.839923024177551
 1.7054512542944286E9, -431.07582849264145, -397.5663248896599, -199.62090003490448, -105.79428994655609
 1.7054512542951102E9, -409.0552975535393, -380.09351229667664, -172.33458995819092, -22.020530939102173
 1.7054512542951102E9, -321.21252739429474, -382.72640186548233, -186.21709859371185, 24.17471331357956
 1.7054512543084018E9, -370.7587220072746, -377.46062272787094, -181.43002665042877, -70.13060396909714
 1.7054512543084018E9, -419.10814863443375, -367.40777164697647, -169.70170038938522, -56.487448930740356
 1.7054512543241208E9, -328.6324889063835, -368.3651860356331, -173.29200434684753, 30.15855324268341
 1.7054512543241208E9, -343.2330583333969, -376.5032083392143, -188.84998816251755, -38.057221949100494
 1.7054512543248353E9, -435.86290043592453, -381.2902802824974, -186.69580578804016, -100.0498036146164
 1.7054512543248353E9, -360.22716373205185, -366.92906445264816, -165.87204283475876, 15.557983815670013
 1.7054512543384752E9, -322.8880025744438, -384.4018770456314, -185.9777449965477, -5.505132734775543
 1.7054512543384752E9, -403.55016481876373, -374.82773315906525, -190.04675614833832, -94.784024477005
 1.7054512543541646E9, -390.38571697473526, -362.86005330085754, -169.46234679222107, -15.31863021850586
 1.7054512543541646E9, -322.64864897727966, -379.3754515051842, -176.88230830430984, 29.44049245119095
 1.7054512543548622E9, -391.58248496055603, -397.5663248896599, -194.8338280916214, -81.14086943864822
 1.7054512543548622E9, -432.7513036727905, -381.2902802824974, -179.03649067878723, -64.14676403999329
 1.7054512543684201E9, -342.51499754190445, -382.72640186548233, -180.95131945610046, 26.328895688056946
 1.7054512543684201E9, -355.2007381916046, -392.7792529463768, -194.59447449445724, -47.63136583566666
 1.705451254384496E9, -432.7513036727905, -378.6573907136917, -181.66938024759293, -95.26273167133331
 1.705451254384496E9, -366.92906445264816, -373.6309651732445, -178.79713708162308, 1.9148287773132324
 1.7054512543996732E9, -339.88210797309875, -400.91727524995804, -201.29637521505356, -19.148287773132324
 1.7054512543996732E9, -431.07582849264145, -400.1992144584656, -200.5783144235611, -107.23041152954102
 1.7054512543999605E9, -403.0714576244354, -375.78514754772186, -174.01006513834, -16.754751801490784
 1.7054512543999605E9, -311.3990299105644, -370.2800148129463, -179.27584427595139, 31.594674825668335
 1.705451254413477E9, -375.30644035339355, -376.7425619363785, -191.00417053699493, -81.85893023014069
 1.705451254413477E9, -417.43267345428467, -366.689710855484, -169.22299319505692, -57.20550972223282
 1.7054512544301891E9, -343.47241193056107, -381.7689874768257, -189.56804895401, -38.77528274059296
 1.7054512544301891E9, -430.59712129831314, -379.3754515051842, -178.55778348445892, -95.02337807416916
 1.7054512544306371E9, -357.8336277604103, -362.86005330085754, -165.6326892375946, 13.403801441192627
 1.7054512544306371E9, -318.3402842283249, -373.3916115760803, -181.66938024759293, -1.9148287773132324
 1.7054512544434407E9, -412.40624791383743, -374.34902596473694, -191.96158492565155, -91.672427713871
 1.7054512544434407E9, -397.3269712924957, -373.15225797891617, -168.2655788064003, -19.866348564624786
 1.7054512544592943E9, -319.2976986169815, -382.00834107398987, -175.68554031848907, 28.243724465370178
 1.7054512544592943E9, -372.912904381752, -388.2315346002579, -190.28610974550247, -75.63573670387268
 1.705451254459839E9, -423.4165133833885, -373.15225797891617, -178.79713708162308, -59.83839929103851
 1.705451254459839E9, -337.72792559862137, -369.3226004242897, -173.29200434684753, 33.27015000581741
 1.7054512544734204E9, -359.9878101348877, -393.2579601407051, -205.60473996400833, -52.17908418178558
 1.7054512544734204E9, -440.6499723792076, -384.4018770456314, -191.48287773132324, -104.11881476640701
 1.7054512544892848E9, -376.024501144886, -375.0670867562294, -175.44618672132492, 11.010265469551086
 1.7054512544892848E9, -327.91442811489105, -386.79541301727295, -189.32869535684586, -3.3509503602981567
 1.7054512544898033E9, -414.32107669115067, -380.09351229667664, -194.3551208972931, -97.65626764297485
 1.7054512544898033E9, -405.9437007904053, -377.2212691307068, -171.3771755695343, -17.951519787311554
 1.7054512545037012E9, -324.5634777545929, -384.16252344846725, -181.66938024759293, 29.679846048355103
 1.7054512545037012E9, -383.20510905981064, -386.79541301727295, -193.39770650863647, -75.63573670387268
 1.7054512545191755E9, -425.0919885635376, -370.7587220072746, -182.3874410390854, -63.18934965133667
 1.7054512545191755E9, -347.0627158880234, -386.79541301727295, -174.24941873550415, 32.07338201999664
 1.705451254519833E9, -358.07298135757446, -392.53989934921265, -202.01443600654602, -47.3920122385025
 1.705451254519833E9, -444.00092273950577, -383.20510905981064, -188.84998816251755, -94.06596368551254
 1.705451254533422E9, -372.4341971874237, -372.4341971874237, -174.72812592983246, 11.488972663879395
 1.705451254533422E9, -332.2227928638458, -387.75282740592957, -197.70607125759125, -9.574143886566162
 1.7054512545655403E9, -423.8952205777168, -394.2153745293617, -199.14219284057617, -102.68269318342209
 1.7054512545655403E9, -415.0391374826431, -393.7366673350334, -177.83972269296646, -26.328895688056946
 1.7054512545662515E9, -322.8880025744438, -383.68381625413895, -181.19067305326462, 28.243724465370178
 1.7054512545662515E9, -387.0347666144371, -387.5134738087654, -194.11576730012894, -77.31121188402176
 1.7054512545669737E9, -422.4590989947319, -367.1684180498123, -170.41976118087769, -60.79581367969513
 1.7054512545669737E9, -329.8292568922043, -366.2110036611557, -169.94105398654938, 32.791442811489105
 1.705451254567727E9, -348.73819106817245, -387.75282740592957, -185.9777449965477, -43.32300108671188
 1.705451254567727E9, -435.86290043592453, -382.00834107398987, -184.78097701072693, -98.61368203163147
 1.705451254578446E9, -363.81746768951416, -362.1419925093651, -168.2655788064003, 15.797337412834167
 1.705451254578446E9, -330.54731768369675, -386.5560594201088, -192.91899931430817, -4.069011151790619
 1.7054512545938325E9, -412.1668943166733, -381.52963387966156, -193.15835291147232, -100.0498036146164
 1.7054512545938325E9, -400.1992144584656, -373.3916115760803, -178.31842988729477, -27.286310076713562
 1.7054512546093535E9, -319.53705221414566, -376.5032083392143, -180.7119658589363, 24.653420507907867
 1.7054512546093535E9, -381.2902802824974, -386.79541301727295, -194.8338280916214, -77.0718582868576
 1.705451254609912E9, -428.44293892383575, -378.6573907136917, -193.39770650863647, -71.32737195491791
 1.705451254609912E9, -342.2756439447403, -376.7425619363785, -180.95131945610046, 26.807602882385254
 1.7054512546233852E9, -359.5091029405594, -396.60891050100327, -202.49314320087433, -52.897144973278046
 1.7054512546233852E9, -444.2402763366699, -388.94959539175034, -200.33896082639694, -106.03364354372025
 1.7054512546392417E9, -376.5032083392143, -383.9231698513031, -174.24941873550415, 10.05285108089447
 1.7054512546392417E9, -337.24921840429306, -396.8482640981674, -192.679645717144, -8.8560830950737
 1.705451254639818E9, -419.8262094259262, -391.8218385577202, -199.38154643774033, -106.75170433521271
 1.705451254639818E9, -397.5663248896599, -378.41803711652756, -178.07907629013062, -28.722431659698486
 1.7054512546534882E9, -324.5634777545929, -383.20510905981064, -192.44029211997986, 20.10570216178894
 1.7054512546534882E9, -392.7792529463768, -403.3108112215996, -206.3228007555008, -83.77375900745392
 1.7054512546693192E9, -435.6235468387604, -380.57221949100494, -191.48287773132324, -71.08801835775375
 1.7054512546693192E9, -332.46214646101, -373.6309651732445, -176.6429547071457, 34.466917991638184
 1.7054512546698165E9, -345.14788711071014, -386.0773522257805, -198.66348564624786, -40.92946511507034
 1.7054512546698165E9, -432.5119500756264, -383.20510905981064, -189.32869535684586, -94.3053172826767
 1.7054512546833854E9, -360.22716373205185, -359.9878101348877, -174.4887723326683, 13.643155038356781
 1.7054512546833854E9, -322.64864897727966, -384.16252344846725, -194.11576730012894, -4.787071943283081
 1.705451254715599E9, -423.8952205777168, -398.5237392783165, -202.97185039520264, -104.83687555789948
 1.705451254715599E9, -406.1830543875694, -376.024501144886, -179.51519787311554, -23.69600611925125
 1.705451254716144E9, -315.94674825668335, -376.7425619363785, -190.28610974550247, 23.217298924922943
 1.705451254716144E9, -376.98191553354263, -388.470888197422, -193.63706010580063, -72.28478634357452
 1.7054512547168884E9, -431.7938892841339, -380.57221949100494, -184.30226981639862, -65.34353202581406
 1.7054512547168884E9, -332.2227928638458, -367.8864788413048, -174.4887723326683, 34.466917991638184
 1.7054512547176964E9, -349.21689826250076, -388.2315346002579, -201.29637521505356, -40.69011151790619
 1.7054512547176964E9, -437.29902201890945, -385.11993783712387, -192.44029211997986, -93.34790289402008
 1.7054512547288778E9, -365.7322964668274, -363.57811409235, -175.44618672132492, 12.925094246864319
 1.7054512547288778E9, -333.4195608496666, -397.0876176953316, -197.4667176604271, -6.223193526268005
 1.7054512547435036E9, -420.54427021741867, -391.3431313633919, -188.6106345653534, -92.39048850536346
 1.7054512547435036E9, -410.25206553936005, -381.7689874768257, -179.99390506744385, -24.653420507907867
 1.7054512547592509E9, -325.9995993375778, -385.5986450314522, -189.32869535684586, 14.839923024177551
 1.7054512547592509E9, -383.68381625413895, -382.9657554626465, -203.92926478385925, -76.5931510925293
 1.7054512547598479E9, -433.9480716586113, -374.82773315906525, -185.9777449965477, -61.9925816655159
 1.7054512547598479E9, -348.73819106817245, -383.9231698513031, -181.90873384475708, 28.483078062534332
 1.705451254773965E9, -355.2007381916046, -393.97602093219757, -200.33896082639694, -40.450757920742035
 1.705451254773965E9, -441.8467403650284, -385.5986450314522, -184.30226981639862, -92.15113490819931
 1.7054512547891035E9, -376.024501144886, -376.024501144886, -179.27584427595139, 13.882508635520935
 1.7054512547891035E9, -325.76024574041367, -380.57221949100494, -191.48287773132324, 2.6328895688056946
 1.705451254789827E9, -414.32107669115067, -376.5032083392143, -197.22736406326294, -95.26273167133331
 1.705451254789827E9, -403.0714576244354, -369.3226004242897, -180.47261226177216, -23.69600611925125
 1.7054512548034232E9, -335.0950360298157, -390.38571697473526, -186.21709859371185, 21.30247014760971
 1.7054512548034232E9, -389.6676561832428, -397.80567848682404, -199.38154643774033, -76.11444389820099
 1.7054512548195188E9, -427.246170938015, -372.19484359025955, -179.99390506744385, -66.06159281730652
 1.7054512548195188E9, -339.6427543759346, -376.7425619363785, -179.27584427595139, 32.07338201999664
 1.7054512548199341E9, -347.5414230823517, -382.4870482683182, -205.60473996400833, -41.40817230939865
 1.7054512548199341E9, -428.2035853266716, -369.56195402145386, -194.59447449445724, -96.22014605998993
 1.7054512548334012E9, -376.98191553354263, -372.4341971874237, -176.40360110998154, 13.882508635520935
 1.7054512548334012E9, -331.02602487802505, -384.16252344846725, -188.84998816251755, 2.8722431659698486
 1.7054512548491087E9, -404.98628640174866, -375.0670867562294, -187.65322017669678, -89.75759893655777
 1.7054512548491087E9, -399.0024464726448, -365.01423567533493, -164.19656765460968, -14.839923024177551
 1.705451254849816E9, -308.7661403417587, -367.6471252441406, -176.88230830430984, 39.49334353208542
 1.705451254849816E9, -364.5355284810066, -369.08324682712555, -196.50930327177048, -70.36995756626129
 1.7054512548636258E9, -419.8262094259262, -363.81746768951416, -176.6429547071457, -61.753228068351746
 1.7054512548636258E9, -342.51499754190445, -373.6309651732445, -174.72812592983246, 42.12623310089111
 1.705451254879802E9, -340.36081516742706, -378.6573907136917, -195.07318168878555, -30.397906839847565
 1.705451254879802E9, -427.00681734085083, -375.0670867562294, -181.43002665042877, -84.25246620178223
 1.7054512548804846E9, -345.62659430503845, -353.7646166086197, -164.675274848938, 26.08954209089279
 1.7054512548804846E9, -310.9203227162361, -373.87031877040863, -174.4887723326683, 18.669580578804016
 1.705451254893623E9, -404.2682256102562, -379.13609790802, -182.62679463624954, -79.94410145282745
 1.705451254893623E9, -393.2579601407051, -359.26974934339523, -173.05265074968338, -16.994105398654938
 1.7054512549093132E9, -320.2551130056381, -376.024501144886, -190.52546334266663, 27.525663673877716
 1.7054512549093132E9, -380.3328658938408, -384.16252344846725, -202.73249679803848, -62.71064245700836
 1.705451254910044E9, -427.7248781323433, -374.5883795619011, -176.40360110998154, -64.38611763715744
 1.705451254910044E9, -345.8659479022026, -388.7102417945862, -176.6429547071457, 34.466917991638184
 1.705451254923411E9, -348.25948387384415, -387.5134738087654, -191.00417053699493, -32.07338201999664
 1.705451254923411E9, -426.0494029521942, -375.78514754772186, -181.90873384475708, -86.88535577058792
 1.7054512549392917E9, -365.01423567533493, -367.8864788413048, -168.50493240356445, 17.951519787311554
 1.7054512549392917E9, -313.0745050907135, -368.12583243846893, -180.95131945610046, 10.292204678058624
 1.7054512549398735E9, -416.47525906562805, -384.16252344846725, -196.26994967460632, -99.09238922595978
 1.7054512549398735E9, -394.69408172369003, -364.0568212866783, -173.5313579440117, -22.259884536266327
 1.7054512549538376E9, -300.38876444101334, -357.11556696891785, -173.29200434684753, 40.69011151790619
 1.7054512549538376E9, -365.49294286966324, -375.78514754772186, -182.14808744192123, -56.2480953335762
 1.7054512549690711E9, -403.0714576244354, -352.5678486227989, -171.8558827638626, -54.093912959098816
 1.7054512549690711E9, -330.54731768369675, -365.49294286966324, -170.65911477804184, 39.01463633775711
 1.705451254969805E9, -332.70150005817413, -371.9554899930954, -192.2009385228157, -31.35532122850418
 1.705451254969805E9, -417.1933198571205, -363.0994068980217, -174.01006513834, -83.53440541028976
 1.7054512549834936E9, -357.8336277604103, -354.243323802948, -158.69143491983414, 29.919199645519257
 1.7054512549834936E9, -314.5106266736984, -378.1786835193634, -181.43002665042877, 15.557983815670013
 1.7054512549994776E9, -411.20947992801666, -389.1889489889145, -190.52546334266663, -91.1937205195427
 1.7054512549994776E9, -397.5663248896599, -362.38134610652924, -173.5313579440117, -20.823762953281403
 1.7054512549998622E9, -310.4416155219078, -368.60453963279724, -185.02033060789108, 33.03079640865326
 1.7054512549998622E9, -371.9554899930954, -381.05092668533325, -205.60473996400833, -76.11444389820099
 1.7054512550135226E9, -419.58685582876205, -362.38134610652924, -177.6003690958023, -59.59904569387436
 1.7054512550135226E9, -333.8982680439949, -365.2535892724991, -175.20683312416077, 33.988210797309875
 1.7054512550293853E9, -351.37108063697815, -387.5134738087654, -198.90283924341202, -33.27015000581741
 1.7054512550293853E9, -437.5383756160736, -386.79541301727295, -194.11576730012894, -100.28915721178055
 1.7054512550298724E9, -377.93932992219925, -376.5032083392143, -173.29200434684753, 11.728326261043549
 1.7054512550298724E9, -313.31385868787766, -373.6309651732445, -189.32869535684586, 6.223193526268005
 1.7054512550436587E9, -404.02887201309204, -378.1786835193634, -197.70607125759125, -95.98079246282578
 1.7054512550436587E9, -399.72050726413727, -372.912904381752, -171.61652916669846, -24.414066910743713
 1.7054512550590491E9, -316.6648090481758, -374.1096723675728, -177.121661901474, 34.70627158880234
 1.7054512550590491E9, -378.41803711652756, -388.2315346002579, -200.5783144235611, -71.56672555208206
 1.7054512550597737E9, -425.5706957578659, -371.71613639593124, -177.83972269296646, -67.7370679974556
 1.7054512550597737E9, -333.4195608496666, -369.801307618618, -179.27584427595139, 33.03079640865326
 1.7054512550737276E9, -337.24921840429306, -374.82773315906525, -194.3551208972931, -34.94562518596649
 1.7054512550737276E9, -428.6822925209999, -375.78514754772186, -181.19067305326462, -82.337637424469
 1.7054512550890775E9, -367.8864788413048, -363.0994068980217, -166.82945722341537, 19.866348564624786
 1.7054512550890775E9, -313.31385868787766, -370.04066121578217, -189.56804895401, 10.05285108089447
 1.7054512550897963E9, -421.74103820323944, -392.7792529463768, -192.91899931430817, -89.75759893655777
 1.7054512550897963E9, -408.09788316488266, -374.1096723675728, -168.50493240356445, -17.472812592983246
 1.7054512551190028E9, -318.3402842283249, -378.1786835193634, -186.69580578804016, 35.663685977458954
 1.7054512551190028E9, -361.18457812070847, -374.34902596473694, -189.56804895401, -59.83839929103851
 1.7054512551354587E9, -421.9803918004036, -366.92906445264816, -174.24941873550415, -58.40227770805359
 1.7054512551354587E9, -323.12735617160797, -361.9026389122009, -178.79713708162308, 35.184978783130646
 1.7054512551362324E9, -335.0950360298157, -377.93932992219925, -196.50930327177048, -32.791442811489105
 1.7054512551362324E9, -418.8687950372696, -366.2110036611557, -185.73839139938354, -92.86919569969177
 1.7054512551369617E9, -360.9452245235443, -363.33876049518585, -163.23915326595306, 17.472812592983246
 1.7054512551369617E9, -314.7499802708626, -384.8805842399597, -190.28610974550247, 2.8722431659698486
 1.7054512551377404E9, -397.5663248896599, -370.7587220072746, -194.59447449445724, -96.22014605998993
 1.7054512551377404E9, -397.0876176953316, -372.19484359025955, -172.33458995819092, -26.807602882385254
 1.705451255148711E9, -318.10093063116074, -379.6148051023483, -185.9777449965477, 32.3127356171608
 1.705451255148711E9, -375.30644035339355, -384.16252344846725, -193.87641370296478, -69.41254317760468
 1.7054512551633897E9, -433.469364464283, -386.0773522257805, -183.344855427742, -68.93383598327637
 1.7054512551633897E9, -324.80283135175705, -365.7322964668274, -164.675274848938, 44.519769072532654
 1.705451255179211E9, -328.39313530921936, -370.2800148129463, -192.679645717144, -26.08954209089279
 1.705451255179211E9, -430.59712129831314, -378.6573907136917, -191.7222313284874, -96.45949965715408
 1.7054512551798627E9, -372.67355078458786, -371.71613639593124, -173.77071154117584, 8.616729497909546
 1.7054512551798627E9, -315.46804106235504, -381.05092668533325, -190.28610974550247, 2.3935359716415405
 1.705451255193478E9, -400.91727524995804, -374.82773315906525, -189.32869535684586, -95.26273167133331
 1.705451255193478E9, -396.8482640981674, -362.38134610652924, -172.57394355535507, -14.121862232685089
 1.7054512552095575E9, -314.27127307653427, -371.9554899930954, -183.58420902490616, 40.21140432357788
 1.7054512552095575E9, -374.5883795619011, -387.5134738087654, -194.8338280916214, -64.6254712343216
 1.7054512552099383E9, -424.6132813692093, -373.6309651732445, -183.8235626220703, -68.69448238611221
 1.7054512552099383E9, -341.0788759589195, -379.3754515051842, -178.31842988729477, 32.55208921432495
 1.7054512552234285E9, -341.55758315324783, -385.83799862861633, -201.5357288122177, -36.62110036611557
 1.7054512552234285E9, -429.1609997153282, -378.6573907136917, -185.4990378022194, -91.672427713871
 1.7054512552390935E9, -381.7689874768257, -376.5032083392143, -175.68554031848907, 9.334790289402008
 1.7054512552390935E9, -335.0950360298157, -393.49731373786926, -193.39770650863647, 0.4787071943283081
 1.7054512552398016E9, -417.43267345428467, -392.53989934921265, -198.66348564624786, -98.61368203163147
 1.7054512552398016E9, -399.24180006980896, -365.2535892724991, -169.70170038938522, -24.653420507907867
 1.7054512552697923E9, -300.1494108438492, -358.55168855190277, -165.87204283475876, 45.47718346118927
 1.7054512552697923E9, -361.4239317178726, -372.67355078458786, -185.25968420505524, -57.68421691656113
 1.7054512552705E9, -416.47525906562805, -363.0994068980217, -167.786871612072, -53.61520576477051
 1.7054512552705E9, -324.32412415742874, -356.3975061774254, -159.4094957113266, 47.87071943283081
 1.7054512552712512E9, -325.28153854608536, -370.04066121578217, -180.95131945610046, -18.430226981639862
 1.7054512552712512E9, -410.0127119421959, -357.59427416324615, -171.13782197237015, -79.94410145282745
 1.7054512552834556E9, -352.0891414284706, -353.0465558171272, -155.34048455953598, 26.08954209089279
 1.7054512552834556E9, -307.3300187587738, -372.912904381752, -182.62679463624954, 14.839923024177551
 1.7054512552994916E9, -404.2682256102562, -382.247694671154, -198.4241320490837, -96.45949965715408
 1.7054512552994916E9, -415.2784910798073, -382.4870482683182, -176.6429547071457, -28.004370868206024
 1.7054512552999349E9, -319.2976986169815, -376.024501144886, -177.121661901474, 33.03079640865326
 1.7054512552999349E9, -380.09351229667664, -388.94959539175034, -197.4667176604271, -68.69448238611221
 1.7054512553134668E9, -424.85263496637344, -370.2800148129463, -179.27584427595139, -66.06159281730652
 1.7054512553134668E9, -319.05834501981735, -347.5414230823517, -168.02622520923615, 38.29657554626465
 1.7054512553296258E9, -343.2330583333969, -388.470888197422, -185.4990378022194, -25.37148129940033
 1.7054512553296258E9, -438.97449719905853, -387.5134738087654, -185.4990378022194, -93.34790289402008
 1.7054512553443527E9, -375.5457939505577, -369.56195402145386, -168.50493240356445, 19.38764137029648
 1.7054512553443527E9, -314.0319194793701, -367.6471252441406, -172.33458995819092, 19.38764137029648
 1.705451255344849E9, -393.97602093219757, -365.2535892724991, -175.20683312416077, -73.24220073223114
 1.705451255344849E9, -394.4547281265259, -355.44009178876877, -165.39333564043045, -11.967679858207703
 1.7054512553601582E9, -304.6971291899681, -360.70587092638016, -173.77071154117584, 38.057221949100494
 1.7054512553601582E9, -368.8438932299614, -380.3328658938408, -194.11576730012894, -70.36995756626129
 1.705451255360664E9, -427.246170938015, -376.024501144886, -174.01006513834, -69.41254317760468
 1.705451255360664E9, -328.39313530921936, -367.8864788413048, -174.4887723326683, 31.35532122850418
 1.7054512553734508E9, -333.4195608496666, -383.9231698513031, -188.84998816251755, -33.03079640865326
 1.7054512553734508E9, -413.6030158996582, -364.0568212866783, -180.47261226177216, -89.51824533939362
 1.7054512553894098E9, -351.37108063697815, -349.69560545682907, -160.84561729431152, 21.30247014760971
 1.7054512553894098E9, -316.6648090481758, -382.9657554626465, -184.54162341356277, 13.403801441192627
 1.705451255389856E9, -394.9334353208542, -372.67355078458786, -183.10550183057785, -79.94410145282745
 1.705451255389856E9, -400.43856805562973, -368.60453963279724, -169.46234679222107, -27.525663673877716
 1.7054512554037025E9, -303.97906839847565, -364.0568212866783, -178.79713708162308, 34.94562518596649
 1.7054512554037025E9, -362.1419925093651, -377.93932992219925, -196.74865686893463, -74.43896871805191
 1.7054512554186044E9, -422.21974539756775, -367.6471252441406, -178.31842988729477, -61.03516727685928
 1.7054512554186044E9, -341.55758315324783, -376.5032083392143, -174.4887723326683, 39.97205072641373
 1.7054512554350948E9, -450.94217705726624, -394.9334353208542, -196.26994967460632, -96.69885325431824
 1.7054512554350948E9, -404.50757920742035, -392.7792529463768, -179.51519787311554, 7.180607914924622
 1.7054512554355683E9, -354.48267740011215, -414.32107669115067, -216.1362982392311, -6.7019007205963135
 1.7054512554355683E9, -435.86290043592453, -407.8585295677185, -213.0247014760971, -95.50208526849747
 1.7054512554484456E9, -434.18742525577545, -391.8218385577202, -192.2009385228157, -27.525663673877716
 1.7054512554484456E9, -352.0891414284706, -405.9437007904053, -206.8015079498291, 24.89277410507202
 1.7054512554641528E9, -410.73077273368835, -419.10814863443375, -218.05112701654434, -77.0718582868576
 1.7054512554641528E9, -455.250541806221, -397.5663248896599, -203.6899111866951, -81.85893023014069
 1.7054512554648051E9, -367.6471252441406, -397.5663248896599, -195.79124248027802, 23.456652522087097
 1.7054512554648051E9, -377.6999763250351, -417.1933198571205, -228.34333169460297, -51.46102339029312
 1.705451255478743E9, -460.75567454099655, -409.29465115070343, -217.8117734193802, -112.73554426431656
 1.705451255478743E9, -410.25206553936005, -401.87468963861465, -196.98801046609879, -7.419961512088776
 1.7054512554940732E9, -342.99370473623276, -398.0450320839882, -207.75892233848572, -0.23935359716415405
 1.7054512554940732E9, -445.915751516819, -417.1933198571205, -219.72660219669342, -106.51235073804855
 1.7054512554947896E9, -427.7248781323433, -387.5134738087654, -184.54162341356277, -26.807602882385254
 1.7054512554947896E9, -337.72792559862137, -392.3005457520485, -196.03059607744217, 28.004370868206024
 1.7054512555086122E9, -401.6353360414505, -413.1243087053299, -216.85435903072357, -79.22604066133499
 1.7054512555086122E9, -445.915751516819, -387.0347666144371, -204.40797197818756, -84.73117339611053
 1.7054512555240858E9, -354.96138459444046, -382.72640186548233, -190.76481693983078, 33.50950360298157
 1.7054512555240858E9, -360.22716373205185, -399.72050726413727, -207.99827593564987, -38.057221949100494
 1.705451255524856E9, -448.30928748846054, -397.0876176953316, -200.0996072292328, -97.65626764297485
 1.705451255524856E9, -393.97602093219757, -388.7102417945862, -187.89257377386093, 4.787071943283081
 1.7054512555383933E9, -341.55758315324783, -397.0876176953316, -210.87051910161972, -3.1115967631340027
 1.7054512555383933E9, -437.77772921323776, -412.88495510816574, -214.93953025341034, -108.66653311252594
 1.7054512555541437E9, -436.82031482458115, -393.7366673350334, -191.2435241341591, -32.791442811489105
 1.7054512555541437E9, -351.6104342341423, -407.61917597055435, -201.77508240938187, 17.7121661901474
 1.7054512555548265E9, -399.0024464726448, -404.7469328045845, -216.1362982392311, -73.72090792655945
 1.7054512555548265E9, -451.1815306544304, -385.5986450314522, -200.33896082639694, -82.337637424469
 1.7054512555685568E9, -366.2110036611557, -388.7102417945862, -191.48287773132324, 26.5682492852211
 1.7054512555685568E9, -370.7587220072746, -415.2784910798073, -213.26405507326126, -38.5359291434288
 1.705451255584814E9, -466.2608072757721, -410.73077273368835, -215.89694464206696, -109.3845939040184
 1.705451255584814E9, -411.68818712234497, -403.0714576244354, -196.26994967460632, -4.547718346118927
 1.7054512555854917E9, -346.58400869369507, -403.0714576244354, -201.29637521505356, 0.9574143886566162
 1.7054512555854917E9, -424.6132813692093, -397.0876176953316, -202.73249679803848, -96.22014605998993
 1.7054512555988948E9, -418.62944144010544, -370.2800148129463, -190.04675614833832, -39.01463633775711
 1.7054512555988948E9, -341.55758315324783, -396.13020330667496, -199.62090003490448, 19.626994967460632
 1.7054512556141713E9, -400.6779216527939, -412.88495510816574, -210.63116550445557, -72.76349353790283
 1.7054512556141713E9, -457.16537058353424, -397.3269712924957, -188.6106345653534, -76.83250468969345
 1.7054512556148767E9, -369.56195402145386, -395.65149611234665, -186.21709859371185, 24.653420507907867
 1.7054512556148767E9, -371.9554899930954, -412.88495510816574, -211.82793349027634, -39.01463633775711
 1.705451255628506E9, -456.2079561948776, -398.0450320839882, -204.64732557535172, -105.07622915506363
 1.705451255628506E9, -389.6676561832428, -375.78514754772186, -177.36101549863815, 13.164447844028473
 1.7054512556444008E9, -335.81309682130814, -393.01860654354095, -207.04086154699326, 1.9148287773132324
 1.7054512556444008E9, -430.357767701149, -403.7895184159279, -205.12603276968002, -96.93820685148239
 1.7054512556449673E9, -432.7513036727905, -390.6250705718994, -185.9777449965477, -34.94562518596649
 1.7054512556449673E9, -346.58400869369507, -402.5927504301071, -194.8338280916214, 28.722431659698486
 1.705451255674826E9, -393.97602093219757, -406.1830543875694, -214.46082305908203, -71.56672555208206
 1.705451255674826E9, -445.4370443224907, -388.470888197422, -194.59447449445724, -77.78991907835007
 1.7054512556755924E9, -354.48267740011215, -384.4018770456314, -196.26994967460632, 24.17471331357956
 1.7054512556755924E9, -344.66917991638184, -382.72640186548233, -206.8015079498291, -34.22756439447403
 1.7054512556762512E9, -449.74540907144547, -396.8482640981674, -195.55188888311386, -102.92204678058624
 1.7054512556762512E9, -398.28438568115234, -390.38571697473526, -183.58420902490616, 7.65931510925293
 1.7054512556887589E9, -333.4195608496666, -397.5663248896599, -198.90283924341202, 9.813497483730316
 1.7054512556887589E9, -413.84236949682236, -394.9334353208542, -207.2802151441574, -94.54467087984085
 1.7054512557040913E9, -417.911380648613, -378.41803711652756, -182.8661482334137, -23.935359716415405
 1.7054512557040913E9, -333.65891444683075, -387.5134738087654, -192.44029211997986, 30.876614034175873
 1.7054512557048388E9, -380.09351229667664, -385.5986450314522, -210.15245831012726, -70.13060396909714
 1.7054512557048388E9, -453.3357130289078, -394.4547281265259, -194.59447449445724, -78.26862627267838
 1.7054512557184346E9, -357.354920566082, -383.20510905981064, -172.09523636102676, 40.69011151790619
 1.7054512557184346E9, -356.3975061774254, -397.80567848682404, -200.81766802072525, -24.17471331357956
 1.7054512557344844E9, -452.6176522374153, -392.7792529463768, -197.22736406326294, -89.99695253372192
 1.7054512557344844E9, -400.1992144584656, -382.4870482683182, -186.456452190876, 6.462547123432159
 1.7054512557350025E9, -335.81309682130814, -401.1566288471222, -204.64732557535172, 5.026425540447235
 1.7054512557350025E9, -432.2725964784622, -403.0714576244354, -213.50340867042542, -103.1614003777504
 1.7054512557484832E9, -427.246170938015, -381.05092668533325, -187.89257377386093, -43.08364748954773
 1.7054512557484832E9, -332.9408536553383, -381.2902802824974, -183.344855427742, 39.97205072641373
 1.70545125576477E9, -375.0670867562294, -383.68381625413895, -189.32869535684586, -47.3920122385025
 1.70545125576477E9, -438.0170828104019, -371.9554899930954, -176.16424751281738, -57.92357051372528
 1.705451255764854E9, -348.73819106817245, -374.1096723675728, -176.88230830430984, 43.32300108671188
 1.705451255764854E9, -347.0627158880234, -385.359291434288, -193.63706010580063, -22.97794532775879
 1.705451255778455E9, -440.88932597637177, -381.7689874768257, -194.3551208972931, -95.02337807416916
 1.705451255778455E9, -397.5663248896599, -387.27412021160126, -181.90873384475708, 9.574143886566162
 1.705451255794102E9, -334.61632883548737, -394.2153745293617, -192.91899931430817, 13.403801441192627
 1.705451255794102E9, -418.8687950372696, -389.6676561832428, -202.73249679803848, -95.98079246282578
 1.705451255794842E9, -416.2359054684639, -378.89674431085587, -169.70170038938522, -18.669580578804016
 1.705451255794842E9, -332.70150005817413, -385.11993783712387, -187.89257377386093, 38.5359291434288
 1.7054512558252633E9, -386.31670582294464, -395.17278891801834, -201.5357288122177, -61.27452087402344
 1.7054512558252633E9, -437.29902201890945, -374.1096723675728, -183.58420902490616, -70.60931116342545
 1.7054512558255968E9, -358.07298135757446, -377.46062272787094, -179.99390506744385, 36.14239317178726
 1.7054512558255968E9, -367.1684180498123, -407.3798223733902, -193.63706010580063, -26.807602882385254
 1.7054512558263495E9, -454.7718346118927, -399.4811536669731, -190.52546334266663, -92.86919569969177
 1.7054512558263495E9, -396.60891050100327, -388.2315346002579, -180.233258664608, 5.505132734775543
 1.7054512558385398E9, -335.0950360298157, -390.6250705718994, -191.00417053699493, 9.095436692237854
 1.7054512558385398E9, -413.1243087053299, -382.4870482683182, -198.66348564624786, -87.12470936775208
 1.705451255854274E9, -417.43267345428467, -372.4341971874237, -173.05265074968338, -21.30247014760971
 1.705451255854274E9, -325.9995993375778, -376.26385474205017, -178.55778348445892, 45.237829864025116
 1.7054512558548343E9, -371.71613639593124, -378.1786835193634, -196.03059607744217, -57.92357051372528
 1.7054512558548343E9, -437.29902201890945, -379.6148051023483, -182.14808744192123, -75.87509030103683
 1.7054512558684015E9, -343.9511191248894, -368.12583243846893, -177.36101549863815, 32.55208921432495
 1.7054512558684015E9, -344.4298263192177, -381.05092668533325, -191.7222313284874, -20.58440935611725
 1.7054512558840904E9, -442.08609396219254, -389.42830258607864, -189.80740255117416, -92.62984210252762
 1.7054512558840904E9, -381.7689874768257, -372.67355078458786, -176.6429547071457, 7.180607914924622
 1.7054512558847983E9, -328.1537817120552, -385.83799862861633, -197.9454248547554, 9.813497483730316
 1.7054512558847983E9, -424.6132813692093, -398.76309287548065, -205.60473996400833, -95.98079246282578
 1.7054512558989043E9, -429.8790605068207, -383.4444626569748, -184.78097701072693, -30.876614034175873
 1.7054512558989043E9, -342.2756439447403, -390.6250705718994, -191.7222313284874, 28.483078062534332
 1.705451255914158E9, -384.16252344846725, -396.3695569038391, -205.60473996400833, -67.01900720596313
 1.705451255914158E9, -447.11251950263977, -380.8115730881691, -193.87641370296478, -78.74733346700668
 1.705451255914914E9, -352.5678486227989, -370.7587220072746, -180.7119658589363, 30.397906839847565
 1.705451255914914E9, -343.47241193056107, -380.09351229667664, -192.679645717144, -18.430226981639862
 1.7054512559451509E9, -436.580961227417, -379.8541586995125, -188.6106345653534, -83.05569821596146
 1.7054512559451509E9, -378.1786835193634, -363.57811409235, -164.91462844610214, 13.882508635520935
 1.7054512559457269E9, -315.94674825668335, -373.3916115760803, -185.25968420505524, 17.951519787311554
 1.7054512559457269E9, -407.61917597055435, -385.11993783712387, -187.65322017669678, -84.25246620178223
 1.705451255946368E9, -408.09788316488266, -365.7322964668274, -172.81329715251923, -31.115967631340027
 1.705451255946368E9, -326.238952934742, -378.41803711652756, -181.90873384475708, 30.15855324268341
 1.7054512559584527E9, -379.8541586995125, -391.1037777662277, -209.4343975186348, -64.38611763715744
 1.7054512559584527E9, -440.6499723792076, -381.7689874768257, -189.80740255117416, -75.63573670387268
 1.705451255974437E9, -349.21689826250076, -371.23742920160294, -176.40360110998154, 36.381746768951416
 1.705451255974437E9, -345.3872407078743, -387.5134738087654, -201.0570216178894, -26.5682492852211
 1.705451255974929E9, -433.9480716586113, -380.3328658938408, -187.41386657953262, -91.672427713871
 1.705451255974929E9, -385.359291434288, -368.60453963279724, -172.81329715251923, 4.308364748954773
 1.7054512560048163E9, -324.0847705602646, -379.13609790802, -192.91899931430817, 11.24961906671524
 1.7054512560048163E9, -409.77335834503174, -380.57221949100494, -187.65322017669678, -81.14086943864822
 1.705451256005505E9, -419.8262094259262, -370.2800148129463, -178.07907629013062, -28.96178525686264
 1.705451256005505E9, -333.8982680439949, -379.8541586995125, -179.7545514702797, 42.12623310089111
 1.705451256006334E9, -381.7689874768257, -391.1037777662277, -192.91899931430817, -51.93973058462143
 1.705451256006334E9, -435.86290043592453, -374.34902596473694, -178.31842988729477, -59.59904569387436
 1.7054512560184152E9, -346.58400869369507, -367.8864788413048, -174.24941873550415, 42.844293892383575
 1.7054512560184152E9, -345.3872407078743, -387.9921810030937, -192.44029211997986, -22.97794532775879
 1.705451256034502E9, -432.7513036727905, -380.09351229667664, -187.41386657953262, -85.20988059043884
 1.705451256034502E9, -380.09351229667664, -363.33876049518585, -175.20683312416077, 5.983839929103851
 1.7054512560348995E9, -325.76024574041367, -378.89674431085587, -186.93515938520432, 14.600569427013397
 1.7054512560348995E9, -414.5604302883148, -387.75282740592957, -188.37128096818924, -84.97052699327469
 1.7054512560484655E9, -418.3900878429413, -374.5883795619011, -175.20683312416077, -25.850188493728638
 1.7054512560484655E9, -326.238952934742, -372.67355078458786, -176.40360110998154, 37.81786835193634
 1.7054512560642047E9, -375.30644035339355, -383.20510905981064, -195.3125352859497, -61.753228068351746
 1.7054512560642047E9, -440.6499723792076, -371.4767827987671, -179.03649067878723, -72.28478634357452
 1.705451256064849E9, -341.0788759589195, -361.4239317178726, -169.22299319505692, 41.40817230939865
 1.705451256064849E9, -323.3667097687721, -360.22716373205185, -175.68554031848907, 1.4361215829849243
 1.7054512560784652E9, -413.6030158996582, -361.4239317178726, -164.43592125177383, -63.66805684566498
 1.7054512560784652E9, -355.9187989830971, -342.7543511390686, -149.11729103326797, 25.132127702236176
 1.7054512560943224E9, -302.5429468154907, -361.9026389122009, -174.01006513834, 31.83402842283249
 1.7054512560943224E9, -382.9657554626465, -360.22716373205185, -179.7545514702797, -73.00284713506699
 1.70545125609515E9, -397.80567848682404, -356.3975061774254, -159.4094957113266, -14.121862232685089
 1.70545125609515E9, -311.3990299105644, -362.38134610652924, -169.94105398654938, 46.19524425268173
 1.7054512561084275E9, -350.89237344264984, -360.22716373205185, -181.66938024759293, -44.519769072532654
 1.7054512561084275E9, -419.58685582876205, -359.9878101348877, -165.6326892375946, -50.26425540447235
 1.7054512561240869E9, -332.2227928638458, -352.5678486227989, -156.2978989481926, 52.17908418178558
 1.7054512561240869E9, -324.80283135175705, -365.01423567533493, -172.09523636102676, 0.23935359716415405
 1.7054512561248045E9, -415.99655187129974, -358.3123349547386, -169.22299319505692, -74.67832231521606
 1.7054512561248045E9, -369.56195402145386, -352.32849502563477, -153.1863021850586, 23.217298924922943
 1.7054512561387343E9, -313.5532122850418, -365.01423567533493, -168.7442860007286, 30.876614034175873
 1.7054512561387343E9, -391.1037777662277, -366.2110036611557, -177.6003690958023, -69.65189677476883
 1.7054512561541548E9, -395.4121425151825, -344.908533513546, -159.8882029056549, -19.148287773132324
 1.7054512561541548E9, -309.72355473041534, -351.37108063697815, -158.45208132266998, 54.093912959098816
 1.7054512561548097E9, -363.57811409235, -376.7425619363785, -176.6429547071457, -41.1688187122345
 1.7054512561548097E9, -425.0919885635376, -359.74845653772354, -170.898468375206, -58.8809849023819
 1.705451256168877E9, -331.98343926668167, -349.4562518596649, -159.17014211416245, 47.63136583566666
 1.705451256168877E9, -329.1111961007118, -371.4767827987671, -178.31842988729477, -5.744486331939697
 1.7054512561841173E9, -415.99655187129974, -365.01423567533493, -169.22299319505692, -72.28478634357452
 1.7054512561841173E9, -370.9980756044388, -356.3975061774254, -162.76044607162476, 16.754751801490784
 1.705451256184991E9, -301.5855324268341, -359.0303957462311, -173.29200434684753, 30.397906839847565
 1.705451256184991E9, -387.75282740592957, -360.70587092638016, -180.7119658589363, -65.34353202581406
 1.705451256198511E9, -410.25206553936005, -363.57811409235, -165.6326892375946, -17.7121661901474
 1.705451256198511E9, -318.10093063116074, -363.33876049518585, -177.83972269296646, 44.519769072532654
 1.7054512562317014E9, -361.4239317178726, -372.67355078458786, -192.2009385228157, -52.897144973278046
 1.7054512562317014E9, -422.4590989947319, -360.466517329216, -174.01006513834, -63.18934965133667
 1.7054512562320576E9, -337.24921840429306, -359.9878101348877, -166.59010362625122, 46.67395144701004
 1.7054512562320576E9, -328.39313530921936, -365.7322964668274, -180.47261226177216, -8.8560830950737
 1.705451256232836E9, -420.7836238145828, -363.81746768951416, -177.6003690958023, -79.46539425849915
 1.705451256232836E9, -371.71613639593124, -355.2007381916046, -163.95721405744553, 16.276044607162476
 1.7054512562334545E9, -308.7661403417587, -364.0568212866783, -176.6429547071457, 20.823762953281403
 1.7054512562334545E9, -397.80567848682404, -371.23742920160294, -181.90873384475708, -76.83250468969345
 1.7054512562434716E9, -406.66176158189774, -361.4239317178726, -162.9997996687889, -23.935359716415405
 1.7054512562434716E9, -318.8189914226532, -364.29617488384247, -169.22299319505692, 46.19524425268173
 1.7054512562583735E9, -361.6632853150368, -372.67355078458786, -187.65322017669678, -46.19524425268173
 1.7054512562583735E9, -433.70871806144714, -361.9026389122009, -166.35075002908707, -55.53003454208374
 1.7054512562741795E9, -347.30206948518753, -357.354920566082, -162.28173887729645, 48.110073029994965
 1.7054512562741795E9, -338.2066327929497, -377.2212691307068, -193.39770650863647, -13.643155038356781
 1.7054512562749813E9, -416.7146126627922, -368.8438932299614, -176.16424751281738, -77.0718582868576
 1.7054512562749813E9, -384.16252344846725, -368.3651860356331, -165.6326892375946, 15.079276621341705
 1.7054512562886083E9, -314.5106266736984, -370.5193684101105, -182.62679463624954, 19.866348564624786
 1.7054512562886083E9, -398.28438568115234, -376.26385474205017, -191.48287773132324, -80.42280864715576
 1.7054512563040946E9, -405.2256399989128, -358.7910421490669, -162.0423852801323, -23.217298924922943
 1.7054512563040946E9, -315.2286874651909, -358.07298135757446, -168.02622520923615, 42.844293892383575
 1.7054512563048136E9, -359.0303957462311, -370.04066121578217, -179.51519787311554, -42.12623310089111
 1.7054512563048136E9, -410.73077273368835, -351.6104342341423, -170.898468375206, -58.64163130521774
 1.705451256318692E9, -334.61632883548737, -354.96138459444046, -158.69143491983414, 57.68421691656113
 1.705451256318692E9, -336.5311576128006, -377.93932992219925, -182.62679463624954, -8.377375900745392
 1.7054512563342133E9, -409.77335834503174, -364.0568212866783, -175.92489391565323, -84.97052699327469
 1.7054512563342133E9, -370.2800148129463, -353.52526301145554, -160.36691009998322, 17.233458995819092
 1.7054512563348732E9, -304.2184219956398, -363.33876049518585, -177.121661901474, 28.96178525686264
 1.7054512563348732E9, -385.11993783712387, -366.45035725831985, -178.31842988729477, -72.52413994073868
 1.7054512563484805E9, -398.76309287548065, -356.3975061774254, -167.30816441774368, -22.97794532775879
 1.7054512563484805E9, -308.7661403417587, -355.44009178876877, -176.16424751281738, 47.63136583566666
 1.7054512563808029E9, -368.8438932299614, -387.0347666144371, -186.456452190876, -48.58878022432327
 1.7054512563808029E9, -435.14483964443207, -376.98191553354263, -175.92489391565323, -64.6254712343216
 1.7054512563813627E9, -358.07298135757446, -380.8115730881691, -180.233258664608, 34.22756439447403
 1.7054512563813627E9, -353.2859094142914, -398.5237392783165, -198.90283924341202, -22.259884536266327
 1.7054512563821611E9, -430.8364748954773, -380.8115730881691, -191.2435241341591, -92.62984210252762
 1.7054512563821611E9, -389.1889489889145, -371.23742920160294, -170.18040758371353, 4.787071943283081
 1.705451256382774E9, -329.350549697876, -385.5986450314522, -189.0893417596817, 18.669580578804016
 1.705451256382774E9, -399.0024464726448, -378.6573907136917, -192.44029211997986, -74.91767591238022
 1.705451256393479E9, -411.4488335251808, -361.18457812070847, -170.65911477804184, -22.259884536266327
 1.705451256393479E9, -320.01575940847397, -363.81746768951416, -171.13782197237015, 40.92946511507034
 1.7054512564084632E9, -375.78514754772186, -387.75282740592957, -191.96158492565155, -45.237829864025116
 1.7054512564084632E9, -441.3680331707001, -380.8115730881691, -184.30226981639862, -70.13060396909714
 1.7054512564238017E9, -360.22716373205185, -372.19484359025955, -168.2655788064003, 41.1688187122345
 1.7054512564238017E9, -344.4298263192177, -386.31670582294464, -178.55778348445892, -9.095436692237854
 1.7054512564391603E9, -381.2902802824974, -361.4239317178726, -169.46234679222107, 11.728326261043549
 1.7054512564391603E9, -316.6648090481758, -378.41803711652756, -184.30226981639862, 23.69600611925125
 1.7054512564398685E9, -409.29465115070343, -384.8805842399597, -194.3551208972931, -83.29505181312561
 1.7054512564398685E9, -418.62944144010544, -371.23742920160294, -166.59010362625122, -26.08954209089279
 1.7054512564534364E9, -335.81309682130814, -380.3328658938408, -183.344855427742, 39.73269712924957
 1.7054512564534364E9, -377.93932992219925, -389.1889489889145, -197.70607125759125, -56.00874173641205
 1.7054512564696205E9, -440.88932597637177, -376.5032083392143, -184.78097701072693, -68.93383598327637
 1.7054512564696205E9, -357.59427416324615, -368.3651860356331, -175.92489391565323, 32.55208921432495
 1.705451256469967E9, -348.4988374710083, -384.4018770456314, -191.48287773132324, -21.063116550445557
 1.705451256469967E9, -425.81004935503006, -372.4341971874237, -183.344855427742, -88.80018454790115
 1.7054512564834642E9, -385.11993783712387, -363.81746768951416, -166.59010362625122, 13.403801441192627
 1.7054512564834642E9, -319.7764058113098, -365.49294286966324, -179.27584427595139, 26.807602882385254
 1.7054512564992275E9, -404.98628640174866, -381.7689874768257, -185.02033060789108, -74.67832231521606
 1.7054512564992275E9, -417.911380648613, -366.92906445264816, -164.675274848938, -25.850188493728638
 1.705451256499805E9, -325.76024574041367, -370.2800148129463, -170.18040758371353, 49.06748741865158
 1.705451256499805E9, -364.5355284810066, -375.0670867562294, -181.19067305326462, -41.1688187122345
 1.7054512565138247E9, -436.1022540330887, -370.9980756044388, -171.8558827638626, -62.949996054172516
 1.7054512565138247E9, -349.4562518596649, -366.2110036611557, -168.2655788064003, 45.95589065551758
 1.7054512565292337E9, -344.66917991638184, -385.83799862861633, -186.69580578804016, -13.882508635520935
 1.7054512565292337E9, -427.96423172950745, -374.82773315906525, -183.58420902490616, -82.57699102163315
 1.705451256544108E9, -373.87031877040863, -355.44009178876877, -163.23915326595306, 16.994105398654938
 1.705451256544108E9, -316.42545545101166, -371.9554899930954, -184.06291621923447, 22.020530939102173
 1.705451256544808E9, -403.3108112215996, -378.41803711652756, -191.2435241341591, -80.42280864715576
 1.705451256544808E9, -416.2359054684639, -368.3651860356331, -166.82945722341537, -23.456652522087097
 1.705451256559301E9, -325.76024574041367, -362.86005330085754, -170.898468375206, 51.700376987457275
 1.705451256559301E9, -369.56195402145386, -379.3754515051842, -187.17451298236847, -43.80170828104019
 1.7054512565598705E9, -444.2402763366699, -376.98191553354263, -174.4887723326683, -70.60931116342545
 1.7054512565598705E9, -350.1743126511574, -364.5355284810066, -169.46234679222107, 40.69011151790619
 1.7054512565734692E9, -339.40340077877045, -379.3754515051842, -194.59447449445724, -10.770911872386932
 1.7054512565734692E9, -434.66613245010376, -382.4870482683182, -192.2009385228157, -82.09828382730484
 1.705451256589086E9, -387.9921810030937, -373.6309651732445, -170.41976118087769, 9.334790289402008
 1.705451256589086E9, -314.98933386802673, -369.08324682712555, -178.79713708162308, 31.83402842283249
 1.7054512565898015E9, -395.17278891801834, -372.19484359025955, -191.00417053699493, -78.50797986984253
 1.7054512565898015E9, -406.9011151790619, -364.29617488384247, -172.57394355535507, -22.97794532775879
 1.7054512566036327E9, -326.7176601290703, -374.34902596473694, -176.16424751281738, 44.99847626686096
 1.7054512566036327E9, -367.1684180498123, -380.3328658938408, -192.2009385228157, -43.56235468387604
 1.7054512566190972E9, -428.6822925209999, -364.7748820781708, -174.01006513834, -62.47128885984421
 1.7054512566190972E9, -345.62659430503845, -364.7748820781708, -167.30816441774368, 40.21140432357788
 1.7054512566198528E9, -340.1214615702629, -382.4870482683182, -190.52546334266663, -12.925094246864319
 1.7054512566198528E9, -431.07582849264145, -376.7425619363785, -185.9777449965477, -88.560830950737
 1.70545125663341E9, -390.1463633775711, -371.4767827987671, -176.6429547071457, 9.334790289402008
 1.70545125663341E9, -331.98343926668167, -385.5986450314522, -186.69580578804016, 26.807602882385254
 1.7054512566495688E9, -406.9011151790619, -386.31670582294464, -201.29637521505356, -78.74733346700668
 1.7054512566495688E9, -411.20947992801666, -363.57811409235, -170.898468375206, -23.456652522087097
 1.7054512566499429E9, -327.43572092056274, -370.9980756044388, -178.07907629013062, 39.253989934921265
 1.7054512566499429E9, -369.801307618618, -381.2902802824974, -197.70607125759125, -51.93973058462143
 1.7054512566634853E9, -442.08609396219254, -378.1786835193634, -181.66938024759293, -70.13060396909714
 1.7054512566634853E9, -354.48267740011215, -368.12583243846893, -165.6326892375946, 41.1688187122345
 1.705451256679226E9, -339.1640471816063, -380.3328658938408, -189.32869535684586, -9.095436692237854
 1.705451256679226E9, -421.74103820323944, -366.92906445264816, -186.69580578804016, -88.32147735357285
 1.7054512566799E9, -380.8115730881691, -365.01423567533493, -168.2655788064003, 11.967679858207703
 1.7054512566799E9, -333.18020725250244, -382.72640186548233, -196.03059607744217, 14.361215829849243
 1.705451256693862E9, -410.0127119421959, -390.86442416906357, -216.1362982392311, -97.4169140458107
 1.705451256693862E9, -405.2256399989128, -357.354920566082, -170.18040758371353, -23.935359716415405
 1.7054512567091472E9, -315.2286874651909, -365.01423567533493, -176.88230830430984, 41.88687950372696
 1.7054512567091472E9, -365.01423567533493, -383.68381625413895, -196.26994967460632, -53.375852167606354
 1.7054512567098825E9, -437.29902201890945, -381.05092668533325, -180.95131945610046, -73.24220073223114
 1.7054512567098825E9, -341.55758315324783, -360.466517329216, -175.20683312416077, 33.03079640865326
 1.7054512567236965E9, -332.2227928638458, -380.09351229667664, -192.679645717144, -17.233458995819092
 1.7054512567236965E9, -419.8262094259262, -375.5457939505577, -183.8235626220703, -89.03953814506531
 1.7054512567393196E9, -370.9980756044388, -359.0303957462311, -167.786871612072, 11.24961906671524
 1.7054512567393196E9, -315.7073946595192, -380.3328658938408, -187.89257377386093, 22.259884536266327
 1.7054512567399652E9, -394.2153745293617, -378.89674431085587, -189.0893417596817, -77.55056548118591
 1.7054512567399652E9, -410.4914191365242, -366.689710855484, -172.57394355535507, -31.83402842283249
 1.7054512567534049E9, -317.6222234368324, -360.70587092638016, -179.99390506744385, 43.56235468387604
 1.7054512567534049E9, -354.96138459444046, -371.9554899930954, -187.17451298236847, -41.88687950372696
 1.705451256769154E9, -426.7674637436867, -365.97165006399155, -170.18040758371353, -55.53003454208374
 1.705451256769154E9, -335.0950360298157, -350.6530198454857, -167.06881082057953, 39.73269712924957
 1.7054512567698505E9, -325.9995993375778, -372.67355078458786, -189.32869535684586, -5.505132734775543
 1.7054512567698505E9, -419.8262094259262, -370.2800148129463, -190.28610974550247, -88.08212375640869
 1.7054512567837462E9, -377.6999763250351, -363.81746768951416, -171.61652916669846, 1.9148287773132324
 1.7054512567837462E9, -308.7661403417587, -364.0568212866783, -180.7119658589363, 27.046956479549408
 1.705451256799142E9, -389.42830258607864, -373.87031877040863, -198.18477845191956, -87.36406296491623
 1.705451256799142E9, -407.61917597055435, -364.0568212866783, -174.01006513834, -30.63726043701172
 1.7054512567999144E9, -320.73382019996643, -364.29617488384247, -171.61652916669846, 44.519769072532654
 1.7054512567999144E9, -362.38134610652924, -380.57221949100494, -194.3551208972931, -48.58878022432327
 1.705451256813475E9, -432.2725964784622, -370.7587220072746, -176.6429547071457, -67.25836080312729
 1.705451256813475E9, -340.1214615702629, -354.00397020578384, -163.71786046028137, 48.34942662715912
 1.705451256829615E9, -328.6324889063835, -370.5193684101105, -184.54162341356277, -6.223193526268005
 1.705451256829615E9, -419.10814863443375, -374.34902596473694, -183.10550183057785, -82.57699102163315
 1.7054512568445108E9, -385.83799862861633, -366.45035725831985, -167.30816441774368, 15.557983815670013
 1.7054512568445108E9, -313.5532122850418, -372.4341971874237, -177.83972269296646, 28.243724465370178
 1.705451256845004E9, -385.5986450314522, -370.2800148129463, -185.4990378022194, -67.01900720596313
 1.705451256845004E9, -397.3269712924957, -352.0891414284706, -157.2553133368492, -11.010265469551086
 1.7054512568592136E9, -308.2874331474304, -355.44009178876877, -170.65911477804184, 51.93973058462143
 1.7054512568592136E9, -339.6427543759346, -360.466517329216, -184.30226981639862, -37.81786835193634
 1.7054512568600729E9, -414.0817230939865, -354.243323802948, -165.39333564043045, -56.966156125068665
 1.7054512568600729E9, -335.573743224144, -347.0627158880234, -154.86177736520767, 50.503609001636505
 1.705451256873538E9, -317.8615770339966, -365.2535892724991, -169.94105398654938, 13.643155038356781
 1.705451256873538E9, -401.6353360414505, -356.63685977458954, -170.898468375206, -70.8486647605896
 1.7054512568893778E9, -365.97165006399155, -346.3446550965309, -157.01595973968506, 17.472812592983246
 1.7054512568893778E9, -302.5429468154907, -361.4239317178726, -174.9674795269966, 32.3127356171608
 1.7054512568898995E9, -386.31670582294464, -371.4767827987671, -183.10550183057785, -70.60931116342545
 1.7054512568898995E9, -405.7043471932411, -355.2007381916046, -157.97337412834167, -24.414066910743713
 1.7054512569034078E9, -316.1861018538475, -365.2535892724991, -168.98363959789276, 52.897144973278046
 1.7054512569034078E9, -354.48267740011215, -381.05092668533325, -186.69580578804016, -39.253989934921265
 1.7054512569189208E9, -427.246170938015, -367.1684180498123, -187.17451298236847, -71.32737195491791
 1.7054512569189208E9, -334.3769752383232, -356.15815258026123, -180.7119658589363, 28.96178525686264
 1.7054512569345715E9, -331.98343926668167, -384.64123064279556, -196.03059607744217, -12.207033455371857
 1.7054512569345715E9, -422.21974539756775, -377.6999763250351, -191.2435241341591, -92.39048850536346
 1.7054512569349391E9, -384.64123064279556, -370.5193684101105, -173.5313579440117, 2.8722431659698486
 1.7054512569349391E9, -316.6648090481758, -369.56195402145386, -179.03649067878723, 31.35532122850418
 1.7054512569491935E9, -390.38571697473526, -376.5032083392143, -190.28610974550247, -71.32737195491791
 1.7054512569491935E9, -416.95396625995636, -367.6471252441406, -181.19067305326462, -40.69011151790619
 1.7054512569498777E9, -324.32412415742874, -373.15225797891617, -187.89257377386093, 30.397906839847565
 1.7054512569498777E9, -365.49294286966324, -389.90700978040695, -200.81766802072525, -51.700376987457275
 1.70545125696432E9, -442.56480115652084, -378.1786835193634, -189.32869535684586, -77.0718582868576
 1.70545125696432E9, -354.48267740011215, -369.3226004242897, -167.06881082057953, 39.73269712924957
 1.705451256979539E9, -338.92469358444214, -388.470888197422, -190.28610974550247, -13.643155038356781
 1.705451256979539E9, -423.6558669805527, -377.93932992219925, -189.32869535684586, -89.75759893655777
 1.7054512569800167E9, -374.82773315906525, -346.58400869369507, -165.39333564043045, 8.616729497909546
 1.7054512569800167E9, -309.0054939389229, -373.87031877040863, -191.00417053699493, 19.866348564624786
 1.7054512569934733E9, -402.1140432357788, -385.5986450314522, -187.17451298236847, -72.28478634357452
 1.7054512569934733E9, -419.8262094259262, -363.0994068980217, -160.36691009998322, -17.951519787311554
 1.7054512570094922E9, -329.8292568922043, -375.0670867562294, -169.70170038938522, 51.700376987457275
 1.7054512570094922E9, -370.04066121578217, -386.79541301727295, -198.18477845191956, -38.29657554626465
 1.7054512570100489E9, -433.469364464283, -367.1684180498123, -179.99390506744385, -65.34353202581406
 1.7054512570100489E9, -351.6104342341423, -367.1684180498123, -158.21272772550583, 48.82813382148743
 1.7054512570234811E9, -309.9629083275795, -355.44009178876877, -176.16424751281738, 8.377375900745392
 1.7054512570234811E9, -410.0127119421959, -357.59427416324615, -173.05265074968338, -61.753228068351746
 1.7054512570391252E9, -363.0994068980217, -336.5311576128006, -146.00569427013397, 46.434597849845886
 1.7054512570391252E9, -282.67659825086594, -334.61632883548737, -151.98953419923782, 71.08801835775375
 1.705451257039821E9, -357.59427416324615, -329.8292568922043, -148.15987664461136, -19.866348564624786
 1.705451257039821E9, -365.49294286966324, -306.61195796728134, -118.71938419342041, 26.807602882385254
 1.7054512570536056E9, -264.0070176720619, -303.2610076069832, -117.7619698047638, 115.1290802359581
 1.7054512570536056E9, -280.7617694735527, -291.0539741516113, -110.10265469551086, 50.26425540447235
 1.7054512570852735E9, -330.54731768369675, -264.2463712692261, -89.51824533939362, 31.594674825668335
 1.7054512570852735E9, -240.78971874713898, -251.0819234251976, -67.97642159461975, 153.1863021850586
 1.7054512570859733E9, -230.49751406908035, -257.54447054862976, -74.67832231521606, 126.37869930267334
 1.7054512570859733E9, -313.79256588220596, -252.27869141101837, -72.04543274641037, 43.08364748954773
 1.7054512570867696E9, -261.13477450609207, -223.55625975131989, -50.503609001636505, 137.86767196655273
 1.7054512570867696E9, -190.28610974550247, -230.01880687475204, -61.51387447118759, 163.95721405744553
 1.7054512570990949E9, -273.5811615586281, -246.53420507907867, -81.14086943864822, 36.14239317178726
 1.7054512570990949E9, -289.85720616579056, -226.18914932012558, -51.93973058462143, 95.02337807416916
 1.7054512570998125E9, -196.98801046609879, -234.08781802654266, -63.90741044282913, 155.8191917538643
 1.7054512570998125E9, -239.35359716415405, -244.3800227046013, -84.97052699327469, 47.15265864133835
 1.7054512571135292E9, -310.9203227162361, -246.77355867624283, -77.78991907835007, 11.967679858207703
 1.7054512571135292E9, -234.32717162370682, -246.77355867624283, -70.13060396909714, 139.78250074386597
 1.7054512571295836E9, -238.15682917833328, -278.36823350191116, -111.29942268133163, 74.67832231521606
 1.7054512571295836E9, -335.0950360298157, -287.70302379131317, -111.53877627849579, -14.839923024177551
 1.7054512571299996E9, -312.35644429922104, -285.78819501399994, -101.48592519760132, 69.89125037193298
 1.7054512571299996E9, -243.18325471878052, -299.910057246685, -128.29352807998657, 80.90151584148407
 1.7054512571434631E9, -337.24921840429306, -314.98933386802673, -143.85151189565659, -34.94562518596649
 1.7054512571434631E9, -365.7322964668274, -312.5957978963852, -131.40512484312057, 0.0
 1.7054512571591463E9, -281.00112307071686, -325.76024574041367, -136.91025757789612, 66.77965360879898
 1.7054512571591463E9, -319.05834501981735, -338.92469358444214, -157.97337412834167, -25.132127702236176
 1.7054512571598616E9, -396.60891050100327, -335.3343896269798, -148.63858383893967, -51.700376987457275
 1.7054512571598616E9, -308.5267867445946, -324.80283135175705, -144.8089262843132, 53.1364985704422
 1.7054512571734896E9, -297.75587487220764, -339.6427543759346, -170.18040758371353, 0.4787071943283081
 1.7054512571734896E9, -407.14046877622604, -362.6206997036934, -177.121661901474, -90.23630613088608
 1.7054512571891792E9, -374.1096723675728, -366.92906445264816, -164.91462844610214, -4.308364748954773
 1.7054512571891792E9, -316.42545545101166, -380.3328658938408, -183.10550183057785, 13.403801441192627
 1.7054512571900272E9, -406.1830543875694, -391.3431313633919, -202.73249679803848, -100.76786440610886
 1.7054512571900272E9, -422.4590989947319, -370.5193684101105, -183.10550183057785, -52.897144973278046
 1.7054512572036572E9, -329.350549697876, -367.1684180498123, -183.10550183057785, 22.259884536266327
 1.7054512572036572E9, -365.97165006399155, -392.7792529463768, -202.97185039520264, -66.30094641447067
 1.7054512572195804E9, -438.4957900047302, -379.13609790802, -195.55188888311386, -99.81045001745224
 1.7054512572195804E9, -364.7748820781708, -381.7689874768257, -191.96158492565155, 2.8722431659698486
 1.7054512572200184E9, -356.3975061774254, -404.7469328045845, -219.72660219669342, -52.41843777894974
 1.7054512572200184E9, -446.3944587111473, -404.02887201309204, -213.98211586475372, -126.37869930267334
 1.7054512572335799E9, -409.5340047478676, -390.38571697473526, -207.2802151441574, -41.1688187122345
 1.7054512572335799E9, -350.89237344264984, -410.0127119421959, -220.68401658535004, -17.472812592983246
 1.7054512572492063E9, -431.07582849264145, -418.3900878429413, -225.94979572296143, -119.43744498491287
 1.7054512572492063E9, -451.6602378487587, -402.83210402727127, -205.60473996400833, -73.72090792655945
 1.7054512572498932E9, -344.908533513546, -388.94959539175034, -207.51956874132156, 5.744486331939697
 1.7054512572498932E9, -388.7102417945862, -412.88495510816574, -225.71044212579727, -84.73117339611053
 1.7054512572637403E9, -468.65434324741364, -405.7043471932411, -208.47698312997818, -118.2406769990921
 1.7054512572637403E9, -382.4870482683182, -404.02887201309204, -196.26994967460632, -3.3509503602981567
 1.705451257279232E9, -362.38134610652924, -413.36366230249405, -219.00854140520096, -48.82813382148743
 1.705451257279232E9, -450.7028234601021, -412.40624791383743, -216.85435903072357, -127.81482088565826
 1.705451257279894E9, -399.4811536669731, -389.90700978040695, -207.51956874132156, -37.81786835193634
 1.705451257279894E9, -343.7117655277252, -404.50757920742035, -214.70017665624619, -14.121862232685089
 1.7054512572935324E9, -424.85263496637344, -418.62944144010544, -219.00854140520096, -116.32584822177887
 1.7054512572935324E9, -446.15510511398315, -398.0450320839882, -204.88667917251587, -71.80607914924622
 1.7054512573095393E9, -361.4239317178726, -404.7469328045845, -212.0672870874405, 4.308364748954773
 1.7054512573095393E9, -394.9334353208542, -420.7836238145828, -228.58268529176712, -87.36406296491623
 1.705451257309966E9, -463.1492105126381, -405.9437007904053, -217.8117734193802, -113.69295865297318
 1.705451257309966E9, -374.34902596473694, -395.8908497095108, -199.86025363206863, 2.1541823744773865
 1.7054512573398015E9, -360.466517329216, -416.95396625995636, -211.82793349027634, -35.4243323802948
 1.7054512573398015E9, -454.7718346118927, -416.7146126627922, -217.09371262788773, -126.6180528998375
 1.7054512573405304E9, -419.10814863443375, -399.24180006980896, -198.66348564624786, -39.01463633775711
 1.7054512573405304E9, -339.1640471816063, -398.0450320839882, -211.58857989311218, -4.308364748954773
 1.705451257341262E9, -401.87468963861465, -393.7366673350334, -207.04086154699326, -87.84277015924454
 1.705451257341262E9, -424.134574174881, -382.00834107398987, -178.55778348445892, -40.69011151790619
 1.70545125735377E9, -336.77051120996475, -385.5986450314522, -185.4990378022194, 24.414066910743713
 1.70545125735377E9, -369.08324682712555, -390.6250705718994, -200.81766802072525, -56.00874173641205
 1.705451257369439E9, -451.6602378487587, -396.13020330667496, -196.50930327177048, -92.39048850536346
 1.705451257369439E9, -375.78514754772186, -389.1889489889145, -191.96158492565155, 13.643155038356781
 1.7054512573699245E9, -343.9511191248894, -391.1037777662277, -206.56215435266495, -28.722431659698486
 1.7054512573699245E9, -438.4957900047302, -400.6779216527939, -206.56215435266495, -110.58136188983917
 1.705451257383593E9, -404.2682256102562, -387.27412021160126, -190.04675614833832, -21.30247014760971
 1.705451257383593E9, -328.1537817120552, -392.53989934921265, -195.55188888311386, 8.8560830950737
 1.7054512573991835E9, -401.39598244428635, -390.6250705718994, -201.0570216178894, -92.86919569969177
 1.7054512573991835E9, -425.33134216070175, -376.7425619363785, -187.41386657953262, -49.306841015815735
 1.705451257399862E9, -342.51499754190445, -391.1037777662277, -186.93515938520432, 31.594674825668335
 1.705451257399862E9, -373.3916115760803, -396.8482640981674, -210.87051910161972, -58.40227770805359
 1.7054512574294386E9, -449.027348279953, -389.42830258607864, -195.55188888311386, -91.43307411670685
 1.7054512574294386E9, -372.67355078458786, -388.470888197422, -196.98801046609879, 11.24961906671524
 1.7054512574300015E9, -351.6104342341423, -402.1140432357788, -201.29637521505356, -22.49923813343048
 1.7054512574300015E9, -439.45320439338684, -399.24180006980896, -203.45055758953094, -101.48592519760132
 1.7054512574440928E9, -329.350549697876, -393.2579601407051, -207.51956874132156, 10.05285108089447
 1.7054512574440928E9, -394.2153745293617, -381.7689874768257, -204.64732557535172, -88.08212375640869
 1.7054512574448612E9, -423.4165133833885, -378.1786835193634, -181.90873384475708, -40.450757920742035
 1.7054512574448612E9, -342.99370473623276, -388.7102417945862, -186.21709859371185, 31.35532122850418
 1.705451257458567E9, -367.1684180498123, -398.5237392783165, -203.2112039923668, -53.375852167606354
 1.705451257458567E9, -440.41061878204346, -385.83799862861633, -186.69580578804016, -88.560830950737
 1.7054512574906166E9, -355.9187989830971, -365.7322964668274, -179.27584427595139, 18.90893417596817
 1.7054512574906166E9, -328.1537817120552, -381.05092668533325, -196.50930327177048, -20.10570216178894
 1.705451257491218E9, -422.4590989947319, -379.8541586995125, -192.44029211997986, -97.4169140458107
 1.705451257491218E9, -399.24180006980896, -383.68381625413895, -181.19067305326462, -12.925094246864319
 1.7054512574919567E9, -319.53705221414566, -381.52963387966156, -187.17451298236847, 19.148287773132324
 1.7054512574919567E9, -406.4224079847336, -399.9598608613014, -207.51956874132156, -93.58725649118423
 1.7054512574927275E9, -427.48552453517914, -379.8541586995125, -183.10550183057785, -52.41843777894974
 1.7054512574927275E9, -334.8556824326515, -381.2902802824974, -192.679645717144, 31.35532122850418
 1.7054512575033996E9, -352.32849502563477, -376.7425619363785, -203.45055758953094, -56.487448930740356
 1.7054512575033996E9, -435.14483964443207, -381.7689874768257, -189.0893417596817, -86.40664857625961
 1.70545125751892E9, -360.9452245235443, -377.2212691307068, -179.7545514702797, 28.722431659698486
 1.70545125751892E9, -337.4885720014572, -388.7102417945862, -194.11576730012894, -14.839923024177551
 1.7054512575342703E9, -429.6397069096565, -383.68381625413895, -191.7222313284874, -98.61368203163147
 1.7054512575342703E9, -394.9334353208542, -374.1096723675728, -170.65911477804184, -6.462547123432159
 1.7054512575348768E9, -328.1537817120552, -390.86442416906357, -195.79124248027802, 17.951519787311554
 1.7054512575348768E9, -401.1566288471222, -392.06119215488434, -202.25378960371017, -90.47565972805023
 1.7054512575485027E9, -429.6397069096565, -380.3328658938408, -187.89257377386093, -56.72680252790451
 1.7054512575485027E9, -345.3872407078743, -392.7792529463768, -193.87641370296478, 28.96178525686264
 1.7054512575643833E9, -372.67355078458786, -394.69408172369003, -211.10987269878387, -49.06748741865158
 1.7054512575643833E9, -441.3680331707001, -382.72640186548233, -193.15835291147232, -79.94410145282745
 1.7054512575649529E9, -357.354920566082, -368.60453963279724, -177.121661901474, 28.483078062534332
 1.7054512575649529E9, -341.3182295560837, -394.9334353208542, -192.44029211997986, -6.462547123432159
 1.7054512575785103E9, -429.1609997153282, -391.3431313633919, -199.86025363206863, -98.61368203163147
 1.7054512575785103E9, -414.32107669115067, -387.75282740592957, -184.06291621923447, -15.31863021850586
 1.705451257595029E9, -332.70150005817413, -381.52963387966156, -195.3125352859497, 19.38764137029648
 1.705451257595029E9, -402.5927504301071, -386.31670582294464, -209.67375111579895, -87.84277015924454
 1.70545125759554E9, -442.804154753685, -389.1889489889145, -186.456452190876, -54.33326655626297
 1.70545125759554E9, -346.58400869369507, -387.5134738087654, -194.3551208972931, 23.935359716415405
 1.7054512576090097E9, -361.4239317178726, -386.79541301727295, -204.64732557535172, -56.487448930740356
 1.7054512576090097E9, -433.70871806144714, -376.024501144886, -184.54162341356277, -92.39048850536346
 1.7054512576242125E9, -351.6104342341423, -360.70587092638016, -175.68554031848907, 17.472812592983246
 1.7054512576242125E9, -337.72792559862137, -387.9921810030937, -199.38154643774033, -22.020530939102173
 1.705451257625016E9, -425.33134216070175, -389.90700978040695, -194.3551208972931, -95.98079246282578
 1.705451257625016E9, -393.01860654354095, -371.23742920160294, -178.79713708162308, -13.882508635520935
 1.7054512576384816E9, -321.69123458862305, -378.89674431085587, -187.17451298236847, 17.951519787311554
 1.7054512576384816E9, -395.65149611234665, -387.0347666144371, -201.5357288122177, -88.80018454790115
 1.7054512576541543E9, -427.96423172950745, -379.13609790802, -185.73839139938354, -56.487448930740356
 1.7054512576541543E9, -341.3182295560837, -383.9231698513031, -188.84998816251755, 26.5682492852211
 1.7054512576548488E9, -365.2535892724991, -385.359291434288, -199.38154643774033, -51.93973058462143
 1.7054512576548488E9, -434.4267788529396, -379.13609790802, -194.8338280916214, -84.01311260461807
 1.7054512576688466E9, -371.71613639593124, -388.7102417945862, -184.06291621923447, 19.866348564624786
 1.7054512576688466E9, -349.4562518596649, -400.1992144584656, -196.03059607744217, -11.488972663879395
 1.705451257684173E9, -425.33134216070175, -380.3328658938408, -188.84998816251755, -93.82661008834839
 1.705451257684173E9, -395.65149611234665, -369.08324682712555, -186.93515938520432, -14.839923024177551
 1.7054512576848717E9, -327.1963673233986, -387.9921810030937, -198.18477845191956, 10.292204678058624
 1.7054512576848717E9, -393.7366673350334, -386.79541301727295, -200.33896082639694, -82.337637424469
 1.7054512576988885E9, -420.06556302309036, -370.04066121578217, -176.16424751281738, -41.40817230939865
 1.7054512576988885E9, -332.70150005817413, -372.19484359025955, -185.73839139938354, 33.74885720014572
 1.7054512577141793E9, -375.0670867562294, -400.91727524995804, -207.2802151441574, -51.93973058462143
 1.7054512577141793E9, -444.71898353099823, -381.7689874768257, -187.89257377386093, -85.449234187603
 1.7054512577148635E9, -364.29617488384247, -383.20510905981064, -183.344855427742, 27.046956479549408
 1.7054512577148635E9, -332.70150005817413, -396.60891050100327, -209.67375111579895, -23.69600611925125
 1.7054512577284913E9, -434.9054860472679, -392.3005457520485, -205.84409356117249, -105.07622915506363
 1.7054512577284913E9, -405.2256399989128, -379.13609790802, -193.39770650863647, -20.345055758953094
 1.7054512577616403E9, -335.573743224144, -402.83210402727127, -196.98801046609879, 18.190873384475708
 1.7054512577616403E9, -409.0552975535393, -404.7469328045845, -212.5459942817688, -90.23630613088608
 1.705451257761966E9, -437.5383756160736, -392.06119215488434, -192.2009385228157, -52.65779137611389
 1.705451257761966E9, -346.8233622908592, -386.31670582294464, -200.0996072292328, 21.30247014760971
 1.705451257763055E9, -373.15225797891617, -401.1566288471222, -215.41823744773865, -70.60931116342545
 1.705451257763055E9, -450.94217705726624, -394.9334353208542, -202.25378960371017, -95.98079246282578
 1.7054512577635307E9, -377.93932992219925, -383.9231698513031, -190.76481693983078, 15.079276621341705
 1.7054512577635307E9, -352.32849502563477, -402.83210402727127, -209.67375111579895, -21.541823744773865
 1.7054512577736E9, -451.1815306544304, -412.6456015110016, -212.78534787893295, -105.07622915506363
 1.7054512577736E9, -420.7836238145828, -395.8908497095108, -188.84998816251755, -16.754751801490784
 1.7054512577884383E9, -346.58400869369507, -400.6779216527939, -200.0996072292328, 17.472812592983246
 1.7054512577884383E9, -413.84236949682236, -408.09788316488266, -209.67375111579895, -91.91178131103516
 1.7054512578041215E9, -438.7351436018944, -389.1889489889145, -189.56804895401, -55.769388139247894
 1.7054512578041215E9, -362.1419925093651, -399.9598608613014, -193.87641370296478, 19.38764137029648
 1.7054512578048558E9, -402.35339683294296, -426.7674637436867, -227.38591730594635, -69.41254317760468
 1.7054512578048558E9, -468.4149896502495, -411.9275407195091, -209.19504392147064, -101.72527879476547
 1.7054512578184705E9, -382.9657554626465, -396.3695569038391, -199.86025363206863, 4.308364748954773
 1.7054512578184705E9, -352.0891414284706, -407.14046877622604, -207.99827593564987, -23.935359716415405
 1.705451257834436E9, -433.70871806144714, -401.6353360414505, -204.88667917251587, -100.76786440610886
 1.705451257834436E9, -406.66176158189774, -385.359291434288, -188.37128096818924, -13.164447844028473
 1.7054512578349922E9, -337.4885720014572, -399.72050726413727, -193.87641370296478, 19.866348564624786
 1.7054512578349922E9, -402.83210402727127, -399.4811536669731, -196.26994967460632, -83.05569821596146
 1.705451257864848E9, -425.0919885635376, -381.7689874768257, -176.88230830430984, -45.95589065551758
 1.705451257864848E9, -336.5311576128006, -378.89674431085587, -187.89257377386093, 29.679846048355103
 1.7054512578655756E9, -365.97165006399155, -384.64123064279556, -202.25378960371017, -50.74296259880066
 1.7054512578655756E9, -452.138945043087, -387.5134738087654, -191.2435241341591, -89.03953814506531
 1.70545125786628E9, -383.9231698513031, -393.49731373786926, -183.58420902490616, 15.557983815670013
 1.70545125786628E9, -352.0891414284706, -399.24180006980896, -197.9454248547554, -17.233458995819092
 1.7054512578786333E9, -446.15510511398315, -404.7469328045845, -204.88667917251587, -105.07622915506363
 1.7054512578786333E9, -405.9437007904053, -372.19484359025955, -177.36101549863815, -5.026425540447235
 1.705451257894613E9, -323.12735617160797, -382.72640186548233, -191.7222313284874, 26.328895688056946
 1.705451257894613E9, -404.50757920742035, -390.86442416906357, -200.5783144235611, -83.29505181312561
 1.7054512578949628E9, -441.1286795735359, -387.9921810030937, -183.58420902490616, -49.78554821014404
 1.7054512578949628E9, -345.8659479022026, -389.90700978040695, -190.52546334266663, 25.610834896564484
 1.7054512579085062E9, -359.9878101348877, -387.27412021160126, -192.2009385228157, -44.041061878204346
 1.7054512579085062E9, -442.3254475593567, -380.09351229667664, -192.679645717144, -93.10854929685593
 1.7054512579243596E9, -372.19484359025955, -385.83799862861633, -177.83972269296646, 24.89277410507202
 1.7054512579243596E9, -337.4885720014572, -389.1889489889145, -186.456452190876, 0.9574143886566162
 1.7054512579249043E9, -417.911380648613, -372.4341971874237, -193.87641370296478, -94.06596368551254
 1.7054512579249043E9, -385.83799862861633, -364.29617488384247, -173.77071154117584, -7.898668706417084
 1.705451257938516E9, -314.98933386802673, -377.93932992219925, -190.28610974550247, 29.44049245119095
 1.705451257938516E9, -384.16252344846725, -376.26385474205017, -196.74865686893463, -76.5931510925293
 1.705451257954271E9, -421.74103820323944, -377.46062272787094, -170.65911477804184, -38.057221949100494
 1.705451257954271E9, -322.4092953801155, -361.6632853150368, -168.50493240356445, 49.54619461297989
 1.7054512579549067E9, -334.8556824326515, -369.08324682712555, -177.121661901474, -26.807602882385254
 1.7054512579549067E9, -413.6030158996582, -361.9026389122009, -168.2655788064003, -67.97642159461975
 1.7054512579685373E9, -340.1214615702629, -346.8233622908592, -157.73402053117752, 38.77528274059296
 1.7054512579685373E9, -311.15967631340027, -362.6206997036934, -174.01006513834, 6.9412543177604675
 1.7054512579842713E9, -405.46499359607697, -361.18457812070847, -176.16424751281738, -76.5931510925293
 1.7054512579842713E9, -379.13609790802, -352.0891414284706, -156.7766061425209, 4.069011151790619
 1.705451257984972E9, -305.8938971757889, -364.7748820781708, -169.70170038938522, 37.81786835193634
 1.705451257984972E9, -385.5986450314522, -377.2212691307068, -184.30226981639862, -67.97642159461975
 1.7054512579987535E9, -411.4488335251808, -357.59427416324615, -171.13782197237015, -39.97205072641373
 1.7054512579987535E9, -329.1111961007118, -367.1684180498123, -169.46234679222107, 46.434597849845886
 1.7054512580141861E9, -354.7220309972763, -380.09351229667664, -189.32869535684586, -36.381746768951416
 1.7054512580141861E9, -430.8364748954773, -376.98191553354263, -183.58420902490616, -88.08212375640869
 1.7054512580148895E9, -350.41366624832153, -362.86005330085754, -157.49466693401337, 34.94562518596649
 1.7054512580148895E9, -321.4518809914589, -376.7425619363785, -180.47261226177216, 2.8722431659698486
 1.7054512580448031E9, -397.5663248896599, -361.9026389122009, -181.43002665042877, -82.8163446187973
 1.7054512580448031E9, -382.9657554626465, -353.0465558171272, -161.56367808580399, 1.9148287773132324
 1.7054512580455256E9, -311.87773710489273, -370.04066121578217, -179.51519787311554, 23.456652522087097
 1.7054512580455256E9, -388.470888197422, -385.359291434288, -190.04675614833832, -78.50797986984253
 1.7054512580462976E9, -421.9803918004036, -371.71613639593124, -169.94105398654938, -41.647525906562805
 1.7054512580462976E9, -330.54731768369675, -373.3916115760803, -175.92489391565323, 44.041061878204346
 1.7054512580586853E9, -346.58400869369507, -378.6573907136917, -197.22736406326294, -41.40817230939865
 1.7054512580586853E9, -436.34160763025284, -374.82773315906525, -177.6003690958023, -79.46539425849915
 1.70545125807415E9, -357.11556696891785, -364.5355284810066, -165.39333564043045, 32.07338201999664
 1.70545125807415E9, -320.4944666028023, -381.05092668533325, -181.19067305326462, 7.180607914924622
 1.7054512580748541E9, -417.43267345428467, -379.13609790802, -182.14808744192123, -85.68858778476715
 1.7054512580748541E9, -389.6676561832428, -363.57811409235, -166.35075002908707, 2.8722431659698486
 1.7054512580887685E9, -318.3402842283249, -374.34902596473694, -185.9777449965477, 29.44049245119095
 1.7054512580887685E9, -392.06119215488434, -383.68381625413895, -193.15835291147232, -75.15702950954437
 1.7054512581047592E9, -429.6397069096565, -372.912904381752, -182.62679463624954, -52.41843777894974
 1.7054512581047592E9, -332.70150005817413, -368.8438932299614, -179.99390506744385, 41.1688187122345
 1.7054512581191747E9, -360.70587092638016, -388.2315346002579, -194.8338280916214, -44.041061878204346
 1.7054512581191747E9, -446.15510511398315, -392.3005457520485, -188.37128096818924, -92.86919569969177
 1.7054512581199076E9, -382.72640186548233, -387.75282740592957, -184.30226981639862, 22.97794532775879
 1.7054512581199076E9, -342.7543511390686, -393.01860654354095, -193.39770650863647, -11.24961906671524
 1.705451258134954E9, -428.2035853266716, -380.3328658938408, -196.98801046609879, -95.98079246282578
 1.705451258134954E9, -401.1566288471222, -372.4341971874237, -180.95131945610046, -11.010265469551086
 1.7054512581355548E9, -323.12735617160797, -382.72640186548233, -188.84998816251755, 26.5682492852211
 1.7054512581355548E9, -398.0450320839882, -391.58248496055603, -200.0996072292328, -77.31121188402176
 1.7054512581484969E9, -441.8467403650284, -385.83799862861633, -183.344855427742, -56.966156125068665
 1.7054512581484969E9, -347.0627158880234, -392.06119215488434, -193.87641370296478, 22.738591730594635
 1.7054512581641269E9, -350.1743126511574, -380.8115730881691, -186.69580578804016, -36.860453963279724
 1.7054512581641269E9, -444.71898353099823, -388.94959539175034, -183.8235626220703, -87.36406296491623
 1.7054512581648154E9, -371.4767827987671, -372.19484359025955, -170.65911477804184, 23.69600611925125
 1.7054512581648154E9, -343.2330583333969, -390.6250705718994, -191.7222313284874, -7.65931510925293
 1.7054512581950483E9, -427.246170938015, -384.4018770456314, -183.344855427742, -91.1937205195427
 1.7054512581950483E9, -390.86442416906357, -362.6206997036934, -162.0423852801323, 4.069011151790619
 1.7054512581956017E9, -316.6648090481758, -369.801307618618, -181.19067305326462, 33.988210797309875
 1.7054512581956017E9, -385.5986450314522, -382.72640186548233, -188.37128096818924, -71.32737195491791
 1.7054512581964555E9, -428.2035853266716, -375.0670867562294, -171.3771755695343, -46.434597849845886
 1.7054512581964555E9, -342.99370473623276, -378.1786835193634, -178.07907629013062, 39.01463633775711
 1.7054512582085552E9, -358.07298135757446, -381.7689874768257, -191.7222313284874, -39.97205072641373
 1.7054512582085552E9, -440.41061878204346, -380.57221949100494, -189.80740255117416, -80.90151584148407
 1.7054512582243176E9, -364.0568212866783, -369.3226004242897, -167.30816441774368, 32.07338201999664
 1.7054512582243176E9, -341.3182295560837, -393.97602093219757, -190.76481693983078, -4.547718346118927
 1.7054512582249703E9, -423.6558669805527, -384.64123064279556, -179.99390506744385, -86.64600217342377
 1.7054512582249703E9, -393.97602093219757, -367.1684180498123, -164.675274848938, -6.7019007205963135
 1.7054512582384787E9, -323.84541696310043, -380.3328658938408, -181.43002665042877, 28.483078062534332
 1.7054512582384787E9, -388.7102417945862, -377.6999763250351, -191.96158492565155, -75.87509030103683
 1.7054512582544188E9, -430.59712129831314, -376.26385474205017, -183.344855427742, -55.05132734775543
 1.7054512582544188E9, -354.00397020578384, -399.72050726413727, -185.02033060789108, 33.988210797309875
 1.705451258254968E9, -366.689710855484, -399.9598608613014, -201.77508240938187, -51.46102339029312
 1.705451258254968E9, -442.56480115652084, -387.5134738087654, -190.76481693983078, -92.15113490819931
