 Timestamp, EXG Channel 0, EXG Channel 1, EXG Channel 2, EXG Channel 3
 1.7063894862284322E9, -432.9906572699547, -351.131727039814, -269.7515040040016, -222.83819895982742
 1.7063894862284322E9, 0.0, 0.0, 0.0, 0.0
 1.7063894862722347E9, -295.3623389005661, -365.2535892724991, -320.4944666028023, -126.13934570550919
 1.7063894862722347E9, -424.134574174881, -370.04066121578217, -296.55910688638687, -189.0893417596817
 1.7063894862868493E9, -400.43856805562973, -359.26974934339523, -286.9849629998207, -214.70017665624619
 1.7063894862868493E9, -288.89979177713394, -375.0670867562294, -329.58990329504013, -146.72375506162643
 1.7063894863013153E9, -380.3328658938408, -366.45035725831985, -305.1758363842964, -153.1863021850586
 1.7063894863013153E9, -422.21974539756775, -349.21689826250076, -270.70891839265823, -215.1788838505745
 1.7063894863020136E9, -307.8087259531021, -365.97165006399155, -306.61195796728134, -158.45208132266998
 1.7063894863020136E9, -343.47241193056107, -380.57221949100494, -321.9305881857872, -143.13345110416412
 1.7063894863158245E9, -457.8834313750267, -365.01423567533493, -281.9585374593735, -207.2802151441574
 1.7063894863158245E9, -352.0891414284706, -358.7910421490669, -291.2933277487755, -180.95131945610046
 1.7063894863315067E9, -312.35644429922104, -379.3754515051842, -329.8292568922043, -130.44771045446396
 1.7063894863315067E9, -433.9480716586113, -373.87031877040863, -293.9262173175812, -183.10550183057785
 1.7063894863320808E9, -406.66176158189774, -366.45035725831985, -284.8307806253433, -209.4343975186348
 1.7063894863320808E9, -306.3726043701172, -387.27412021160126, -332.2227928638458, -145.04827988147736
 1.706389486345606E9, -393.01860654354095, -376.024501144886, -309.72355473041534, -159.64884930849075
 1.706389486345606E9, -453.0963594317436, -376.7425619363785, -291.7720349431038, -228.34333169460297
 1.7063894863614266E9, -333.4195608496666, -385.5986450314522, -321.9305881857872, -168.2655788064003
 1.7063894863614266E9, -359.9878101348877, -395.65149611234665, -343.47241193056107, -157.73402053117752
 1.7063894863620484E9, -468.8936968445778, -384.8805842399597, -303.7397148013115, -229.06139248609543
 1.7063894863620484E9, -365.97165006399155, -373.87031877040863, -305.6545435786247, -202.01443600654602
 1.7063894863756409E9, -311.87773710489273, -381.7689874768257, -333.65891444683075, -140.97926872968674
 1.7063894863756409E9, -431.7938892841339, -366.92906445264816, -298.9526428580284, -191.00417053699493
 1.7063894863916142E9, -396.3695569038391, -357.354920566082, -286.74560940265656, -216.1362982392311
 1.7063894863916142E9, -303.02165400981903, -390.1463633775711, -335.81309682130814, -157.73402053117752
 1.706389486392028E9, -395.8908497095108, -381.05092668533325, -320.01575940847397, -183.58420902490616
 1.706389486392028E9, -445.4370443224907, -369.08324682712555, -283.3946590423584, -237.91747558116913
 1.7063894864058273E9, -311.15967631340027, -374.1096723675728, -318.10093063116074, -179.99390506744385
 1.7063894864058273E9, -349.69560545682907, -381.52963387966156, -331.50473207235336, -156.7766061425209
 1.7063894864213288E9, -464.1066249012947, -370.5193684101105, -289.6178525686264, -227.6252709031105
 1.7063894864213288E9, -361.18457812070847, -372.4341971874237, -307.09066516160965, -208.23762953281403
 1.7063894864220445E9, -326.4783065319061, -394.69408172369003, -346.3446550965309, -154.1437165737152
 1.7063894864220445E9, -439.2138507962227, -380.8115730881691, -305.1758363842964, -203.92926478385925
 1.7063894864356754E9, -408.57659035921097, -371.23742920160294, -292.49009573459625, -226.90721011161804
 1.7063894864356754E9, -311.15967631340027, -391.3431313633919, -341.55758315324783, -157.97337412834167
 1.7063894864512799E9, -413.1243087053299, -393.49731373786926, -328.1537817120552, -180.7119658589363
 1.7063894864512799E9, -451.6602378487587, -370.7587220072746, -287.463670194149, -232.41234284639359
 1.7063894864519608E9, -325.9995993375778, -384.64123064279556, -323.3667097687721, -180.233258664608
 1.7063894864519608E9, -358.07298135757446, -392.53989934921265, -341.0788759589195, -163.95721405744553
 1.706389486465597E9, -467.9362824559212, -377.6999763250351, -300.6281180381775, -229.30074608325958
 1.706389486465597E9, -362.6206997036934, -375.5457939505577, -315.46804106235504, -212.0672870874405
 1.7063894864813468E9, -323.3667097687721, -397.3269712924957, -356.63685977458954, -163.95721405744553
 1.7063894864813468E9, -447.11251950263977, -386.31670582294464, -317.6222234368324, -213.98211586475372
 1.706389486482056E9, -403.0714576244354, -369.3226004242897, -290.575266957283, -224.9923813343048
 1.706389486482056E9, -303.7397148013115, -387.9921810030937, -340.36081516742706, -158.45208132266998
 1.7063894864956129E9, -395.65149611234665, -374.34902596473694, -313.5532122850418, -172.81329715251923
 1.7063894864956129E9, -433.70871806144714, -365.7322964668274, -282.67659825086594, -232.65169644355774
 1.7063894865112696E9, -309.4842011332512, -372.4341971874237, -314.27127307653427, -173.29200434684753
 1.7063894865112696E9, -347.0627158880234, -384.64123064279556, -337.0098648071289, -158.45208132266998
 1.7063894865119748E9, -460.9950281381607, -370.9980756044388, -294.16557091474533, -232.65169644355774
 1.7063894865119748E9, -353.2859094142914, -367.6471252441406, -307.3300187587738, -203.6899111866951
 1.7063894865255997E9, -323.6060633659363, -393.2579601407051, -354.7220309972763, -160.12755650281906
 1.7063894865255997E9, -441.3680331707001, -378.41803711652756, -308.5267867445946, -213.50340867042542
 1.7063894865576353E9, -412.6456015110016, -376.98191553354263, -297.5165212750435, -231.93363565206528
 1.7063894865576353E9, -308.5267867445946, -397.3269712924957, -342.2756439447403, -164.675274848938
 1.70638948655836E9, -408.8159439563751, -391.1037777662277, -321.9305881857872, -187.89257377386093
 1.70638948655836E9, -442.56480115652084, -368.3651860356331, -279.8043550848961, -234.56652522087097
 1.706389486559128E9, -332.70150005817413, -389.1889489889145, -325.9995993375778, -183.8235626220703
 1.706389486559128E9, -363.33876049518585, -400.6779216527939, -342.99370473623276, -169.22299319505692
 1.7063894865598714E9, -446.63381230831146, -353.0465558171272, -282.67659825086594, -223.79561334848404
 1.7063894865598714E9, -350.89237344264984, -369.56195402145386, -299.19199645519257, -200.0996072292328
 1.706389486570895E9, -313.5532122850418, -383.9231698513031, -326.238952934742, -138.1070255637169
 1.706389486570895E9, -434.9054860472679, -369.3226004242897, -293.2081565260887, -191.96158492565155
 1.7063894866020308E9, -400.6779216527939, -360.9452245235443, -283.3946590423584, -213.0247014760971
 1.7063894866020308E9, -308.5267867445946, -394.69408172369003, -343.47241193056107, -161.56367808580399
 1.7063894866027844E9, -397.0876176953316, -383.20510905981064, -320.01575940847397, -175.68554031848907
 1.7063894866027844E9, -433.9480716586113, -363.57811409235, -288.42108458280563, -227.86462450027466
 1.7063894866034117E9, -309.9629083275795, -373.87031877040863, -323.84541696310043, -175.20683312416077
 1.7063894866034117E9, -340.6001687645912, -376.5032083392143, -326.4783065319061, -150.31405901908875
 1.7063894866322746E9, -461.71308892965317, -370.7587220072746, -289.85720616579056, -229.30074608325958
 1.7063894866322746E9, -354.7220309972763, -376.024501144886, -309.72355473041534, -203.6899111866951
 1.7063894866329668E9, -318.8189914226532, -394.69408172369003, -338.685339987278, -147.4418158531189
 1.7063894866329668E9, -445.19769072532654, -378.89674431085587, -301.82488602399826, -203.92926478385925
 1.7063894866334612E9, -412.1668943166733, -372.912904381752, -301.5855324268341, -230.01880687475204
 1.7063894866334612E9, -307.09066516160965, -389.6676561832428, -341.0788759589195, -158.21272772550583
 1.7063894866456103E9, -415.51784467697144, -395.65149611234665, -324.0847705602646, -181.19067305326462
 1.7063894866456103E9, -452.138945043087, -374.82773315906525, -297.27716767787933, -241.02907234430313
 1.706389486661256E9, -318.57963782548904, -386.31670582294464, -327.91442811489105, -180.47261226177216
 1.706389486661256E9, -356.15815258026123, -389.90700978040695, -342.03629034757614, -161.08497089147568
 1.7063894866619577E9, -466.97886806726456, -381.2902802824974, -306.8513115644455, -238.39618277549744
 1.7063894866619577E9, -363.81746768951416, -375.0670867562294, -313.5532122850418, -205.36538636684418
 1.706389486675561E9, -318.3402842283249, -386.79541301727295, -339.6427543759346, -149.11729103326797
 1.706389486675561E9, -434.66613245010376, -369.3226004242897, -293.44751012325287, -195.07318168878555
 1.7063894866916227E9, -408.09788316488266, -369.3226004242897, -290.0965597629547, -220.44466298818588
 1.7063894866916227E9, -309.24484753608704, -393.49731373786926, -343.2330583333969, -160.36691009998322
 1.7063894866920383E9, -408.3372367620468, -387.27412021160126, -328.6324889063835, -186.456452190876
 1.7063894866920383E9, -477.98913353681564, -401.39598244428635, -310.9203227162361, -260.17736011743546
 1.7063894867057467E9, -340.83952236175537, -407.14046877622604, -353.0465558171272, -212.0672870874405
 1.7063894867057467E9, -331.7440856695175, -371.71613639593124, -323.6060633659363, -153.6650093793869
 1.7063894867212887E9, -438.7351436018944, -358.7910421490669, -287.22431659698486, -237.43876838684082
 1.7063894867212887E9, -307.09066516160965, -333.8982680439949, -275.017283141613, -191.00417053699493
 1.706389486722008E9, -282.9159518480301, -366.2110036611557, -333.18020725250244, -161.56367808580399
 1.706389486722008E9, -353.7646166086197, -303.97906839847565, -248.92774105072021, -175.20683312416077
 1.706389486735643E9, -325.0421849489212, -304.93648278713226, -247.9703266620636, -209.9131047129631
 1.706389486735643E9, -221.64143097400665, -329.350549697876, -299.4313500523567, -153.6650093793869
 1.7063894867519984E9, -303.7397148013115, -310.68096911907196, -269.2727968096733, -160.60626369714737
 1.7063894867519984E9, -337.72792559862137, -291.2933277487755, -220.44466298818588, -209.4343975186348
 1.7063894867526932E9, -219.2478950023651, -308.5267867445946, -276.2140511274338, -166.35075002908707
 1.7063894867526932E9, -253.47545939683914, -308.7661403417587, -275.017283141613, -138.82508635520935
 1.7063894867658584E9, -357.8336277604103, -292.96880292892456, -230.01880687475204, -207.2802151441574
 1.7063894867658584E9, -261.85283529758453, -300.1494108438492, -255.15093457698822, -195.07318168878555
 1.7063894867814288E9, -225.94979572296143, -319.2976986169815, -291.7720349431038, -143.85151189565659
 1.7063894867814288E9, -359.0303957462311, -318.8189914226532, -260.8954209089279, -199.62090003490448
 1.7063894867821164E9, -314.98933386802673, -306.3726043701172, -243.18325471878052, -208.71633672714233
 1.7063894867821164E9, -211.82793349027634, -322.64864897727966, -285.5488414168358, -145.76634067296982
 1.7063894868299851E9, -327.43572092056274, -325.5208921432495, -277.88952630758286, -175.44618672132492
 1.7063894868299851E9, -376.26385474205017, -322.16994178295135, -254.91158097982407, -228.58268529176712
 1.7063894868305948E9, -246.53420507907867, -327.43572092056274, -279.56500148773193, -161.08497089147568
 1.7063894868305948E9, -289.37849897146225, -341.55758315324783, -302.0642396211624, -159.64884930849075
 1.7063894868311985E9, -395.65149611234665, -323.3667097687721, -256.10834896564484, -222.12013816833496
 1.7063894868311985E9, -293.2081565260887, -336.0524504184723, -276.6927583217621, -199.14219284057617
 1.7063894868320172E9, -263.5283104777336, -348.73819106817245, -311.3990299105644, -155.34048455953598
 1.7063894868320172E9, -385.11993783712387, -336.29180401563644, -267.8366752266884, -204.40797197818756
 1.706389486841539E9, -347.30206948518753, -331.2653784751892, -264.2463712692261, -223.07755255699158
 1.706389486841539E9, -241.02907234430313, -348.73819106817245, -307.8087259531021, -155.10113096237183
 1.70638948684201E9, -347.30206948518753, -351.37108063697815, -298.71328926086426, -179.27584427595139
 1.70638948684201E9, -388.94959539175034, -337.9672791957855, -264.96443206071854, -237.67812198400497
 1.7063894868556337E9, -260.8954209089279, -342.99370473623276, -298.9526428580284, -181.19067305326462
 1.7063894868556337E9, -304.93648278713226, -357.59427416324615, -309.9629083275795, -161.80303168296814
 1.7063894868713913E9, -411.68818712234497, -342.2756439447403, -266.40055364370346, -229.06139248609543
 1.7063894868713913E9, -309.4842011332512, -344.66917991638184, -282.67659825086594, -205.60473996400833
 1.7063894868720384E9, -282.1978910565376, -367.40777164697647, -330.7866712808609, -163.23915326595306
 1.7063894868720384E9, -385.11993783712387, -337.0098648071289, -273.3418079614639, -198.66348564624786
 1.7063894868858802E9, -356.15815258026123, -338.2066327929497, -269.99085760116577, -225.47108852863312
 1.7063894868858802E9, -255.62964177131653, -358.07298135757446, -315.46804106235504, -158.45208132266998
 1.7063894869013088E9, -356.8762133717537, -352.8072022199631, -297.9952284693718, -178.79713708162308
 1.7063894869013088E9, -390.86442416906357, -328.39313530921936, -258.5018849372864, -230.01880687475204
 1.7063894869020498E9, -274.0598687529564, -348.4988374710083, -300.38876444101334, -172.81329715251923
 1.7063894869020498E9, -304.6971291899681, -352.5678486227989, -303.7397148013115, -151.51082700490952
 1.7063894869156272E9, -406.1830543875694, -334.3769752383232, -258.74123853445053, -220.9233701825142
 1.7063894869156272E9, -304.93648278713226, -337.4885720014572, -279.0862942934036, -194.8338280916214
 1.7063894869315228E9, -279.3256478905678, -363.81746768951416, -320.4944666028023, -146.24504786729813
 1.7063894869315228E9, -406.9011151790619, -356.63685977458954, -284.11271983385086, -200.33896082639694
 1.7063894869321313E9, -373.87031877040863, -353.7646166086197, -282.1978910565376, -229.30074608325958
 1.7063894869321313E9, -276.6927583217621, -372.912904381752, -331.98343926668167, -162.28173887729645
 1.706389486945934E9, -371.9554899930954, -365.7322964668274, -311.87773710489273, -176.40360110998154
 1.706389486945934E9, -419.58685582876205, -354.48267740011215, -276.2140511274338, -233.8484644293785
 1.706389486961334E9, -293.686863720417, -364.7748820781708, -313.0745050907135, -174.4887723326683
 1.706389486961334E9, -326.4783065319061, -371.23742920160294, -320.01575940847397, -157.73402053117752
 1.7063894869621804E9, -428.6822925209999, -349.9349590539932, -274.77792954444885, -223.31690615415573
 1.7063894869621804E9, -327.6750745177269, -353.0465558171272, -288.1817309856415, -193.63706010580063
 1.7063894869756236E9, -292.01138854026794, -375.0670867562294, -334.13762164115906, -155.57983815670013
 1.7063894869756236E9, -414.5604302883148, -358.55168855190277, -290.8146205544472, -204.88667917251587
 1.706389486991366E9, -377.2212691307068, -352.32849502563477, -280.2830622792244, -216.61500543355942
 1.706389486991366E9, -272.3843935728073, -369.3226004242897, -327.91442811489105, -157.01595973968506
 1.7063894869920027E9, -379.8541586995125, -369.801307618618, -312.35644429922104, -181.19067305326462
 1.7063894869920027E9, -415.7571982741356, -351.131727039814, -269.2727968096733, -229.30074608325958
 1.7063894870062523E9, -284.8307806253433, -361.6632853150368, -312.5957978963852, -176.88230830430984
 1.7063894870062523E9, -338.685339987278, -378.6573907136917, -329.1111961007118, -165.87204283475876
 1.70638948702138E9, -440.1712651848793, -354.243323802948, -279.0862942934036, -231.45492845773697
 1.70638948702138E9, -333.65891444683075, -356.63685977458954, -304.6971291899681, -205.12603276968002
 1.7063894870220227E9, -291.2933277487755, -365.97165006399155, -328.6324889063835, -146.48440146446228
 1.7063894870220227E9, -412.40624791383743, -355.6794453859329, -290.33591336011887, -202.97185039520264
 1.7063894870358162E9, -385.5986450314522, -364.29617488384247, -289.85720616579056, -228.58268529176712
 1.7063894870358162E9, -292.7294493317604, -386.79541301727295, -339.1640471816063, -164.19656765460968
 1.7063894870517063E9, -401.87468963861465, -387.5134738087654, -322.4092953801155, -187.89257377386093
 1.7063894870517063E9, -432.9906572699547, -372.67355078458786, -288.89979177713394, -237.91747558116913
 1.7063894870520089E9, -305.1758363842964, -374.34902596473694, -326.238952934742, -183.8235626220703
 1.7063894870520089E9, -348.9775446653366, -385.5986450314522, -333.8982680439949, -167.786871612072
 1.7063894870655904E9, -436.34160763025284, -355.9187989830971, -281.00112307071686, -222.35949176549911
 1.7063894870655904E9, -337.24921840429306, -362.1419925093651, -296.798460483551, -193.15835291147232
 1.706389487081349E9, -309.9629083275795, -383.4444626569748, -337.4885720014572, -150.79276621341705
 1.706389487081349E9, -416.47525906562805, -360.22716373205185, -291.53268134593964, -202.49314320087433
 1.7063894870820792E9, -380.09351229667664, -357.59427416324615, -282.1978910565376, -216.61500543355942
 1.7063894870820792E9, -275.017283141613, -371.23742920160294, -328.39313530921936, -152.94694858789444
 1.7063894870961473E9, -387.5134738087654, -371.71613639593124, -310.9203227162361, -179.27584427595139
 1.7063894870961473E9, -425.33134216070175, -361.9026389122009, -280.04370868206024, -234.32717162370682
 1.706389487111205E9, -297.27716767787933, -369.56195402145386, -315.7073946595192, -174.9674795269966
 1.706389487111205E9, -350.41366624832153, -388.470888197422, -327.43572092056274, -166.82945722341537
 1.7063894871263113E9, -451.89959144592285, -368.8438932299614, -286.9849629998207, -234.56652522087097
 1.7063894871263113E9, -344.908533513546, -370.7587220072746, -305.8938971757889, -203.6899111866951
 1.7063894871269574E9, -307.8087259531021, -380.09351229667664, -335.3343896269798, -151.75018060207367
 1.7063894871269574E9, -429.40035331249237, -368.8438932299614, -298.23458206653595, -204.64732557535172
 1.7063894871423867E9, -393.97602093219757, -362.86005330085754, -291.2933277487755, -226.90721011161804
 1.7063894871423867E9, -289.37849897146225, -376.024501144886, -333.4195608496666, -158.45208132266998
 1.706389487156342E9, -397.0876176953316, -384.64123064279556, -313.0745050907135, -184.54162341356277
 1.706389487156342E9, -438.4957900047302, -371.9554899930954, -277.6501727104187, -235.28458601236343
 1.7063894871570165E9, -315.94674825668335, -386.31670582294464, -324.32412415742874, -181.90873384475708
 1.7063894871570165E9, -356.3975061774254, -388.2315346002579, -337.9672791957855, -172.33458995819092
 1.706389487171333E9, -453.3357130289078, -365.49294286966324, -288.1817309856415, -235.5239396095276
 1.706389487171333E9, -344.908533513546, -364.0568212866783, -302.7823004126549, -207.2802151441574
 1.706389487172056E9, -312.1170907020569, -387.75282740592957, -339.1640471816063, -161.80303168296814
 1.706389487172056E9, -451.42088425159454, -387.0347666144371, -307.56937235593796, -221.64143097400665
 1.7063894871859956E9, -399.0024464726448, -373.3916115760803, -286.0275486111641, -225.71044212579727
 1.7063894871859956E9, -296.798460483551, -386.5560594201088, -340.1214615702629, -161.80303168296814
 1.7063894872013216E9, -397.3269712924957, -375.0670867562294, -313.79256588220596, -181.43002665042877
 1.7063894872013216E9, -438.0170828104019, -365.49294286966324, -283.15530544519424, -233.8484644293785
 1.706389487202025E9, -309.72355473041534, -381.7689874768257, -323.12735617160797, -183.8235626220703
 1.706389487202025E9, -352.5678486227989, -385.83799862861633, -334.13762164115906, -168.98363959789276
 1.7063894872155902E9, -457.8834313750267, -370.5193684101105, -286.26690220832825, -235.76329320669174
 1.7063894872155902E9, -364.29617488384247, -384.64123064279556, -317.6222234368324, -219.2478950023651
 1.706389487231528E9, -331.98343926668167, -402.83210402727127, -347.5414230823517, -163.71786046028137
 1.706389487231528E9, -451.6602378487587, -387.9921810030937, -309.0054939389229, -221.64143097400665
 1.7063894872320535E9, -414.5604302883148, -385.359291434288, -307.8087259531021, -244.14066910743713
 1.7063894872320535E9, -296.3197532892227, -379.3754515051842, -329.58990329504013, -148.3992302417755
 1.7063894872460637E9, -408.57659035921097, -382.72640186548233, -318.8189914226532, -181.66938024759293
 1.7063894872460637E9, -436.1022540330887, -365.2535892724991, -283.8733662366867, -230.01880687475204
 1.7063894872606382E9, -317.3828698396683, -377.46062272787094, -325.0421849489212, -174.72812592983246
 1.7063894872606382E9, -354.7220309972763, -380.3328658938408, -327.6750745177269, -157.49466693401337
 1.706389487276308E9, -364.5355284810066, -377.46062272787094, -301.5855324268341, -195.55188888311386
 1.706389487276308E9, -333.4195608496666, -391.1037777662277, -333.18020725250244, -144.3302190899849
 1.7063894872770753E9, -455.250541806221, -380.3328658938408, -303.97906839847565, -206.08344715833664
 1.7063894872770753E9, -408.57659035921097, -370.7587220072746, -287.463670194149, -218.2904806137085
 1.7063894872906656E9, -306.61195796728134, -385.5986450314522, -335.0950360298157, -150.0747054219246
 1.7063894872906656E9, -400.91727524995804, -372.912904381752, -317.8615770339966, -170.41976118087769
 1.7063894873063142E9, -441.3680331707001, -370.04066121578217, -286.0275486111641, -233.13040363788605
 1.7063894873063142E9, -316.6648090481758, -381.2902802824974, -324.5634777545929, -171.61652916669846
 1.7063894873070824E9, -366.2110036611557, -387.5134738087654, -330.54731768369675, -155.34048455953598
 1.7063894873070824E9, -456.9260169863701, -366.2110036611557, -288.89979177713394, -223.55625975131989
 1.7063894873205678E9, -344.1904727220535, -365.7322964668274, -308.04807955026627, -197.22736406326294
 1.7063894873205678E9, -323.3667097687721, -388.2315346002579, -341.3182295560837, -151.27147340774536
 1.706389487336311E9, -433.70871806144714, -360.22716373205185, -295.8410460948944, -199.62090003490448
 1.706389487336311E9, -389.1889489889145, -356.8762133717537, -283.15530544519424, -210.3918119072914
 1.7063894873370311E9, -297.5165212750435, -380.3328658938408, -329.1111961007118, -148.15987664461136
 1.7063894873370311E9, -406.9011151790619, -381.7689874768257, -307.8087259531021, -172.57394355535507
 1.7063894873836102E9, -444.9583371281624, -369.3226004242897, -286.0275486111641, -231.93363565206528
 1.7063894873836102E9, -318.8189914226532, -382.9657554626465, -325.0421849489212, -167.54751801490784
 1.7063894873841863E9, -358.55168855190277, -390.1463633775711, -332.46214646101, -149.35664463043213
 1.7063894873841863E9, -460.27696734666824, -369.56195402145386, -290.575266957283, -223.07755255699158
 1.7063894873848789E9, -355.9187989830971, -372.4341971874237, -313.0745050907135, -198.18477845191956
 1.7063894873848789E9, -334.3769752383232, -400.6779216527939, -348.02013027668, -154.38307017087936
 1.706389487385667E9, -447.83058029413223, -377.93932992219925, -301.82488602399826, -203.6899111866951
 1.706389487385667E9, -395.8908497095108, -365.01423567533493, -296.55910688638687, -218.7691878080368
 1.706389487396268E9, -307.8087259531021, -390.1463633775711, -343.9511191248894, -158.9307885169983
 1.706389487396268E9, -406.1830543875694, -385.11993783712387, -322.64864897727966, -184.06291621923447
 1.7063894873969939E9, -437.0596684217453, -368.8438932299614, -288.1817309856415, -226.90721011161804
 1.7063894873969939E9, -310.9203227162361, -377.46062272787094, -318.3402842283249, -169.46234679222107
 1.7063894874108937E9, -358.3123349547386, -387.27412021160126, -331.2653784751892, -159.17014211416245
 1.7063894874108937E9, -469.8511112332344, -375.78514754772186, -289.6178525686264, -226.42850291728973
 1.7063894874265964E9, -375.5457939505577, -391.1037777662277, -321.69123458862305, -210.3918119072914
 1.7063894874265964E9, -356.15815258026123, -410.73077273368835, -365.97165006399155, -170.18040758371353
 1.7063894874270024E9, -442.08609396219254, -373.3916115760803, -301.34617882966995, -205.60473996400833
 1.7063894874270024E9, -390.38571697473526, -365.97165006399155, -291.7720349431038, -220.68401658535004
 1.706389487440626E9, -283.15530544519424, -372.912904381752, -336.29180401563644, -158.9307885169983
 1.706389487440626E9, -385.83799862861633, -371.23742920160294, -320.4944666028023, -191.7222313284874
 1.7063894874567556E9, -409.5340047478676, -346.8233622908592, -273.5811615586281, -235.5239396095276
 1.7063894874567556E9, -292.01138854026794, -368.60453963279724, -320.73382019996643, -179.27584427595139
 1.7063894874713013E9, -346.8233622908592, -376.26385474205017, -331.98343926668167, -169.22299319505692
 1.7063894874713013E9, -437.5383756160736, -358.3123349547386, -282.9159518480301, -236.9600611925125
 1.706389487472023E9, -339.1640471816063, -367.6471252441406, -319.05834501981735, -218.2904806137085
 1.706389487472023E9, -317.3828698396683, -386.31670582294464, -347.30206948518753, -168.2655788064003
 1.7063894874865954E9, -434.18742525577545, -373.3916115760803, -310.4416155219078, -224.75302773714066
 1.7063894874865954E9, -385.83799862861633, -362.38134610652924, -294.64427810907364, -231.69428205490112
 1.7063894874871216E9, -287.463670194149, -379.6148051023483, -341.3182295560837, -166.82945722341537
 1.7063894874871216E9, -392.06119215488434, -374.1096723675728, -316.42545545101166, -192.44029211997986
 1.7063894875006E9, -424.134574174881, -363.33876049518585, -285.0701342225075, -244.61937630176544
 1.7063894875006E9, -297.27716767787933, -368.3651860356331, -324.5634777545929, -183.58420902490616
 1.7063894875163178E9, -348.4988374710083, -375.78514754772186, -331.2653784751892, -179.7545514702797
 1.7063894875163178E9, -456.4473097920418, -368.3651860356331, -290.8146205544472, -240.78971874713898
 1.7063894875169704E9, -349.9349590539932, -375.5457939505577, -303.50036120414734, -207.2802151441574
 1.7063894875169704E9, -318.10093063116074, -386.0773522257805, -337.72792559862137, -161.80303168296814
 1.7063894875308535E9, -430.8364748954773, -369.08324682712555, -294.64427810907364, -213.26405507326126
 1.7063894875308535E9, -387.0347666144371, -363.81746768951416, -288.89979177713394, -227.6252709031105
 1.7063894875467165E9, -284.8307806253433, -382.00834107398987, -335.81309682130814, -163.71786046028137
 1.7063894875467165E9, -398.28438568115234, -376.7425619363785, -313.5532122850418, -187.89257377386093
 1.7063894875472577E9, -431.55453568696976, -367.1684180498123, -284.352073431015, -237.91747558116913
 1.7063894875472577E9, -310.9203227162361, -384.8805842399597, -322.64864897727966, -179.7545514702797
 1.706389487561112E9, -359.74845653772354, -393.49731373786926, -335.81309682130814, -173.77071154117584
 1.706389487561112E9, -456.2079561948776, -373.3916115760803, -290.0965597629547, -246.53420507907867
 1.706389487576396E9, -344.908533513546, -373.6309651732445, -303.02165400981903, -208.9556903243065
 1.706389487576396E9, -317.6222234368324, -387.0347666144371, -341.0788759589195, -160.60626369714737
 1.7063894875771062E9, -434.9054860472679, -365.49294286966324, -291.2933277487755, -213.98211586475372
 1.7063894875771062E9, -388.2315346002579, -367.40777164697647, -287.463670194149, -226.6678565144539
 1.7063894875906155E9, -286.5062558054924, -379.13609790802, -336.0524504184723, -160.12755650281906
 1.7063894875906155E9, -399.0024464726448, -374.34902596473694, -313.31385868787766, -190.76481693983078
 1.7063894876065176E9, -421.74103820323944, -356.3975061774254, -280.04370868206024, -234.80587881803513
 1.7063894876065176E9, -302.5429468154907, -370.5193684101105, -321.21252739429474, -176.16424751281738
 1.7063894876071413E9, -347.30206948518753, -373.6309651732445, -317.6222234368324, -153.42565578222275
 1.7063894876071413E9, -456.68666338920593, -366.92906445264816, -280.52241587638855, -228.34333169460297
 1.706389487620686E9, -343.7117655277252, -362.86005330085754, -293.2081565260887, -190.04675614833832
 1.706389487620686E9, -312.83515149354935, -379.13609790802, -330.06861048936844, -148.15987664461136
 1.706389487636701E9, -435.3841932415962, -365.2535892724991, -287.22431659698486, -206.3228007555008
 1.706389487636701E9, -383.20510905981064, -353.0465558171272, -280.04370868206024, -216.1362982392311
 1.7063894876371565E9, -293.686863720417, -382.9657554626465, -336.29180401563644, -155.8191917538643
 1.7063894876371565E9, -404.98628640174866, -378.41803711652756, -314.98933386802673, -186.456452190876
 1.7063894876506307E9, -428.92164611816406, -360.9452245235443, -283.63401263952255, -237.67812198400497
 1.7063894876506307E9, -299.19199645519257, -370.9980756044388, -315.7073946595192, -166.1113964319229
 1.7063894876663604E9, -354.7220309972763, -379.6148051023483, -322.64864897727966, -158.9307885169983
 1.7063894876663604E9, -456.2079561948776, -366.689710855484, -280.2830622792244, -226.18914932012558
 1.706389487667074E9, -347.78077667951584, -374.1096723675728, -309.9629083275795, -203.45055758953094
 1.706389487667074E9, -329.58990329504013, -393.7366673350334, -349.21689826250076, -163.71786046028137
 1.7063894876807575E9, -446.63381230831146, -369.08324682712555, -299.4313500523567, -213.26405507326126
 1.7063894876807575E9, -401.6353360414505, -370.9980756044388, -298.23458206653595, -226.6678565144539
 1.706389487697245E9, -310.4416155219078, -392.7792529463768, -342.51499754190445, -159.17014211416245
 1.706389487697245E9, -415.7571982741356, -396.60891050100327, -322.64864897727966, -194.11576730012894
 1.7063894877114663E9, -436.580961227417, -373.6309651732445, -288.6604381799698, -236.4813539981842
 1.7063894877114663E9, -316.6648090481758, -390.86442416906357, -336.0524504184723, -182.14808744192123
 1.7063894877120805E9, -371.23742920160294, -400.1992144584656, -346.8233622908592, -172.09523636102676
 1.7063894877120805E9, -479.42525511980057, -390.86442416906357, -317.8615770339966, -250.36386263370514
 1.7063894877263384E9, -365.7322964668274, -399.4811536669731, -326.238952934742, -216.37565183639526
 1.7063894877263384E9, -348.02013027668, -419.8262094259262, -364.5355284810066, -176.6429547071457
 1.7063894877270508E9, -469.13305044174194, -400.1992144584656, -322.4092953801155, -230.2581604719162
 1.7063894877270508E9, -421.022977411747, -401.39598244428635, -318.10093063116074, -243.90131551027298
 1.7063894877405903E9, -317.6222234368324, -410.0127119421959, -363.0994068980217, -174.24941873550415
 1.7063894877405903E9, -426.5281101465225, -407.3798223733902, -339.6427543759346, -201.0570216178894
 1.7063894877565928E9, -460.0376137495041, -394.9334353208542, -323.84541696310043, -266.1612000465393
 1.7063894877565928E9, -340.1214615702629, -414.5604302883148, -360.70587092638016, -207.04086154699326
 1.7063894877570846E9, -379.3754515051842, -415.0391374826431, -365.97165006399155, -187.89257377386093
 1.7063894877570846E9, -477.7497799396515, -396.13020330667496, -313.5532122850418, -254.91158097982407
 1.7063894877708259E9, -360.9452245235443, -393.01860654354095, -332.46214646101, -215.41823744773865
 1.7063894877708259E9, -335.3343896269798, -411.4488335251808, -360.9452245235443, -169.22299319505692
 1.7063894877863004E9, -450.94217705726624, -383.4444626569748, -312.83515149354935, -219.96595579385757
 1.7063894877863004E9, -402.83210402727127, -380.3328658938408, -314.7499802708626, -234.32717162370682
 1.706389487787212E9, -313.79256588220596, -406.1830543875694, -359.0303957462311, -170.898468375206
 1.706389487787212E9, -409.0552975535393, -386.5560594201088, -322.8880025744438, -192.44029211997986
 1.7063894878006816E9, -430.59712129831314, -371.9554899930954, -289.1391453742981, -231.93363565206528
 1.7063894878006816E9, -303.2610076069832, -381.7689874768257, -325.9995993375778, -171.8558827638626
 1.7063894878171785E9, -357.59427416324615, -386.31670582294464, -342.03629034757614, -168.7442860007286
 1.7063894878171785E9, -449.5060554742813, -365.49294286966324, -291.7720349431038, -235.04523241519928
 1.7063894878172472E9, -343.2330583333969, -372.912904381752, -311.87773710489273, -202.01443600654602
 1.7063894878172472E9, -326.95701372623444, -398.5237392783165, -352.8072022199631, -168.98363959789276
 1.7063894878470511E9, -455.96860259771347, -392.3005457520485, -314.98933386802673, -230.2581604719162
 1.7063894878470511E9, -406.9011151790619, -378.1786835193634, -308.04807955026627, -230.97622126340866
 1.7063894878477612E9, -310.4416155219078, -402.35339683294296, -359.0303957462311, -171.61652916669846
 1.7063894878477612E9, -425.0919885635376, -398.28438568115234, -335.0950360298157, -204.64732557535172
 1.7063894878485503E9, -444.00092273950577, -380.3328658938408, -295.8410460948944, -247.9703266620636
 1.7063894878485503E9, -311.3990299105644, -383.9231698513031, -328.1537817120552, -179.03649067878723
 1.7063894878608513E9, -357.354920566082, -388.94959539175034, -331.2653784751892, -166.1113964319229
 1.7063894878608513E9, -453.57506662607193, -366.45035725831985, -285.5488414168358, -236.72070759534836
 1.7063894878763523E9, -343.47241193056107, -372.67355078458786, -315.46804106235504, -207.04086154699326
 1.7063894878763523E9, -333.65891444683075, -392.06119215488434, -351.84978783130646, -164.19656765460968
 1.706389487877065E9, -454.7718346118927, -384.64123064279556, -301.1068252325058, -225.71044212579727
 1.706389487877065E9, -405.46499359607697, -380.57221949100494, -303.50036120414734, -237.43876838684082
 1.706389487890663E9, -304.2184219956398, -397.3269712924957, -342.51499754190445, -168.7442860007286
 1.706389487890663E9, -419.58685582876205, -392.3005457520485, -321.69123458862305, -201.29637521505356
 1.7063894879228451E9, -438.7351436018944, -373.3916115760803, -288.42108458280563, -246.53420507907867
 1.7063894879228451E9, -301.1068252325058, -374.5883795619011, -327.91442811489105, -177.6003690958023
 1.7063894879234066E9, -366.92906445264816, -388.94959539175034, -331.50473207235336, -170.41976118087769
 1.7063894879234066E9, -465.0640392899513, -377.46062272787094, -292.2507421374321, -242.2258403301239
 1.7063894879241717E9, -340.83952236175537, -374.82773315906525, -307.8087259531021, -205.60473996400833
 1.7063894879241717E9, -325.5208921432495, -395.65149611234665, -345.62659430503845, -164.43592125177383
 1.7063894879249024E9, -451.89959144592285, -381.52963387966156, -300.38876444101334, -226.18914932012558
 1.7063894879249024E9, -400.6779216527939, -373.3916115760803, -306.61195796728134, -242.94390112161636
 1.7063894879357836E9, -310.4416155219078, -394.9334353208542, -349.69560545682907, -170.65911477804184
 1.7063894879357836E9, -414.0817230939865, -386.79541301727295, -322.8880025744438, -198.66348564624786
 1.7063894879506412E9, -426.0494029521942, -361.6632853150368, -281.47983026504517, -239.83230435848236
 1.7063894879506412E9, -308.7661403417587, -378.6573907136917, -324.80283135175705, -179.7545514702797
 1.706389487966566E9, -353.7646166086197, -381.05092668533325, -322.8880025744438, -163.47850686311722
 1.706389487966566E9, -459.3195529580116, -373.3916115760803, -290.33591336011887, -237.91747558116913
 1.7063894879670951E9, -345.14788711071014, -380.3328658938408, -307.8087259531021, -203.6899111866951
 1.7063894879670951E9, -319.7764058113098, -389.90700978040695, -347.30206948518753, -159.64884930849075
 1.7063894879806051E9, -463.86727130413055, -392.06119215488434, -309.4842011332512, -223.31690615415573
 1.7063894879806051E9, -401.87468963861465, -379.13609790802, -298.4739356637001, -224.27432054281235
 1.706389487996405E9, -300.6281180381775, -392.7792529463768, -343.47241193056107, -158.69143491983414
 1.706389487996405E9, -408.09788316488266, -379.3754515051842, -315.2286874651909, -184.78097701072693
 1.7063894879970388E9, -434.18742525577545, -370.2800148129463, -289.1391453742981, -237.43876838684082
 1.7063894879970388E9, -306.61195796728134, -380.3328658938408, -324.32412415742874, -172.33458995819092
 1.7063894880110507E9, -355.2007381916046, -387.0347666144371, -330.54731768369675, -166.1113964319229
 1.7063894880110507E9, -446.63381230831146, -357.11556696891785, -281.240476667881, -230.2581604719162
 1.706389488026332E9, -340.83952236175537, -370.7587220072746, -307.09066516160965, -201.5357288122177
 1.706389488026332E9, -336.29180401563644, -403.7895184159279, -342.7543511390686, -161.56367808580399
 1.7063894880270736E9, -456.68666338920593, -386.0773522257805, -309.4842011332512, -227.38591730594635
 1.7063894880270736E9, -397.3269712924957, -373.87031877040863, -300.38876444101334, -229.54009968042374
 1.7063894880406768E9, -295.60169249773026, -387.0347666144371, -343.7117655277252, -160.60626369714737
 1.7063894880406768E9, -409.5340047478676, -380.8115730881691, -318.57963782548904, -196.26994967460632
 1.706389488056618E9, -433.9480716586113, -365.7322964668274, -291.2933277487755, -242.94390112161636
 1.706389488056618E9, -303.50036120414734, -375.0670867562294, -329.8292568922043, -174.9674795269966
 1.706389488057191E9, -355.6794453859329, -380.3328658938408, -326.238952934742, -160.36691009998322
 1.706389488057191E9, -446.63381230831146, -363.33876049518585, -275.017283141613, -220.20530939102173
 1.7063894880709057E9, -341.55758315324783, -374.34902596473694, -301.34617882966995, -190.76481693983078
 1.7063894880709057E9, -314.98933386802673, -380.3328658938408, -336.29180401563644, -145.04827988147736
 1.7063894880863788E9, -453.0963594317436, -376.98191553354263, -300.1494108438492, -212.30664068460464
 1.7063894880863788E9, -391.58248496055603, -368.3651860356331, -297.27716767787933, -218.7691878080368
 1.7063894880870695E9, -310.68096911907196, -397.5663248896599, -350.1743126511574, -158.45208132266998
 1.7063894880870695E9, -419.3475022315979, -386.31670582294464, -325.5208921432495, -189.80740255117416
 1.7063894881008675E9, -443.04350835084915, -382.72640186548233, -294.16557091474533, -243.18325471878052
 1.7063894881008675E9, -321.69123458862305, -392.3005457520485, -331.7440856695175, -175.92489391565323
 1.7063894881164024E9, -366.689710855484, -397.0876176953316, -338.44598639011383, -165.6326892375946
 1.7063894881164024E9, -462.1917961239815, -373.87031877040863, -294.4049245119095, -241.02907234430313
 1.7063894881170604E9, -343.9511191248894, -375.78514754772186, -310.9203227162361, -194.11576730012894
 1.7063894881170604E9, -331.02602487802505, -391.58248496055603, -346.3446550965309, -155.8191917538643
 1.7063894881306522E9, -452.6176522374153, -379.6148051023483, -304.45777559280396, -214.70017665624619
 1.7063894881306522E9, -398.5237392783165, -380.3328658938408, -302.30359321832657, -224.27432054281235
 1.7063894881467872E9, -305.1758363842964, -388.7102417945862, -340.6001687645912, -151.98953419923782
 1.7063894881467872E9, -409.0552975535393, -378.1786835193634, -311.6383835077286, -182.3874410390854
 1.7063894881472175E9, -435.6235468387604, -371.71613639593124, -281.9585374593735, -227.38591730594635
 1.7063894881472175E9, -305.1758363842964, -383.20510905981064, -330.06861048936844, -170.898468375206
 1.706389488160704E9, -360.9452245235443, -386.5560594201088, -332.70150005817413, -164.675274848938
 1.706389488160704E9, -452.138945043087, -368.60453963279724, -284.59142702817917, -229.06139248609543
 1.706389488176432E9, -348.25948387384415, -376.98191553354263, -317.3828698396683, -198.66348564624786
 1.706389488176432E9, -330.7866712808609, -394.69408172369003, -344.1904727220535, -157.73402053117752
 1.706389488177018E9, -447.5912266969681, -376.26385474205017, -294.8836317062378, -209.4343975186348
 1.706389488177018E9, -381.05092668533325, -361.6632853150368, -290.0965597629547, -213.98211586475372
 1.706389488190894E9, -296.08039969205856, -382.72640186548233, -343.2330583333969, -152.22888779640198
 1.706389488190894E9, -410.73077273368835, -376.26385474205017, -313.0745050907135, -183.10550183057785
 1.706389488207111E9, -433.469364464283, -368.8438932299614, -291.53268134593964, -240.78971874713898
 1.706389488207111E9, -311.3990299105644, -381.2902802824974, -332.2227928638458, -176.88230830430984
 1.7063894882071695E9, -363.33876049518585, -385.83799862861633, -328.39313530921936, -165.1539820432663
 1.7063894882071695E9, -456.9260169863701, -362.1419925093651, -278.36823350191116, -224.5136741399765
 1.7063894882206724E9, -334.13762164115906, -366.45035725831985, -309.0054939389229, -191.7222313284874
 1.7063894882206724E9, -315.7073946595192, -382.9657554626465, -331.2653784751892, -144.3302190899849
 1.706389488236326E9, -439.93191158771515, -370.2800148129463, -295.3623389005661, -209.19504392147064
 1.706389488236326E9, -388.7102417945862, -369.801307618618, -288.1817309856415, -214.93953025341034
 1.706389488237047E9, -310.68096911907196, -392.06119215488434, -336.5311576128006, -154.38307017087936
 1.706389488237047E9, -420.06556302309036, -387.0347666144371, -308.5267867445946, -189.32869535684586
 1.7063894882662916E9, -433.23001086711884, -373.3916115760803, -294.64427810907364, -240.07165795564651
 1.7063894882662916E9, -312.1170907020569, -385.5986450314522, -326.238952934742, -177.83972269296646
 1.7063894882670069E9, -356.63685977458954, -379.3754515051842, -327.91442811489105, -171.8558827638626
 1.7063894882670069E9, -454.7718346118927, -367.40777164697647, -300.38876444101334, -258.74123853445053
 1.70638948828152E9, -318.57963782548904, -373.87031877040863, -321.9305881857872, -139.78250074386597
 1.70638948828152E9, -445.915751516819, -362.38134610652924, -282.9159518480301, -198.66348564624786
 1.7063894882822416E9, -399.4811536669731, -362.1419925093651, -285.30948781967163, -203.92926478385925
 1.7063894882822416E9, -316.42545545101166, -381.05092668533325, -320.2551130056381, -132.3625392317772
 1.7063894882957752E9, -426.5281101465225, -370.04066121578217, -289.37849897146225, -150.5534126162529
 1.7063894882957752E9, -461.71308892965317, -370.5193684101105, -274.5385759472847, -204.40797197818756
 1.706389488311302E9, -332.70150005817413, -373.87031877040863, -312.5957978963852, -136.19219678640366
 1.706389488311302E9, -398.28438568115234, -389.1889489889145, -324.32412415742874, -141.6973295211792
 1.706389488312013E9, -488.7600454092026, -374.82773315906525, -276.2140511274338, -208.23762953281403
 1.706389488312013E9, -369.3226004242897, -371.71613639593124, -300.86747163534164, -168.7442860007286
 1.7063894883256557E9, -356.8762133717537, -391.58248496055603, -330.54731768369675, -129.96900326013565
 1.7063894883256557E9, -476.31365835666656, -374.5883795619011, -291.7720349431038, -197.70607125759125
 1.7063894883415651E9, -427.48552453517914, -378.1786835193634, -286.74560940265656, -199.38154643774033
 1.7063894883415651E9, -330.06861048936844, -388.94959539175034, -331.7440856695175, -131.40512484312057
 1.706389488342049E9, -439.2138507962227, -378.89674431085587, -309.0054939389229, -165.1539820432663
 1.706389488342049E9, -454.2931274175644, -373.6309651732445, -271.4269791841507, -213.0247014760971
 1.706389488355802E9, -343.9511191248894, -394.4547281265259, -325.28153854608536, -153.42565578222275
 1.706389488355802E9, -394.9334353208542, -393.7366673350334, -330.54731768369675, -149.11729103326797
 1.7063894883712833E9, -487.0845702290535, -372.67355078458786, -280.2830622792244, -214.46082305908203
 1.7063894883712833E9, -372.19484359025955, -383.4444626569748, -310.68096911907196, -182.62679463624954
 1.7063894883720195E9, -357.59427416324615, -397.0876176953316, -342.2756439447403, -140.02185434103012
 1.7063894883720195E9, -477.7497799396515, -379.6148051023483, -296.08039969205856, -198.90283924341202
 1.7063894883856611E9, -410.25206553936005, -368.12583243846893, -285.30948781967163, -199.38154643774033
 1.7063894883856611E9, -322.4092953801155, -389.90700978040695, -332.9408536553383, -138.5857327580452
 1.7063894884015963E9, -435.6235468387604, -382.4870482683182, -310.4416155219078, -173.5313579440117
 1.7063894884015963E9, -453.57506662607193, -367.40777164697647, -277.1714655160904, -214.93953025341034
 1.706389488402132E9, -328.1537817120552, -377.46062272787094, -320.2551130056381, -153.90436297655106
 1.706389488402132E9, -382.00834107398987, -378.6573907136917, -315.94674825668335, -142.1760367155075
 1.7063894884156637E9, -475.35624396800995, -362.38134610652924, -277.6501727104187, -210.87051910161972
 1.7063894884156637E9, -362.38134610652924, -376.024501144886, -301.82488602399826, -181.43002665042877
 1.7063894884320323E9, -349.4562518596649, -387.5134738087654, -331.2653784751892, -137.62831836938858
 1.7063894884320323E9, -466.7395144701004, -371.4767827987671, -287.9423773884773, -193.87641370296478
 1.7063894884327564E9, -408.3372367620468, -366.92906445264816, -286.26690220832825, -199.14219284057617
 1.7063894884327564E9, -318.57963782548904, -382.247694671154, -326.7176601290703, -135.4741359949112
 1.7063894884458525E9, -433.469364464283, -379.3754515051842, -302.0642396211624, -159.4094957113266
 1.7063894884458525E9, -451.6602378487587, -370.7587220072746, -271.905686378479, -209.9131047129631
 1.7063894884778576E9, -335.81309682130814, -391.3431313633919, -327.43572092056274, -149.83535182476044
 1.7063894884778576E9, -393.2579601407051, -391.58248496055603, -326.95701372623444, -150.31405901908875
 1.7063894884784636E9, -484.69103425741196, -376.024501144886, -283.8733662366867, -216.1362982392311
 1.7063894884784636E9, -361.18457812070847, -376.26385474205017, -308.2874331474304, -179.99390506744385
 1.7063894884793348E9, -357.8336277604103, -398.28438568115234, -337.0098648071289, -138.5857327580452
 1.7063894884793348E9, -462.43114972114563, -375.78514754772186, -289.85720616579056, -193.15835291147232
 1.7063894884799657E9, -412.40624791383743, -381.7689874768257, -294.16557091474533, -207.51956874132156
 1.7063894884799657E9, -347.30206948518753, -421.26233100891113, -366.92906445264816, -163.95721405744553
 1.7063894884909642E9, -436.34160763025284, -388.7102417945862, -320.2551130056381, -184.78097701072693
 1.7063894884909642E9, -430.357767701149, -358.3123349547386, -274.77792954444885, -221.8807845711708
 1.7063894885057652E9, -312.5957978963852, -378.41803711652756, -326.238952934742, -162.28173887729645
 1.7063894885057652E9, -365.7322964668274, -377.6999763250351, -328.39313530921936, -159.64884930849075
 1.7063894885214891E9, -438.97449719905853, -351.131727039814, -272.8631007671356, -220.20530939102173
 1.7063894885214891E9, -332.70150005817413, -371.9554899930954, -307.8087259531021, -193.15835291147232
 1.7063894885220776E9, -319.7764058113098, -382.00834107398987, -336.29180401563644, -146.9631086587906
 1.7063894885220776E9, -449.26670187711716, -373.15225797891617, -292.7294493317604, -211.10987269878387
 1.706389488535724E9, -384.16252344846725, -364.5355284810066, -290.33591336011887, -208.47698312997818
 1.706389488535724E9, -302.5429468154907, -384.8805842399597, -337.4885720014572, -147.68116945028305
 1.706389488551347E9, -404.98628640174866, -374.34902596473694, -301.82488602399826, -171.8558827638626
 1.706389488551347E9, -425.0919885635376, -362.38134610652924, -281.9585374593735, -228.1039780974388
 1.7063894885520627E9, -298.4739356637001, -374.82773315906525, -324.80283135175705, -168.2655788064003
 1.7063894885520627E9, -356.63685977458954, -373.15225797891617, -320.73382019996643, -155.34048455953598
 1.7063894885656698E9, -449.027348279953, -362.86005330085754, -281.00112307071686, -230.2581604719162
 1.7063894885656698E9, -332.46214646101, -368.8438932299614, -305.8938971757889, -193.15835291147232
 1.7063894885815284E9, -331.98343926668167, -386.79541301727295, -339.6427543759346, -150.5534126162529
 1.7063894885815284E9, -441.6073867678642, -370.5193684101105, -292.01138854026794, -210.87051910161972
 1.7063894885823739E9, -390.1463633775711, -371.9554899930954, -292.96880292892456, -219.00854140520096
 1.7063894885823739E9, -303.97906839847565, -389.42830258607864, -341.55758315324783, -162.9997996687889
 1.706389488595657E9, -414.32107669115067, -374.34902596473694, -307.3300187587738, -194.59447449445724
 1.706389488595657E9, -425.5706957578659, -364.0568212866783, -291.2933277487755, -239.35359716415405
 1.7063894886114564E9, -302.0642396211624, -376.98191553354263, -326.4783065319061, -168.7442860007286
 1.7063894886114564E9, -367.6471252441406, -380.57221949100494, -323.84541696310043, -163.23915326595306
 1.7063894886121616E9, -451.89959144592285, -364.0568212866783, -280.2830622792244, -233.3697572350502
 1.7063894886121616E9, -335.81309682130814, -369.3226004242897, -303.7397148013115, -196.74865686893463
 1.7063894886259527E9, -328.39313530921936, -384.4018770456314, -333.8982680439949, -150.79276621341705
 1.7063894886259527E9, -444.9583371281624, -367.6471252441406, -289.85720616579056, -211.82793349027634
 1.70638948864137E9, -381.7689874768257, -364.0568212866783, -290.575266957283, -219.2478950023651
 1.70638948864137E9, -303.2610076069832, -390.1463633775711, -338.44598639011383, -157.2553133368492
 1.7063894886420445E9, -427.48552453517914, -391.8218385577202, -320.4944666028023, -201.29637521505356
 1.7063894886420445E9, -436.82031482458115, -373.6309651732445, -284.8307806253433, -233.13040363788605
 1.7063894886556356E9, -301.5855324268341, -380.57221949100494, -327.6750745177269, -170.18040758371353
 1.7063894886556356E9, -352.5678486227989, -371.71613639593124, -324.5634777545929, -164.675274848938
 1.706389488671373E9, -450.4634698629379, -363.33876049518585, -282.1978910565376, -233.3697572350502
 1.706389488671373E9, -329.58990329504013, -369.801307618618, -309.24484753608704, -201.29637521505356
 1.7063894886720333E9, -319.2976986169815, -384.64123064279556, -334.13762164115906, -153.1863021850586
 1.7063894886720333E9, -435.6235468387604, -363.57811409235, -290.33591336011887, -216.37565183639526
 1.7063894886859372E9, -373.3916115760803, -358.3123349547386, -284.352073431015, -213.0247014760971
 1.7063894886859372E9, -297.0378140807152, -383.4444626569748, -337.9672791957855, -154.1437165737152
 1.7063894887013383E9, -406.9011151790619, -373.3916115760803, -308.5267867445946, -188.13192737102509
 1.7063894887013383E9, -417.1933198571205, -364.7748820781708, -278.84694069623947, -229.54009968042374
 1.7063894887020495E9, -300.86747163534164, -380.3328658938408, -325.5208921432495, -174.01006513834
 1.7063894887020495E9, -354.96138459444046, -370.9980756044388, -321.21252739429474, -161.08497089147568
 1.7063894887156675E9, -439.93191158771515, -356.3975061774254, -272.62374716997147, -224.9923813343048
 1.7063894887156675E9, -335.3343896269798, -369.801307618618, -309.72355473041534, -190.52546334266663
 1.7063894887313263E9, -335.81309682130814, -393.01860654354095, -336.77051120996475, -151.51082700490952
 1.7063894887313263E9, -461.71308892965317, -379.6148051023483, -296.798460483551, -220.20530939102173
 1.7063894887320468E9, -388.7102417945862, -369.56195402145386, -291.53268134593964, -216.61500543355942
 1.7063894887320468E9, -297.75587487220764, -385.359291434288, -333.8982680439949, -156.05854535102844
 1.7063894887459092E9, -412.88495510816574, -375.5457939505577, -314.98933386802673, -192.679645717144
 1.7063894887459092E9, -426.28875654935837, -363.81746768951416, -279.0862942934036, -228.82203888893127
 1.7063894887619803E9, -308.04807955026627, -383.4444626569748, -327.1963673233986, -165.6326892375946
 1.7063894887619803E9, -375.0670867562294, -395.17278891801834, -324.80283135175705, -168.02622520923615
 1.7063894887620547E9, -472.4840008020401, -383.20510905981064, -286.9849629998207, -242.2258403301239
 1.7063894887620547E9, -347.30206948518753, -392.3005457520485, -324.80283135175705, -210.63116550445557
 1.706389488775679E9, -316.90416264533997, -388.94959539175034, -340.6001687645912, -157.97337412834167
 1.706389488775679E9, -433.9480716586113, -365.49294286966324, -288.6604381799698, -215.6575910449028
 1.7063894887913468E9, -358.55168855190277, -350.1743126511574, -288.42108458280563, -223.07755255699158
 1.7063894887913468E9, -258.5018849372864, -359.74845653772354, -315.94674825668335, -149.83535182476044
 1.7063894887920372E9, -373.3916115760803, -355.2007381916046, -299.6707036495209, -184.54162341356277
 1.7063894887920372E9, -386.0773522257805, -345.62659430503845, -275.73534393310547, -228.82203888893127
 1.7063894888222113E9, -266.6399072408676, -357.8336277604103, -309.24484753608704, -164.43592125177383
 1.7063894888222113E9, -332.46214646101, -358.3123349547386, -308.7661403417587, -160.12755650281906
 1.7063894888228364E9, -417.6720270514488, -343.7117655277252, -265.92184644937515, -225.71044212579727
 1.7063894888228364E9, -292.2507421374321, -343.7117655277252, -288.6604381799698, -182.14808744192123
 1.7063894888235204E9, -286.26690220832825, -353.0465558171272, -321.21252739429474, -143.85151189565659
 1.7063894888235204E9, -411.9275407195091, -348.02013027668, -279.8043550848961, -213.74276226758957
 1.7063894888358483E9, -352.32849502563477, -355.6794453859329, -288.42108458280563, -217.33306622505188
 1.7063894888358483E9, -272.62374716997147, -375.30644035339355, -330.7866712808609, -160.12755650281906
 1.7063894888516212E9, -387.5134738087654, -364.0568212866783, -309.72355473041534, -192.2009385228157
 1.7063894888516212E9, -399.4811536669731, -349.4562518596649, -282.9159518480301, -235.04523241519928
 1.7063894888521628E9, -285.30948781967163, -375.5457939505577, -328.87184250354767, -177.36101549863815
 1.7063894888521628E9, -345.14788711071014, -376.024501144886, -320.73382019996643, -169.46234679222107
 1.7063894888656E9, -438.0170828104019, -363.0994068980217, -282.9159518480301, -239.83230435848236
 1.7063894888656E9, -327.1963673233986, -379.8541586995125, -320.73382019996643, -205.84409356117249
 1.7063894888817368E9, -323.3667097687721, -396.13020330667496, -341.55758315324783, -168.98363959789276
 1.7063894888817368E9, -442.804154753685, -381.52963387966156, -303.50036120414734, -227.1465637087822
 1.70638948888208E9, -373.6309651732445, -370.2800148129463, -296.55910688638687, -229.7794532775879
 1.70638948888208E9, -281.00112307071686, -379.8541586995125, -342.03629034757614, -163.47850686311722
 1.7063894888956823E9, -406.66176158189774, -377.6999763250351, -317.6222234368324, -201.5357288122177
 1.7063894888956823E9, -415.51784467697144, -367.40777164697647, -287.463670194149, -243.90131551027298
 1.7063894889113362E9, -295.60169249773026, -385.359291434288, -333.18020725250244, -179.51519787311554
 1.7063894889113362E9, -368.60453963279724, -394.69408172369003, -339.88210797309875, -181.19067305326462
 1.706389488912074E9, -465.0640392899513, -390.6250705718994, -306.61195796728134, -262.0921888947487
 1.706389488912074E9, -335.81309682130814, -385.11993783712387, -330.54731768369675, -217.57241982221603
 1.7063894889257076E9, -312.83515149354935, -380.57221949100494, -339.88210797309875, -157.2553133368492
 1.7063894889257076E9, -418.62944144010544, -353.7646166086197, -279.56500148773193, -204.1686183810234
 1.7063894889413028E9, -353.0465558171272, -348.25948387384415, -276.93211191892624, -202.97185039520264
 1.7063894889413028E9, -291.2933277487755, -386.31670582294464, -335.81309682130814, -153.42565578222275
 1.7063894889420333E9, -407.8585295677185, -378.41803711652756, -315.2286874651909, -192.44029211997986
 1.7063894889420333E9, -412.40624791383743, -361.6632853150368, -286.74560940265656, -231.93363565206528
 1.7063894889556077E9, -301.34617882966995, -382.4870482683182, -326.238952934742, -174.24941873550415
 1.7063894889556077E9, -364.0568212866783, -383.20510905981064, -331.50473207235336, -176.16424751281738
 1.7063894889722345E9, -459.5589065551758, -376.5032083392143, -290.33591336011887, -247.4916194677353
 1.7063894889722345E9, -338.685339987278, -382.72640186548233, -314.5106266736984, -200.5783144235611
 1.7063894889863307E9, -330.54731768369675, -392.7792529463768, -338.92469358444214, -161.56367808580399
 1.7063894889863307E9, -445.67639791965485, -372.912904381752, -297.75587487220764, -227.1465637087822
 1.706389488987048E9, -380.3328658938408, -368.8438932299614, -301.5855324268341, -227.86462450027466
 1.706389488987048E9, -304.2184219956398, -398.5237392783165, -351.37108063697815, -171.13782197237015
 1.706389489001654E9, -416.95396625995636, -386.5560594201088, -321.69123458862305, -211.58857989311218
 1.706389489001654E9, -438.4957900047302, -386.0773522257805, -300.6281180381775, -259.21994572877884
 1.7063894890021155E9, -309.72355473041534, -390.6250705718994, -341.3182295560837, -191.00417053699493
 1.7063894890021155E9, -371.71613639593124, -391.58248496055603, -329.8292568922043, -174.4887723326683
 1.706389489031968E9, -452.85700583457947, -373.6309651732445, -285.78819501399994, -242.46519392728806
 1.706389489031968E9, -336.0524504184723, -378.89674431085587, -319.7764058113098, -202.73249679803848
 1.7063894890327203E9, -321.21252739429474, -383.68381625413895, -343.2330583333969, -162.0423852801323
 1.7063894890327203E9, -451.6602378487587, -382.247694671154, -301.5855324268341, -235.28458601236343
 1.7063894890334423E9, -386.0773522257805, -376.98191553354263, -298.4739356637001, -227.6252709031105
 1.7063894890334423E9, -303.7397148013115, -392.7792529463768, -345.62659430503845, -164.675274848938
 1.706389489062145E9, -415.7571982741356, -377.2212691307068, -308.2874331474304, -194.8338280916214
 1.706389489062145E9, -425.81004935503006, -365.49294286966324, -281.00112307071686, -232.17298924922943
 1.7063894890630524E9, -299.6707036495209, -377.46062272787094, -329.8292568922043, -172.33458995819092
 1.7063894890630524E9, -365.49294286966324, -380.8115730881691, -328.1537817120552, -165.6326892375946
 1.706389489063578E9, -447.3518730998039, -365.7322964668274, -288.1817309856415, -237.67812198400497
 1.706389489063578E9, -331.7440856695175, -373.3916115760803, -311.6383835077286, -193.39770650863647
 1.706389489075601E9, -330.06861048936844, -387.27412021160126, -332.46214646101, -157.49466693401337
 1.706389489075601E9, -451.6602378487587, -376.7425619363785, -294.4049245119095, -223.07755255699158
 1.706389489091363E9, -381.52963387966156, -373.15225797891617, -296.798460483551, -224.75302773714066
 1.706389489091363E9, -293.9262173175812, -379.13609790802, -339.40340077877045, -155.10113096237183
 1.7063894890920289E9, -404.7469328045845, -371.4767827987671, -311.15967631340027, -192.44029211997986
 1.7063894890920289E9, -418.8687950372696, -369.08324682712555, -293.2081565260887, -237.19941478967667
 1.706389489106058E9, -298.4739356637001, -378.1786835193634, -329.58990329504013, -173.29200434684753
 1.706389489106058E9, -360.466517329216, -378.1786835193634, -324.5634777545929, -171.61652916669846
 1.70638948912155E9, -449.027348279953, -361.18457812070847, -282.4372446537018, -239.5929507613182
 1.70638948912155E9, -331.50473207235336, -369.08324682712555, -314.27127307653427, -197.9454248547554
 1.7063894891221027E9, -335.81309682130814, -393.49731373786926, -349.69560545682907, -165.6326892375946
 1.7063894891221027E9, -461.23438173532486, -386.0773522257805, -306.13325077295303, -232.65169644355774
 1.7063894891356056E9, -402.83210402727127, -384.4018770456314, -313.5532122850418, -229.7794532775879
 1.7063894891356056E9, -315.46804106235504, -399.4811536669731, -352.0891414284706, -164.43592125177383
 1.7063894891516817E9, -425.0919885635376, -384.8805842399597, -314.7499802708626, -192.679645717144
 1.7063894891516817E9, -415.99655187129974, -358.7910421490669, -282.1978910565376, -222.12013816833496
 1.7063894891521657E9, -311.87773710489273, -387.75282740592957, -331.50473207235336, -168.7442860007286
 1.7063894891521657E9, -379.6148051023483, -395.8908497095108, -333.4195608496666, -167.786871612072
 1.706389489165832E9, -463.1492105126381, -378.1786835193634, -291.0539741516113, -237.67812198400497
 1.706389489165832E9, -334.3769752383232, -373.15225797891617, -312.1170907020569, -189.32869535684586
 1.706389489181325E9, -332.9408536553383, -393.01860654354095, -341.55758315324783, -150.0747054219246
 1.706389489181325E9, -455.01118820905685, -377.46062272787094, -297.0378140807152, -215.41823744773865
 1.7063894891820405E9, -383.68381625413895, -372.4341971874237, -301.5855324268341, -214.46082305908203
 1.7063894891820405E9, -304.93648278713226, -387.0347666144371, -335.0950360298157, -148.3992302417755
 1.70638948919564E9, -415.7571982741356, -377.46062272787094, -313.31385868787766, -192.44029211997986
 1.70638948919564E9, -422.9378061890602, -368.60453963279724, -291.0539741516113, -230.49751406908035
 1.706389489211612E9, -308.04807955026627, -392.06119215488434, -333.4195608496666, -171.13782197237015
 1.706389489211612E9, -365.01423567533493, -389.90700978040695, -330.54731768369675, -168.7442860007286
 1.7063894892122655E9, -442.56480115652084, -362.38134610652924, -281.47983026504517, -226.42850291728973
 1.7063894892122655E9, -323.12735617160797, -370.9980756044388, -311.6383835077286, -190.52546334266663
 1.7063894892257864E9, -325.28153854608536, -383.68381625413895, -340.6001687645912, -152.94694858789444
 1.7063894892257864E9, -450.4634698629379, -369.3226004242897, -297.75587487220764, -215.6575910449028
 1.7063894892413185E9, -384.16252344846725, -370.2800148129463, -300.1494108438492, -213.50340867042542
 1.7063894892413185E9, -311.15967631340027, -395.4121425151825, -342.51499754190445, -153.1863021850586
 1.7063894892420588E9, -426.28875654935837, -386.5560594201088, -317.3828698396683, -194.3551208972931
 1.7063894892420588E9, -430.357767701149, -376.5032083392143, -295.3623389005661, -241.7471331357956
 1.706389489255594E9, -314.5106266736984, -397.3269712924957, -341.796936750412, -178.31842988729477
 1.706389489255594E9, -381.52963387966156, -396.13020330667496, -337.72792559862137, -175.92489391565323
 1.7063894892706375E9, -465.7821000814438, -385.11993783712387, -299.4313500523567, -243.66196191310883
 1.7063894892706375E9, -343.2330583333969, -385.5986450314522, -314.5106266736984, -193.87641370296478
 1.7063894892866466E9, -458.60149216651917, -380.8115730881691, -299.19199645519257, -221.16272377967834
 1.7063894892866466E9, -383.20510905981064, -371.71613639593124, -299.4313500523567, -217.09371262788773
 1.7063894892872E9, -302.5429468154907, -386.79541301727295, -342.51499754190445, -157.2553133368492
 1.7063894892872E9, -424.134574174881, -379.6148051023483, -312.83515149354935, -197.4667176604271
 1.7063894893006797E9, -423.17715978622437, -366.45035725831985, -285.78819501399994, -237.19941478967667
 1.7063894893006797E9, -298.71328926086426, -380.09351229667664, -331.98343926668167, -178.07907629013062
 1.7063894893163557E9, -372.19484359025955, -381.52963387966156, -323.3667097687721, -173.05265074968338
 1.7063894893163557E9, -449.5060554742813, -366.2110036611557, -284.59142702817917, -243.90131551027298
 1.7063894893170676E9, -335.3343896269798, -376.98191553354263, -319.53705221414566, -200.0996072292328
 1.7063894893170676E9, -339.6427543759346, -393.2579601407051, -343.7117655277252, -162.9997996687889
 1.7063894893308837E9, -454.2931274175644, -372.912904381752, -295.12298530340195, -225.71044212579727
 1.7063894893308837E9, -381.7689874768257, -372.4341971874237, -302.30359321832657, -224.75302773714066
 1.7063894893464208E9, -310.4416155219078, -393.7366673350334, -346.10530149936676, -162.76044607162476
 1.7063894893464208E9, -427.48552453517914, -382.9657554626465, -316.1861018538475, -200.81766802072525
 1.7063894893470542E9, -430.11841410398483, -376.024501144886, -289.85720616579056, -241.98648673295975
 1.7063894893470542E9, -308.7661403417587, -385.5986450314522, -331.02602487802505, -168.7442860007286
 1.706389489377028E9, -375.5457939505577, -380.57221949100494, -325.28153854608536, -166.35075002908707
 1.706389489377028E9, -448.0699338912964, -358.3123349547386, -279.56500148773193, -232.65169644355774
 1.7063894893777516E9, -325.28153854608536, -368.12583243846893, -307.56937235593796, -189.32869535684586
 1.7063894893777516E9, -333.8982680439949, -390.6250705718994, -335.573743224144, -155.57983815670013
 1.7063894893784752E9, -460.75567454099655, -381.2902802824974, -300.1494108438492, -226.42850291728973
 1.7063894893784752E9, -383.4444626569748, -370.9980756044388, -297.9952284693718, -222.12013816833496
 1.706389489390684E9, -307.3300187587738, -388.94959539175034, -347.5414230823517, -163.47850686311722
 1.706389489390684E9, -421.26233100891113, -385.11993783712387, -313.5532122850418, -201.29637521505356
 1.7063894894071422E9, -424.85263496637344, -367.6471252441406, -297.0378140807152, -240.31101155281067
 1.7063894894071422E9, -303.50036120414734, -388.94959539175034, -331.2653784751892, -171.8558827638626
 1.7063894894072387E9, -371.71613639593124, -390.1463633775711, -320.01575940847397, -167.30816441774368
 1.7063894894072387E9, -455.7292490005493, -373.3916115760803, -292.01138854026794, -238.15682917833328
 1.7063894894206853E9, -328.87184250354767, -374.5883795619011, -308.5267867445946, -198.18477845191956
 1.7063894894206853E9, -322.4092953801155, -379.3754515051842, -327.43572092056274, -152.94694858789444
 1.7063894894363515E9, -431.55453568696976, -354.00397020578384, -290.33591336011887, -219.2478950023651
 1.7063894894363515E9, -352.8072022199631, -350.6530198454857, -289.6178525686264, -213.74276226758957
 1.7063894894370544E9, -292.7294493317604, -389.6676561832428, -341.55758315324783, -151.51082700490952
 1.7063894894370544E9, -414.0817230939865, -376.024501144886, -304.6971291899681, -190.28610974550247
 1.7063894894511323E9, -423.4165133833885, -367.8864788413048, -286.74560940265656, -237.43876838684082
 1.7063894894511323E9, -309.9629083275795, -389.6676561832428, -340.36081516742706, -177.121661901474
 1.7063894894668443E9, -372.912904381752, -383.4444626569748, -330.7866712808609, -172.33458995819092
 1.7063894894668443E9, -449.5060554742813, -367.8864788413048, -286.5062558054924, -235.5239396095276
 1.7063894894671504E9, -323.12735617160797, -370.9980756044388, -312.1170907020569, -184.54162341356277
 1.7063894894671504E9, -323.12735617160797, -382.00834107398987, -328.87184250354767, -153.6650093793869
 1.7063894894806578E9, -435.6235468387604, -356.8762133717537, -281.9585374593735, -208.47698312997818
 1.7063894894806578E9, -362.38134610652924, -357.354920566082, -282.9159518480301, -203.2112039923668
 1.706389489496452E9, -282.9159518480301, -371.71613639593124, -318.10093063116074, -135.4741359949112
 1.706389489496452E9, -404.02887201309204, -366.92906445264816, -294.16557091474533, -176.88230830430984
 1.706389489497105E9, -404.2682256102562, -357.59427416324615, -272.14503997564316, -214.46082305908203
 1.706389489497105E9, -287.70302379131317, -375.30644035339355, -318.3402842283249, -159.4094957113266
 1.706389489510642E9, -376.024501144886, -391.3431313633919, -325.28153854608536, -169.70170038938522
 1.706389489510642E9, -454.53248101472855, -366.92906445264816, -284.8307806253433, -236.9600611925125
 1.7063894895263388E9, -331.98343926668167, -375.78514754772186, -307.09066516160965, -185.9777449965477
 1.7063894895263388E9, -320.73382019996643, -380.09351229667664, -333.18020725250244, -152.70759499073029
 1.7063894895270452E9, -446.63381230831146, -368.12583243846893, -287.70302379131317, -218.2904806137085
 1.7063894895270452E9, -361.4239317178726, -355.2007381916046, -274.29922235012054, -198.4241320490837
 1.706389489540769E9, -288.6604381799698, -374.5883795619011, -321.21252739429474, -139.0644399523735
 1.706389489540769E9, -412.1668943166733, -378.89674431085587, -301.1068252325058, -186.456452190876
 1.7063894895565164E9, -430.357767701149, -379.6148051023483, -288.89979177713394, -238.87488996982574
 1.7063894895565164E9, -303.97906839847565, -385.359291434288, -329.8292568922043, -168.7442860007286
 1.7063894895570507E9, -367.1684180498123, -376.024501144886, -324.0847705602646, -162.5210924744606
 1.7063894895570507E9, -447.5912266969681, -363.0994068980217, -272.14503997564316, -224.9923813343048
 1.7063894895707767E9, -335.81309682130814, -380.57221949100494, -305.41518998146057, -183.344855427742
 1.7063894895707767E9, -336.5311576128006, -392.53989934921265, -327.43572092056274, -148.63858383893967
 1.706389489586517E9, -463.38856410980225, -382.9657554626465, -296.08039969205856, -219.72660219669342
 1.706389489586517E9, -388.470888197422, -376.7425619363785, -300.6281180381775, -217.57241982221603
 1.7063894896016307E9, -297.75587487220764, -381.2902802824974, -334.3769752383232, -146.00569427013397
 1.7063894896016307E9, -421.022977411747, -376.5032083392143, -302.30359321832657, -185.73839139938354
 1.7063894896020951E9, -422.9378061890602, -369.3226004242897, -289.6178525686264, -229.06139248609543
 1.7063894896020951E9, -309.4842011332512, -388.7102417945862, -325.76024574041367, -169.46234679222107
 1.706389489616306E9, -375.5457939505577, -390.38571697473526, -318.8189914226532, -163.47850686311722
 1.706389489616306E9, -449.5060554742813, -368.60453963279724, -279.3256478905678, -230.97622126340866
 1.706389489617012E9, -331.2653784751892, -376.5032083392143, -308.04807955026627, -187.17451298236847
 1.706389489617012E9, -334.61632883548737, -384.16252344846725, -328.87184250354767, -151.75018060207367
 1.7063894896307688E9, -453.0963594317436, -372.4341971874237, -289.6178525686264, -212.5459942817688
 1.7063894896307688E9, -378.6573907136917, -369.801307618618, -289.85720616579056, -208.23762953281403
 1.7063894896464002E9, -303.97906839847565, -388.470888197422, -335.3343896269798, -147.4418158531189
 1.7063894896464002E9, -427.00681734085083, -386.5560594201088, -310.20226192474365, -188.37128096818924
 1.7063894896470017E9, -416.47525906562805, -367.8864788413048, -282.1978910565376, -222.12013816833496
 1.7063894896470017E9, -300.86747163534164, -382.00834107398987, -326.7176601290703, -159.17014211416245
 1.706389489660658E9, -377.2212691307068, -395.17278891801834, -331.7440856695175, -174.01006513834
 1.706389489660658E9, -449.9847626686096, -374.1096723675728, -284.352073431015, -234.56652522087097
 1.706389489676285E9, -324.32412415742874, -368.12583243846893, -304.2184219956398, -181.90873384475708
 1.706389489676285E9, -324.0847705602646, -382.72640186548233, -323.6060633659363, -150.0747054219246
 1.7063894896770515E9, -446.3944587111473, -369.3226004242897, -284.59142702817917, -219.00854140520096
 1.7063894896770515E9, -374.82773315906525, -368.12583243846893, -292.7294493317604, -218.05112701654434
 1.70638948969108E9, -305.6545435786247, -388.7102417945862, -338.2066327929497, -161.08497089147568
 1.70638948969108E9, -412.40624791383743, -372.912904381752, -313.31385868787766, -198.66348564624786
 1.7063894897064505E9, -415.99655187129974, -370.5193684101105, -281.00112307071686, -233.3697572350502
 1.7063894897064505E9, -298.71328926086426, -382.00834107398987, -330.06861048936844, -168.50493240356445
 1.706389489707049E9, -378.89674431085587, -393.2579601407051, -327.6750745177269, -176.40360110998154
 1.706389489707049E9, -454.2931274175644, -367.40777164697647, -286.5062558054924, -239.83230435848236
 1.706389489720764E9, -322.8880025744438, -368.60453963279724, -306.13325077295303, -185.25968420505524
 1.706389489720764E9, -327.6750745177269, -383.9231698513031, -332.9408536553383, -158.21272772550583
 1.7063894897371783E9, -449.9847626686096, -371.23742920160294, -296.3197532892227, -222.35949176549911
 1.7063894897371783E9, -382.72640186548233, -377.93932992219925, -301.5855324268341, -220.44466298818588
 1.706389489738073E9, -308.04807955026627, -397.0876176953316, -345.62659430503845, -159.4094957113266
 1.706389489738073E9, -415.0391374826431, -377.6999763250351, -301.34617882966995, -191.7222313284874
 1.7063894897506516E9, -410.0127119421959, -358.7910421490669, -277.6501727104187, -224.9923813343048
 1.7063894897506516E9, -297.75587487220764, -378.89674431085587, -328.39313530921936, -167.06881082057953
 1.7063894897666175E9, -374.5883795619011, -383.20510905981064, -315.94674825668335, -172.33458995819092
 1.7063894897666175E9, -449.74540907144547, -369.3226004242897, -279.8043550848961, -234.80587881803513
 1.7063894897672398E9, -327.1963673233986, -373.6309651732445, -316.1861018538475, -194.11576730012894
 1.7063894897672398E9, -336.5311576128006, -394.2153745293617, -338.92469358444214, -162.76044607162476
 1.706389489780742E9, -458.362138569355, -373.87031877040863, -293.9262173175812, -220.44466298818588
 1.706389489780742E9, -378.1786835193634, -368.3651860356331, -302.5429468154907, -215.6575910449028
 1.7063894897964158E9, -311.15967631340027, -396.13020330667496, -342.51499754190445, -160.36691009998322
 1.7063894897964158E9, -419.58685582876205, -377.46062272787094, -303.50036120414734, -191.48287773132324
 1.70638948979716E9, -424.6132813692093, -368.3651860356331, -287.22431659698486, -236.4813539981842
 1.70638948979716E9, -309.0054939389229, -388.94959539175034, -337.0098648071289, -172.09523636102676
 1.7063894898106065E9, -378.89674431085587, -389.90700978040695, -325.28153854608536, -174.9674795269966
 1.7063894898106065E9, -452.6176522374153, -363.57811409235, -282.9159518480301, -234.32717162370682
 1.706389489826517E9, -329.1111961007118, -372.19484359025955, -313.79256588220596, -192.679645717144
 1.706389489826517E9, -341.55758315324783, -391.58248496055603, -341.3182295560837, -162.76044607162476
 1.7063894898271897E9, -457.16537058353424, -377.2212691307068, -290.575266957283, -224.0349669456482
 1.7063894898271897E9, -373.87031877040863, -371.4767827987671, -295.8410460948944, -217.33306622505188
 1.7063894898409834E9, -303.02165400981903, -384.16252344846725, -341.55758315324783, -151.75018060207367
 1.7063894898409834E9, -413.84236949682236, -372.19484359025955, -301.5855324268341, -196.50930327177048
 1.7063894898563888E9, -414.5604302883148, -362.1419925093651, -281.240476667881, -229.54009968042374
 1.7063894898563888E9, -293.686863720417, -372.912904381752, -326.4783065319061, -163.47850686311722
 1.7063894898571153E9, -371.9554899930954, -376.024501144886, -315.94674825668335, -165.6326892375946
 1.7063894898571153E9, -454.53248101472855, -364.29617488384247, -285.78819501399994, -237.91747558116913
 1.7063894898872175E9, -334.13762164115906, -382.4870482683182, -320.4944666028023, -195.3125352859497
 1.7063894898872175E9, -337.24921840429306, -392.06119215488434, -333.8982680439949, -151.27147340774536
 1.7063894898878613E9, -457.16537058353424, -372.4341971874237, -290.33591336011887, -218.05112701654434
 1.7063894898878613E9, -370.04066121578217, -359.74845653772354, -288.6604381799698, -204.40797197818756
 1.706389489888605E9, -299.4313500523567, -381.05092668533325, -333.18020725250244, -145.52698707580566
 1.706389489888605E9, -420.3049166202545, -374.1096723675728, -299.910057246685, -186.21709859371185
 1.70638948990071E9, -423.17715978622437, -362.86005330085754, -276.6927583217621, -225.71044212579727
 1.70638948990071E9, -297.75587487220764, -378.41803711652756, -331.98343926668167, -162.28173887729645
 1.7063894899332821E9, -370.9980756044388, -377.6999763250351, -313.79256588220596, -162.5210924744606
 1.7063894899332821E9, -455.01118820905685, -370.04066121578217, -283.63401263952255, -227.6252709031105
 1.7063894899339912E9, -334.13762164115906, -381.52963387966156, -322.16994178295135, -188.6106345653534
 1.7063894899339912E9, -342.7543511390686, -390.6250705718994, -336.5311576128006, -156.53725254535675
 1.706389489934703E9, -459.5589065551758, -372.19484359025955, -288.42108458280563, -215.89694464206696
 1.706389489934703E9, -378.41803711652756, -374.34902596473694, -297.75587487220764, -212.30664068460464
 1.7063894899465308E9, -310.68096911907196, -395.17278891801834, -343.7117655277252, -156.7766061425209
 1.7063894899465308E9, -426.28875654935837, -384.4018770456314, -319.05834501981735, -199.14219284057617
 1.7063894899471283E9, -415.0391374826431, -358.7910421490669, -282.9159518480301, -226.42850291728973
 1.7063894899471283E9, -301.82488602399826, -382.247694671154, -331.50473207235336, -162.9997996687889
 1.7063894899609752E9, -374.5883795619011, -379.8541586995125, -313.0745050907135, -157.97337412834167
 1.7063894899609752E9, -449.9847626686096, -362.1419925093651, -275.73534393310547, -224.9923813343048
 1.7063894899763944E9, -334.3769752383232, -377.46062272787094, -316.42545545101166, -187.89257377386093
 1.7063894899763944E9, -341.55758315324783, -391.58248496055603, -337.4885720014572, -155.34048455953598
 1.7063894899771633E9, -462.43114972114563, -381.52963387966156, -299.19199645519257, -219.2478950023651
 1.7063894899771633E9, -389.1889489889145, -383.20510905981064, -308.5267867445946, -221.16272377967834
 1.7063894899906857E9, -324.80283135175705, -402.5927504301071, -351.37108063697815, -160.60626369714737
 1.7063894899906857E9, -441.6073867678642, -396.3695569038391, -317.8615770339966, -203.92926478385925
 1.7063894900066159E9, -432.2725964784622, -371.4767827987671, -287.463670194149, -230.97622126340866
 1.7063894900066159E9, -303.02165400981903, -381.7689874768257, -330.06861048936844, -158.69143491983414
 1.7063894900071323E9, -384.64123064279556, -390.38571697473526, -325.28153854608536, -167.54751801490784
 1.7063894900071323E9, -453.57506662607193, -365.97165006399155, -288.42108458280563, -235.5239396095276
 1.7063894900206513E9, -327.6750745177269, -372.4341971874237, -310.9203227162361, -184.30226981639862
 1.7063894900206513E9, -328.6324889063835, -379.6148051023483, -325.5208921432495, -150.31405901908875
 1.7063894900363464E9, -447.3518730998039, -365.01423567533493, -288.6604381799698, -219.72660219669342
 1.7063894900363464E9, -379.8541586995125, -375.0670867562294, -303.02165400981903, -215.89694464206696
 1.7063894900370042E9, -307.56937235593796, -388.7102417945862, -336.29180401563644, -150.5534126162529
 1.7063894900370042E9, -427.48552453517914, -378.6573907136917, -312.35644429922104, -196.26994967460632
 1.7063894900512698E9, -423.6558669805527, -371.71613639593124, -292.7294493317604, -237.43876838684082
 1.7063894900512698E9, -311.87773710489273, -390.6250705718994, -339.1640471816063, -174.9674795269966
 1.7063894900663424E9, -389.90700978040695, -389.1889489889145, -331.50473207235336, -179.7545514702797
 1.7063894900663424E9, -463.1492105126381, -378.6573907136917, -294.64427810907364, -247.25226587057114
 1.7063894900670698E9, -343.7117655277252, -386.79541301727295, -326.7176601290703, -200.33896082639694
 1.7063894900670698E9, -348.02013027668, -394.2153745293617, -342.7543511390686, -158.21272772550583
 1.7063894900809927E9, -456.68666338920593, -368.12583243846893, -289.85720616579056, -219.48724859952927
 1.7063894900809927E9, -377.6999763250351, -370.9980756044388, -294.16557091474533, -213.50340867042542
 1.7063894900968378E9, -305.6545435786247, -388.7102417945862, -338.2066327929497, -154.1437165737152
 1.7063894900968378E9, -434.18742525577545, -385.11993783712387, -319.53705221414566, -202.73249679803848
 1.7063894900971043E9, -430.357767701149, -374.34902596473694, -293.686863720417, -238.87488996982574
 1.7063894900971043E9, -309.9629083275795, -393.7366673350334, -335.573743224144, -173.05265074968338
 1.706389490110636E9, -393.97602093219757, -397.5663248896599, -328.87184250354767, -177.6003690958023
 1.706389490110636E9, -462.1917961239815, -377.2212691307068, -289.37849897146225, -242.2258403301239
 1.706389490126798E9, -340.1214615702629, -381.52963387966156, -315.94674825668335, -193.87641370296478
 1.706389490126798E9, -351.6104342341423, -394.69408172369003, -345.3872407078743, -166.82945722341537
 1.7063894901414757E9, -466.97886806726456, -379.3754515051842, -302.0642396211624, -229.06139248609543
 1.7063894901414757E9, -377.2212691307068, -370.9980756044388, -301.82488602399826, -213.50340867042542
 1.706389490142103E9, -313.0745050907135, -396.3695569038391, -342.7543511390686, -161.32432448863983
 1.706389490142103E9, -418.8687950372696, -369.08324682712555, -302.30359321832657, -193.63706010580063
 1.7063894901570015E9, -418.15073424577713, -362.86005330085754, -281.47983026504517, -223.55625975131989
 1.7063894901570015E9, -298.4739356637001, -374.34902596473694, -323.12735617160797, -154.62242376804352
 1.7063894901577764E9, -372.4341971874237, -376.024501144886, -316.90416264533997, -165.1539820432663
 1.7063894901577764E9, -444.00092273950577, -354.7220309972763, -276.6927583217621, -228.58268529176712
 1.706389490170612E9, -327.91442811489105, -370.7587220072746, -312.1170907020569, -187.41386657953262
 1.706389490170612E9, -343.47241193056107, -388.470888197422, -339.1640471816063, -161.80303168296814
 1.7063894901865225E9, -461.71308892965317, -376.5032083392143, -289.1391453742981, -219.72660219669342
 1.7063894901865225E9, -387.9921810030937, -386.79541301727295, -303.97906839847565, -218.52983421087265
 1.7063894901872165E9, -331.98343926668167, -412.6456015110016, -361.18457812070847, -172.33458995819092
 1.7063894901872165E9, -438.4957900047302, -386.79541301727295, -320.9731737971306, -209.19504392147064
 1.7063894902007565E9, -428.6822925209999, -378.89674431085587, -297.27716767787933, -235.76329320669174
 1.7063894902007565E9, -298.71328926086426, -377.46062272787094, -324.32412415742874, -163.95721405744553
 1.7063894902163548E9, -385.11993783712387, -386.5560594201088, -327.1963673233986, -167.786871612072
 1.7063894902163548E9, -461.473735332489, -376.98191553354263, -285.5488414168358, -232.8910500407219
 1.706389490217077E9, -333.8982680439949, -386.31670582294464, -321.69123458862305, -185.9777449965477
 1.706389490217077E9, -346.3446550965309, -393.2579601407051, -338.92469358444214, -152.46824139356613
 1.7063894902308416E9, -453.3357130289078, -373.15225797891617, -290.33591336011887, -215.1788838505745
 1.7063894902308416E9, -382.247694671154, -373.6309651732445, -298.4739356637001, -203.92926478385925
 1.7063894902465487E9, -312.35644429922104, -387.5134738087654, -334.3769752383232, -145.76634067296982
 1.7063894902465487E9, -438.4957900047302, -384.16252344846725, -311.87773710489273, -193.15835291147232
 1.7063894902471468E9, -427.48552453517914, -371.23742920160294, -286.26690220832825, -222.59884536266327
 1.7063894902471468E9, -319.53705221414566, -395.65149611234665, -335.81309682130814, -159.8882029056549
 1.7063894902765589E9, -385.359291434288, -384.64123064279556, -322.16994178295135, -165.39333564043045
 1.7063894902765589E9, -455.250541806221, -363.33876049518585, -278.128879904747, -232.17298924922943
 1.7063894902770584E9, -344.4298263192177, -390.38571697473526, -331.7440856695175, -207.2802151441574
 1.7063894902770584E9, -340.6001687645912, -378.6573907136917, -327.43572092056274, -144.8089262843132
 1.7063894902913702E9, -365.97165006399155, -354.48267740011215, -269.03344321250916, -182.62679463624954
 1.7063894902913702E9, -314.0319194793701, -382.00834107398987, -319.7764058113098, -133.08060002326965
 1.7063894902920897E9, -434.9054860472679, -374.34902596473694, -297.27716767787933, -175.68554031848907
 1.7063894902920897E9, -430.59712129831314, -360.9452245235443, -272.14503997564316, -208.71633672714233
 1.7063894903058903E9, -318.10093063116074, -385.359291434288, -325.0421849489212, -149.83535182476044
 1.7063894903058903E9, -401.87468963861465, -391.1037777662277, -324.5634777545929, -163.95721405744553
 1.706389490321435E9, -478.94654792547226, -382.00834107398987, -287.9423773884773, -234.32717162370682
 1.706389490321435E9, -355.44009178876877, -387.5134738087654, -318.3402842283249, -187.89257377386093
 1.7063894903220644E9, -378.89674431085587, -410.73077273368835, -350.1743126511574, -166.35075002908707
 1.7063894903220644E9, -480.62202310562134, -384.16252344846725, -297.9952284693718, -223.07755255699158
 1.7063894903357687E9, -380.3328658938408, -368.8438932299614, -292.49009573459625, -201.0570216178894
 1.7063894903357687E9, -319.53705221414566, -390.6250705718994, -336.29180401563644, -140.97926872968674
 1.70638949035166E9, -440.6499723792076, -374.34902596473694, -301.1068252325058, -181.43002665042877
 1.70638949035166E9, -434.66613245010376, -375.30644035339355, -294.64427810907364, -228.58268529176712
 1.7063894903522851E9, -312.83515149354935, -381.7689874768257, -325.28153854608536, -151.0321198105812
 1.7063894903522851E9, -395.17278891801834, -386.0773522257805, -324.32412415742874, -164.19656765460968
 1.706389490365701E9, -472.4840008020401, -378.1786835193634, -287.463670194149, -232.8910500407219
 1.706389490365701E9, -351.37108063697815, -389.42830258607864, -318.10093063116074, -185.4990378022194
 1.7063894903814054E9, -358.3123349547386, -395.17278891801834, -340.83952236175537, -152.70759499073029
 1.7063894903814054E9, -476.31365835666656, -382.72640186548233, -295.8410460948944, -212.78534787893295
 1.706389490382088E9, -411.20947992801666, -395.8908497095108, -303.02165400981903, -212.5459942817688
 1.706389490382088E9, -341.3182295560837, -407.8585295677185, -342.2756439447403, -149.59599822759628
 1.7063894903958633E9, -453.57506662607193, -390.1463633775711, -314.98933386802673, -191.7222313284874
 1.7063894903958633E9, -444.00092273950577, -381.7689874768257, -291.2933277487755, -224.5136741399765
 1.7063894904113364E9, -326.4783065319061, -392.06119215488434, -335.3343896269798, -156.7766061425209
 1.7063894904113364E9, -412.88495510816574, -401.39598244428635, -325.28153854608536, -163.71786046028137
 1.706389490412079E9, -476.31365835666656, -376.98191553354263, -281.00112307071686, -223.55625975131989
 1.706389490412079E9, -358.3123349547386, -394.69408172369003, -323.12735617160797, -179.03649067878723
 1.7063894904257016E9, -370.7587220072746, -407.3798223733902, -343.2330583333969, -150.5534126162529
 1.7063894904257016E9, -484.21232706308365, -388.7102417945862, -296.798460483551, -212.30664068460464
 1.7063894904415944E9, -396.8482640981674, -380.3328658938408, -304.93648278713226, -206.8015079498291
 1.7063894904415944E9, -331.2653784751892, -401.39598244428635, -345.8659479022026, -148.63858383893967
 1.7063894904421186E9, -442.804154753685, -380.09351229667664, -304.6971291899681, -185.73839139938354
 1.7063894904421186E9, -430.357767701149, -368.3651860356331, -283.63401263952255, -220.20530939102173
 1.7063894904557235E9, -313.5532122850418, -385.83799862861633, -329.58990329504013, -151.51082700490952
 1.7063894904557235E9, -389.1889489889145, -390.1463633775711, -318.10093063116074, -151.75018060207367
 1.7063894904877284E9, -464.82468569278717, -374.5883795619011, -282.9159518480301, -218.7691878080368
 1.7063894904877284E9, -347.5414230823517, -387.5134738087654, -320.2551130056381, -180.7119658589363
 1.706389490488408E9, -353.2859094142914, -394.2153745293617, -335.573743224144, -146.00569427013397
 1.706389490488408E9, -459.3195529580116, -368.12583243846893, -288.42108458280563, -209.67375111579895
 1.7063894904891756E9, -370.04066121578217, -364.7748820781708, -290.8146205544472, -195.07318168878555
 1.7063894904891756E9, -320.73382019996643, -394.69408172369003, -332.2227928638458, -138.34637916088104
 1.7063894904899538E9, -444.00092273950577, -386.0773522257805, -309.4842011332512, -190.76481693983078
 1.7063894904899538E9, -430.59712129831314, -374.34902596473694, -284.11271983385086, -217.33306622505188
 1.7063894905009265E9, -319.05834501981735, -393.2579601407051, -333.4195608496666, -154.38307017087936
 1.7063894905009265E9, -417.6720270514488, -408.09788316488266, -338.2066327929497, -172.33458995819092
 1.706389490515652E9, -476.7923655509949, -386.79541301727295, -292.7294493317604, -236.9600611925125
 1.706389490515652E9, -343.9511191248894, -393.49731373786926, -320.73382019996643, -187.65322017669678
 1.7063894905314562E9, -344.4298263192177, -388.94959539175034, -332.9408536553383, -148.3992302417755
 1.7063894905314562E9, -448.78799468278885, -365.01423567533493, -282.4372446537018, -214.46082305908203
 1.7063894905321848E9, -374.82773315906525, -381.7689874768257, -304.6971291899681, -215.89694464206696
 1.7063894905321848E9, -314.5106266736984, -399.4811536669731, -352.8072022199631, -165.87204283475876
 1.706389490545745E9, -415.0391374826431, -370.7587220072746, -299.6707036495209, -192.44029211997986
 1.706389490545745E9, -404.2682256102562, -362.38134610652924, -281.7191838622093, -225.47108852863312
 1.7063894905613973E9, -306.13325077295303, -393.97602093219757, -339.6427543759346, -185.73839139938354
 1.7063894905613973E9, -380.57221949100494, -390.1463633775711, -328.6324889063835, -174.72812592983246
 1.706389490562091E9, -448.0699338912964, -374.5883795619011, -292.96880292892456, -239.1142435669899
 1.706389490562091E9, -326.7176601290703, -385.5986450314522, -328.1537817120552, -202.49314320087433
 1.70638949057576E9, -335.81309682130814, -393.7366673350334, -341.3182295560837, -169.46234679222107
 1.70638949057576E9, -453.57506662607193, -377.46062272787094, -297.5165212750435, -233.8484644293785
 1.706389490591463E9, -354.7220309972763, -365.01423567533493, -289.85720616579056, -209.67375111579895
 1.706389490591463E9, -295.8410460948944, -388.2315346002579, -342.99370473623276, -163.23915326595306
 1.7063894905922172E9, -417.43267345428467, -376.98191553354263, -307.8087259531021, -213.26405507326126
 1.7063894905922172E9, -415.2784910798073, -372.912904381752, -293.9262173175812, -243.18325471878052
 1.7063894906056416E9, -304.2184219956398, -395.8908497095108, -334.3769752383232, -176.88230830430984
 1.7063894906056416E9, -387.0347666144371, -399.0024464726448, -333.18020725250244, -185.9777449965477
 1.7063894906217244E9, -455.48989540338516, -378.89674431085587, -296.798460483551, -250.12450903654099
 1.7063894906217244E9, -328.87184250354767, -379.8541586995125, -315.46804106235504, -194.8338280916214
 1.706389490622218E9, -345.3872407078743, -398.5237392783165, -342.03629034757614, -169.94105398654938
 1.706389490622218E9, -469.8511112332344, -386.79541301727295, -305.6545435786247, -237.67812198400497
 1.706389490635623E9, -377.2212691307068, -381.05092668533325, -306.13325077295303, -224.5136741399765
 1.706389490635623E9, -310.68096911907196, -392.7792529463768, -340.83952236175537, -165.1539820432663
 1.7063894906514568E9, -432.2725964784622, -388.7102417945862, -309.72355473041534, -210.15245831012726
 1.7063894906514568E9, -425.5706957578659, -383.9231698513031, -292.7294493317604, -245.8161442875862
 1.7063894906521497E9, -305.1758363842964, -395.4121425151825, -339.6427543759346, -176.88230830430984
 1.7063894906521497E9, -373.87031877040863, -380.09351229667664, -317.6222234368324, -175.68554031848907
 1.706389490665913E9, -436.34160763025284, -362.6206997036934, -272.8631007671356, -232.8910500407219
 1.706389490665913E9, -316.6648090481758, -381.05092668533325, -321.9305881857872, -185.02033060789108
 1.7063894906984327E9, -335.81309682130814, -388.470888197422, -329.1111961007118, -154.38307017087936
 1.7063894906984327E9, -445.915751516819, -363.33876049518585, -276.6927583217621, -214.70017665624619
 1.706389490699129E9, -348.9775446653366, -350.6530198454857, -286.26690220832825, -198.4241320490837
 1.706389490699129E9, -286.5062558054924, -364.29617488384247, -320.73382019996643, -132.12318563461304
 1.7063894906999729E9, -397.80567848682404, -355.2007381916046, -278.36823350191116, -179.27584427595139
 1.7063894906999729E9, -361.6632853150368, -325.28153854608536, -262.33154249191284, -210.15245831012726
 1.7063894907006888E9, -228.58268529176712, -325.0421849489212, -284.59142702817917, -126.13934570550919
 1.7063894907006888E9, -312.5957978963852, -331.98343926668167, -273.5811615586281, -132.12318563461304
 1.7063894907108135E9, -362.1419925093651, -299.4313500523567, -223.07755255699158, -187.41386657953262
 1.7063894907108135E9, -230.2581604719162, -303.50036120414734, -252.51804500818253, -132.3625392317772
 1.7063894907260883E9, -235.28458601236343, -298.71328926086426, -258.02317774295807, -95.50208526849747
 1.7063894907260883E9, -343.7117655277252, -275.4959903359413, -214.22146946191788, -161.56367808580399
 1.7063894907414455E9, -233.3697572350502, -260.17736011743546, -212.0672870874405, -141.2186223268509
 1.7063894907414455E9, -175.92489391565323, -278.84694069623947, -252.99675220251083, -79.7047478556633
 1.7063894907420661E9, -304.2184219956398, -277.88952630758286, -226.6678565144539, -131.88383203744888
 1.7063894907420661E9, -294.4049245119095, -268.55473601818085, -211.34922629594803, -164.19656765460968
 1.706389490755688E9, -186.69580578804016, -290.8146205544472, -263.5283104777336, -110.10265469551086
 1.706389490755688E9, -282.1978910565376, -301.1068252325058, -266.6399072408676, -126.37869930267334
 1.7063894907715936E9, -347.78077667951584, -285.5488414168358, -226.42850291728973, -183.344855427742
 1.7063894907715936E9, -234.08781802654266, -298.4739356637001, -266.1612000465393, -143.85151189565659
 1.7063894907720833E9, -269.51215040683746, -325.28153854608536, -296.55910688638687, -124.70322412252426
 1.7063894907720833E9, -391.3431313633919, -321.4518809914589, -253.236105799675, -195.3125352859497
 1.70638949078591E9, -318.10093063116074, -324.0847705602646, -268.3153824210167, -185.9777449965477
 1.70638949078591E9, -266.1612000465393, -354.96138459444046, -315.46804106235504, -131.88383203744888
 1.706389490801357E9, -387.27412021160126, -347.78077667951584, -290.33591336011887, -183.8235626220703
 1.706389490801357E9, -387.5134738087654, -343.47241193056107, -274.5385759472847, -220.68401658535004
 1.706389490802108E9, -268.794089615345, -358.55168855190277, -315.94674825668335, -148.87793743610382
 1.706389490802108E9, -353.7646166086197, -362.6206997036934, -304.45777559280396, -158.9307885169983
 1.7063894908157935E9, -439.45320439338684, -363.0994068980217, -273.3418079614639, -226.90721011161804
 1.7063894908157935E9, -331.50473207235336, -382.72640186548233, -318.10093063116074, -185.4990378022194
 1.7063894908313365E9, -350.1743126511574, -397.5663248896599, -345.14788711071014, -162.28173887729645
 1.7063894908313365E9, -472.24464720487595, -389.90700978040695, -308.5267867445946, -231.93363565206528
 1.706389490832042E9, -378.1786835193634, -380.57221949100494, -310.20226192474365, -221.64143097400665
 1.706389490832042E9, -310.20226192474365, -396.60891050100327, -345.8659479022026, -157.97337412834167
 1.7063894908459158E9, -434.9054860472679, -385.5986450314522, -320.4944666028023, -205.36538636684418
 1.7063894908459158E9, -426.7674637436867, -383.20510905981064, -305.41518998146057, -242.2258403301239
 1.7063894908613868E9, -310.9203227162361, -396.13020330667496, -342.2756439447403, -171.13782197237015
 1.7063894908613868E9, -397.80567848682404, -396.13020330667496, -338.685339987278, -188.13192737102509
 1.7063894908620448E9, -462.43114972114563, -380.09351229667664, -296.08039969205856, -250.84256982803345
 1.7063894908620448E9, -341.796936750412, -389.90700978040695, -334.13762164115906, -208.23762953281403
 1.7063894908759184E9, -353.0465558171272, -400.43856805562973, -357.11556696891785, -175.20683312416077
 1.7063894908759184E9, -474.87753677368164, -389.1889489889145, -316.1861018538475, -249.40644824504852
 1.7063894908913088E9, -394.69408172369003, -396.8482640981674, -325.0421849489212, -236.24200040102005
 1.7063894908913088E9, -340.83952236175537, -418.62944144010544, -364.7748820781708, -178.55778348445892
 1.7063894908920257E9, -452.6176522374153, -398.5237392783165, -328.1537817120552, -222.83819895982742
 1.7063894908920257E9, -435.6235468387604, -386.31670582294464, -306.8513115644455, -250.6032162308693
 1.7063894909056432E9, -325.9995993375778, -403.0714576244354, -353.7646166086197, -183.58420902490616
 1.7063894909056432E9, -407.61917597055435, -401.39598244428635, -339.88210797309875, -194.3551208972931
 1.7063894909216926E9, -473.920122385025, -386.79541301727295, -301.1068252325058, -255.15093457698822
 1.7063894909216926E9, -342.2756439447403, -395.65149611234665, -326.4783065319061, -203.6899111866951
 1.7063894909222164E9, -362.6206997036934, -405.46499359607697, -343.2330583333969, -175.44618672132492
 1.7063894909222164E9, -486.6058630347252, -396.3695569038391, -312.83515149354935, -250.12450903654099
 1.7063894909356678E9, -390.6250705718994, -395.17278891801834, -320.73382019996643, -232.41234284639359
 1.7063894909356678E9, -331.50473207235336, -407.61917597055435, -359.9878101348877, -173.29200434684753
 1.7063894909514005E9, -453.0963594317436, -399.4811536669731, -320.9731737971306, -224.75302773714066
 1.7063894909514005E9, -437.77772921323776, -392.3005457520485, -306.8513115644455, -251.79998421669006
 1.706389490952048E9, -320.01575940847397, -401.39598244428635, -345.3872407078743, -181.19067305326462
 1.706389490952048E9, -402.5927504301071, -398.5237392783165, -337.72792559862137, -194.11576730012894
 1.7063894909656942E9, -463.38856410980225, -382.4870482683182, -295.60169249773026, -254.6722273826599
 1.7063894909656942E9, -336.29180401563644, -387.75282740592957, -325.76024574041367, -194.11576730012894
 1.7063894909813628E9, -358.3123349547386, -400.91727524995804, -344.1904727220535, -164.91462844610214
 1.7063894909813628E9, -467.2182216644287, -380.8115730881691, -299.4313500523567, -230.97622126340866
 1.706389490982213E9, -376.98191553354263, -382.247694671154, -312.1170907020569, -217.33306622505188
 1.706389490982213E9, -334.61632883548737, -411.20947992801666, -359.0303957462311, -169.46234679222107
 1.7063894909956849E9, -459.79826015233994, -402.35339683294296, -320.2551130056381, -213.98211586475372
 1.7063894909956849E9, -436.34160763025284, -386.31670582294464, -303.97906839847565, -241.7471331357956
 1.706389491011698E9, -316.6648090481758, -398.28438568115234, -342.7543511390686, -174.24941873550415
 1.706389491011698E9, -405.9437007904053, -402.1140432357788, -339.1640471816063, -189.0893417596817
 1.7063894910120847E9, -467.2182216644287, -385.11993783712387, -299.4313500523567, -248.92774105072021
 1.7063894910120847E9, -333.8982680439949, -390.6250705718994, -337.9672791957855, -199.62090003490448
 1.7063894910422933E9, -346.3446550965309, -394.4547281265259, -342.2756439447403, -162.5210924744606
 1.7063894910422933E9, -464.1066249012947, -378.41803711652756, -296.08039969205856, -228.34333169460297
 1.7063894910427504E9, -370.2800148129463, -372.912904381752, -296.08039969205856, -210.3918119072914
 1.7063894910427504E9, -317.1435162425041, -391.3431313633919, -341.55758315324783, -153.90436297655106
 1.7063894910435097E9, -432.5119500756264, -373.3916115760803, -302.5429468154907, -192.91899931430817
 1.7063894910435097E9, -409.5340047478676, -361.18457812070847, -283.15530544519424, -220.9233701825142
 1.70638949105573E9, -311.6383835077286, -391.1037777662277, -340.83952236175537, -162.76044607162476
 1.70638949105573E9, -398.0450320839882, -393.01860654354095, -330.54731768369675, -174.4887723326683
 1.7063894910716343E9, -452.6176522374153, -372.912904381752, -289.1391453742981, -234.08781802654266
 1.7063894910716343E9, -324.0847705602646, -377.6999763250351, -316.90416264533997, -177.6003690958023
 1.7063894910723815E9, -346.10530149936676, -388.7102417945862, -330.06861048936844, -151.98953419923782
 1.7063894910723815E9, -467.696928858757, -382.9657554626465, -288.6604381799698, -215.89694464206696
 1.7063894910857542E9, -375.30644035339355, -376.5032083392143, -302.30359321832657, -202.49314320087433
 1.7063894910857542E9, -322.64864897727966, -398.5237392783165, -349.9349590539932, -152.94694858789444
 1.706389491101478E9, -439.93191158771515, -388.7102417945862, -307.8087259531021, -198.90283924341202
 1.706389491101478E9, -421.26233100891113, -378.41803711652756, -290.33591336011887, -225.23173493146896
 1.706389491102071E9, -302.7823004126549, -390.1463633775711, -333.8982680439949, -157.97337412834167
 1.706389491102071E9, -393.97602093219757, -391.8218385577202, -323.84541696310043, -173.05265074968338
 1.7063894911160116E9, -456.2079561948776, -376.26385474205017, -284.59142702817917, -232.41234284639359
 1.7063894911160116E9, -333.4195608496666, -381.2902802824974, -322.64864897727966, -182.8661482334137
 1.7063894911316512E9, -356.3975061774254, -396.13020330667496, -342.99370473623276, -156.2978989481926
 1.7063894911316512E9, -461.71308892965317, -375.78514754772186, -292.96880292892456, -225.47108852863312
 1.706389491132223E9, -376.5032083392143, -381.05092668533325, -305.1758363842964, -211.82793349027634
 1.706389491132223E9, -325.5208921432495, -396.8482640981674, -350.41366624832153, -161.80303168296814
 1.7063894911457703E9, -441.3680331707001, -383.4444626569748, -310.68096911907196, -204.40797197818756
 1.7063894911457703E9, -416.7146126627922, -370.2800148129463, -283.15530544519424, -229.30074608325958
 1.7063894911613696E9, -299.4313500523567, -376.26385474205017, -324.0847705602646, -155.34048455953598
 1.7063894911613696E9, -379.13609790802, -371.71613639593124, -318.10093063116074, -171.61652916669846
 1.70638949116212E9, -448.78799468278885, -364.0568212866783, -280.04370868206024, -233.13040363788605
 1.70638949116212E9, -322.8880025744438, -372.912904381752, -312.35644429922104, -179.51519787311554
 1.7063894911758287E9, -356.3975061774254, -391.8218385577202, -333.18020725250244, -158.21272772550583
 1.7063894911758287E9, -464.82468569278717, -373.15225797891617, -294.16557091474533, -226.18914932012558
 1.7063894911920853E9, -376.5032083392143, -375.0670867562294, -302.30359321832657, -212.78534787893295
 1.7063894911920853E9, -330.06861048936844, -398.28438568115234, -347.0627158880234, -162.0423852801323
 1.7063894912227907E9, -435.3841932415962, -375.0670867562294, -306.3726043701172, -205.36538636684418
 1.7063894912227907E9, -419.8262094259262, -370.2800148129463, -293.686863720417, -235.5239396095276
 1.706389491223553E9, -323.12735617160797, -404.50757920742035, -354.00397020578384, -187.41386657953262
 1.706389491223553E9, -413.1243087053299, -402.83210402727127, -328.6324889063835, -188.84998816251755
 1.7063894912242618E9, -454.53248101472855, -364.7748820781708, -278.36823350191116, -228.1039780974388
 1.7063894912242618E9, -334.3769752383232, -383.68381625413895, -320.2551130056381, -184.06291621923447
 1.7063894912250087E9, -351.84978783130646, -380.57221949100494, -326.7176601290703, -142.41539031267166
 1.7063894912250087E9, -471.0478792190552, -372.19484359025955, -288.1817309856415, -215.6575910449028
 1.7063894912360375E9, -385.359291434288, -379.8541586995125, -300.38876444101334, -203.45055758953094
 1.7063894912360375E9, -331.02602487802505, -391.58248496055603, -338.2066327929497, -144.8089262843132
 1.7063894912513473E9, -452.6176522374153, -385.83799862861633, -301.5855324268341, -191.48287773132324
 1.7063894912513473E9, -436.34160763025284, -377.2212691307068, -289.1391453742981, -221.16272377967834
 1.706389491252054E9, -319.7764058113098, -390.86442416906357, -333.4195608496666, -155.10113096237183
 1.706389491252054E9, -412.1668943166733, -398.76309287548065, -327.91442811489105, -170.898468375206
 1.7063894912656808E9, -483.73361986875534, -388.470888197422, -300.1494108438492, -243.42260831594467
 1.7063894912656808E9, -359.74845653772354, -398.28438568115234, -331.02602487802505, -193.63706010580063
 1.7063894912809446E9, -383.4444626569748, -414.5604302883148, -354.48267740011215, -173.05265074968338
 1.7063894912809446E9, -499.0522500872612, -400.43856805562973, -315.7073946595192, -246.05549788475037
 1.706389491296446E9, -340.83952236175537, -407.3798223733902, -354.96138459444046, -160.36691009998322
 1.706389491296446E9, -460.75567454099655, -389.90700978040695, -312.83515149354935, -203.2112039923668
 1.706389491297072E9, -429.1609997153282, -376.5032083392143, -292.2507421374321, -224.5136741399765
 1.706389491297072E9, -322.8880025744438, -398.76309287548065, -343.2330583333969, -162.0423852801323
 1.7063894913107672E9, -417.911380648613, -404.98628640174866, -337.72792559862137, -182.3874410390854
 1.7063894913107672E9, -473.4414151906967, -386.5560594201088, -297.9952284693718, -240.07165795564651
 1.7063894913263783E9, -346.3446550965309, -393.97602093219757, -328.87184250354767, -188.84998816251755
 1.7063894913263783E9, -358.7910421490669, -394.4547281265259, -333.8982680439949, -154.62242376804352
 1.7063894913270905E9, -471.28723281621933, -376.98191553354263, -286.0275486111641, -213.74276226758957
 1.7063894913270905E9, -375.5457939505577, -377.93932992219925, -303.02165400981903, -199.86025363206863
 1.706389491340855E9, -329.58990329504013, -399.24180006980896, -346.10530149936676, -150.0747054219246
 1.706389491340855E9, -452.138945043087, -390.6250705718994, -309.24484753608704, -196.50930327177048
 1.706389491356352E9, -432.9906572699547, -372.912904381752, -292.7294493317604, -219.96595579385757
 1.706389491356352E9, -318.10093063116074, -389.6676561832428, -331.7440856695175, -152.70759499073029
 1.7063894913570917E9, -404.7469328045845, -389.1889489889145, -327.43572092056274, -171.13782197237015
 1.7063894913570917E9, -464.1066249012947, -370.2800148129463, -288.1817309856415, -229.7794532775879
 1.7063894913711128E9, -334.61632883548737, -381.7689874768257, -320.73382019996643, -175.92489391565323
 1.7063894913711128E9, -357.8336277604103, -395.8908497095108, -338.2066327929497, -151.75018060207367
 1.7063894913866405E9, -466.97886806726456, -370.5193684101105, -288.1817309856415, -216.1362982392311
 1.7063894913866405E9, -368.12583243846893, -366.2110036611557, -293.9262173175812, -195.55188888311386
 1.7063894913873563E9, -318.10093063116074, -385.359291434288, -336.29180401563644, -140.97926872968674
 1.7063894913873563E9, -444.9583371281624, -384.8805842399597, -308.7661403417587, -195.79124248027802
 1.706389491400699E9, -427.96423172950745, -371.9554899930954, -292.7294493317604, -221.64143097400665
 1.706389491400699E9, -314.27127307653427, -387.0347666144371, -332.9408536553383, -152.70759499073029
 1.7063894914166775E9, -396.3695569038391, -383.9231698513031, -318.10093063116074, -161.08497089147568
 1.7063894914166775E9, -447.3518730998039, -363.33876049518585, -279.56500148773193, -220.44466298818588
 1.7063894914172957E9, -349.21689826250076, -395.8908497095108, -333.65891444683075, -191.96158492565155
 1.7063894914172957E9, -353.2859094142914, -390.6250705718994, -334.61632883548737, -152.22888779640198
 1.706389491430684E9, -448.78799468278885, -363.0994068980217, -278.6075870990753, -212.0672870874405
 1.706389491430684E9, -364.0568212866783, -373.3916115760803, -295.8410460948944, -202.97185039520264
 1.7063894914464965E9, -301.1068252325058, -377.6999763250351, -337.4885720014572, -148.15987664461136
 1.7063894914464965E9, -424.6132813692093, -373.6309651732445, -300.6281180381775, -200.81766802072525
 1.7063894914471133E9, -397.0876176953316, -357.8336277604103, -281.9585374593735, -226.6678565144539
 1.7063894914471133E9, -282.67659825086594, -375.78514754772186, -330.06861048936844, -166.35075002908707
 1.7063894914606671E9, -373.87031877040863, -372.4341971874237, -322.16994178295135, -182.3874410390854
 1.7063894914606671E9, -433.469364464283, -361.6632853150368, -280.7617694735527, -236.72070759534836
 1.706389491476552E9, -300.1494108438492, -365.7322964668274, -310.4416155219078, -183.8235626220703
 1.706389491476552E9, -335.0950360298157, -386.5560594201088, -333.4195608496666, -167.54751801490784
 1.7063894914771411E9, -458.12278497219086, -376.98191553354263, -298.23458206653595, -243.66196191310883
 1.7063894914771411E9, -361.4239317178726, -366.92906445264816, -302.30359321832657, -217.57241982221603
 1.7063894914909148E9, -308.7661403417587, -386.5560594201088, -344.1904727220535, -158.9307885169983
 1.7063894914909148E9, -430.11841410398483, -377.2212691307068, -306.3726043701172, -211.34922629594803
 1.7063894915068858E9, -396.60891050100327, -361.6632853150368, -287.70302379131317, -231.69428205490112
 1.7063894915068858E9, -289.37849897146225, -377.46062272787094, -327.1963673233986, -160.12755650281906
 1.7063894915214024E9, -373.3916115760803, -373.15225797891617, -317.3828698396683, -177.83972269296646
 1.7063894915214024E9, -437.29902201890945, -365.97165006399155, -276.93211191892624, -236.72070759534836
 1.706389491522152E9, -309.24484753608704, -374.1096723675728, -320.9731737971306, -190.52546334266663
 1.706389491522152E9, -345.62659430503845, -387.9921810030937, -343.7117655277252, -172.57394355535507
 1.7063894915364687E9, -465.3033928871155, -375.5457939505577, -302.30359321832657, -247.4916194677353
 1.7063894915364687E9, -374.5883795619011, -387.27412021160126, -316.90416264533997, -225.47108852863312
 1.7063894915371387E9, -313.5532122850418, -399.24180006980896, -345.62659430503845, -164.43592125177383
 1.7063894915371387E9, -430.357767701149, -380.8115730881691, -306.8513115644455, -213.0247014760971
 1.7063894915509653E9, -404.50757920742035, -365.7322964668274, -290.575266957283, -235.04523241519928
 1.7063894915509653E9, -293.686863720417, -385.83799862861633, -338.685339987278, -175.68554031848907
 1.7063894915667665E9, -378.41803711652756, -372.912904381752, -329.1111961007118, -186.456452190876
 1.7063894915667665E9, -446.15510511398315, -368.3651860356331, -292.01138854026794, -249.40644824504852
 1.7063894915672555E9, -312.5957978963852, -371.23742920160294, -319.2976986169815, -187.89257377386093
 1.7063894915672555E9, -349.21689826250076, -399.72050726413727, -351.37108063697815, -176.16424751281738
 1.706389491580937E9, -464.82468569278717, -385.5986450314522, -296.08039969205856, -236.9600611925125
 1.706389491580937E9, -365.97165006399155, -379.13609790802, -309.4842011332512, -221.8807845711708
 1.7063894915965803E9, -313.79256588220596, -397.3269712924957, -350.89237344264984, -169.94105398654938
 1.7063894915965803E9, -420.7836238145828, -367.8864788413048, -298.71328926086426, -202.25378960371017
 1.7063894915970984E9, -405.46499359607697, -360.22716373205185, -289.37849897146225, -228.1039780974388
 1.7063894915970984E9, -294.8836317062378, -379.3754515051842, -326.4783065319061, -159.8882029056549
 1.7063894916107116E9, -387.0347666144371, -383.20510905981064, -321.9305881857872, -183.58420902490616
 1.7063894916107116E9, -442.3254475593567, -368.3651860356331, -282.9159518480301, -240.07165795564651
 1.7063894916263568E9, -328.39313530921936, -389.90700978040695, -322.64864897727966, -188.37128096818924
 1.7063894916263568E9, -354.243323802948, -395.4121425151825, -344.66917991638184, -165.39333564043045
 1.7063894916271365E9, -464.82468569278717, -376.024501144886, -297.5165212750435, -230.97622126340866
 1.7063894916271365E9, -372.4341971874237, -375.78514754772186, -313.0745050907135, -214.22146946191788
 1.706389491640744E9, -327.6750745177269, -403.55016481876373, -348.73819106817245, -160.84561729431152
 1.706389491640744E9, -441.1286795735359, -384.16252344846725, -307.56937235593796, -201.0570216178894
 1.706389491656656E9, -417.911380648613, -378.89674431085587, -298.23458206653595, -232.41234284639359
 1.706389491656656E9, -310.4416155219078, -394.9334353208542, -342.51499754190445, -165.39333564043045
 1.706389491657097E9, -396.8482640981674, -389.6676561832428, -332.46214646101, -182.62679463624954
 1.706389491657097E9, -448.5486410856247, -372.67355078458786, -290.33591336011887, -238.15682917833328
 1.70638949168705E9, -327.43572092056274, -384.16252344846725, -326.4783065319061, -185.9777449965477
 1.70638949168705E9, -350.89237344264984, -390.86442416906357, -338.92469358444214, -158.21272772550583
 1.706389491687782E9, -470.56917202472687, -383.4444626569748, -296.55910688638687, -231.69428205490112
 1.706389491687782E9, -371.4767827987671, -377.46062272787094, -299.4313500523567, -208.71633672714233
 1.7063894916885154E9, -318.57963782548904, -393.2579601407051, -345.3872407078743, -157.01595973968506
 1.7063894916885154E9, -444.00092273950577, -384.4018770456314, -311.3990299105644, -208.9556903243065
 1.706389491700796E9, -422.69845259189606, -380.57221949100494, -296.3197532892227, -238.15682917833328
 1.706389491700796E9, -308.7661403417587, -397.5663248896599, -349.9349590539932, -178.07907629013062
 1.7063894917166193E9, -400.1992144584656, -398.76309287548065, -330.06861048936844, -187.17451298236847
 1.7063894917166193E9, -460.27696734666824, -383.4444626569748, -297.75587487220764, -245.8161442875862
 1.7063894917173362E9, -337.9672791957855, -393.49731373786926, -332.2227928638458, -194.59447449445724
 1.7063894917173362E9, -354.48267740011215, -395.8908497095108, -339.1640471816063, -162.0423852801323
 1.7063894917307615E9, -464.82468569278717, -379.6148051023483, -297.5165212750435, -232.65169644355774
 1.7063894917307615E9, -363.57811409235, -373.15225797891617, -306.13325077295303, -208.71633672714233
 1.7063894917463849E9, -321.69123458862305, -395.4121425151825, -346.58400869369507, -160.84561729431152
 1.7063894917463849E9, -433.23001086711884, -379.3754515051842, -304.45777559280396, -203.2112039923668
 1.7063894917471254E9, -414.32107669115067, -375.30644035339355, -294.4049245119095, -230.49751406908035
 1.7063894917471254E9, -305.8938971757889, -391.1037777662277, -334.13762164115906, -162.5210924744606
 1.7063894917770991E9, -387.5134738087654, -387.5134738087654, -322.16994178295135, -182.14808744192123
 1.7063894917770991E9, -451.42088425159454, -376.7425619363785, -288.89979177713394, -244.14066910743713
 1.7063894917777944E9, -317.8615770339966, -376.98191553354263, -317.8615770339966, -180.47261226177216
 1.7063894917777944E9, -353.0465558171272, -393.7366673350334, -338.685339987278, -162.9997996687889
 1.7063894917785685E9, -465.54274648427963, -379.8541586995125, -290.8146205544472, -229.7794532775879
 1.7063894917785685E9, -368.12583243846893, -375.0670867562294, -302.7823004126549, -200.5783144235611
 1.70638949180745E9, -327.1963673233986, -396.8482640981674, -342.03629034757614, -153.6650093793869
 1.70638949180745E9, -441.1286795735359, -382.00834107398987, -303.50036120414734, -208.47698312997818
 1.706389491808153E9, -409.5340047478676, -371.71613639593124, -286.5062558054924, -227.1465637087822
 1.706389491808153E9, -298.4739356637001, -385.359291434288, -338.44598639011383, -162.76044607162476
 1.7063894918217952E9, -379.8541586995125, -376.7425619363785, -319.2976986169815, -178.07907629013062
 1.7063894918217952E9, -438.97449719905853, -367.6471252441406, -282.67659825086594, -235.28458601236343
 1.7063894918222218E9, -318.57963782548904, -382.72640186548233, -318.57963782548904, -178.07907629013062
 1.7063894918222218E9, -339.88210797309875, -384.8805842399597, -327.43572092056274, -148.63858383893967
 1.7063894918364587E9, -452.6176522374153, -362.38134610652924, -281.47983026504517, -216.1362982392311
 1.7063894918364587E9, -350.6530198454857, -358.55168855190277, -290.8146205544472, -187.89257377386093
 1.7063894918371124E9, -297.9952284693718, -372.19484359025955, -323.6060633659363, -135.23478239774704
 1.7063894918371124E9, -416.7146126627922, -362.6206997036934, -294.16557091474533, -186.456452190876
 1.7063894918510995E9, -400.91727524995804, -365.2535892724991, -290.575266957283, -220.20530939102173
 1.7063894918510995E9, -281.240476667881, -375.30644035339355, -332.9408536553383, -151.51082700490952
 1.706389491866363E9, -375.0670867562294, -370.7587220072746, -322.8880025744438, -176.6429547071457
 1.706389491866363E9, -438.7351436018944, -365.97165006399155, -285.5488414168358, -241.26842594146729
 1.7063894918670623E9, -316.6648090481758, -378.1786835193634, -326.238952934742, -188.6106345653534
 1.7063894918670623E9, -331.50473207235336, -370.9980756044388, -325.76024574041367, -156.7766061425209
 1.7063894918810675E9, -440.88932597637177, -360.22716373205185, -279.8043550848961, -224.5136741399765
 1.7063894918810675E9, -345.3872407078743, -353.7646166086197, -284.11271983385086, -193.39770650863647
 1.7063894918963816E9, -294.64427810907364, -368.8438932299614, -328.6324889063835, -144.3302190899849
 1.7063894918963816E9, -408.57659035921097, -352.8072022199631, -284.8307806253433, -191.96158492565155
 1.706389491897095E9, -389.6676561832428, -348.73819106817245, -273.1024543642998, -215.89694464206696
 1.706389491897095E9, -281.240476667881, -370.5193684101105, -329.58990329504013, -155.57983815670013
 1.706389491910849E9, -369.801307618618, -359.5091029405594, -301.34617882966995, -166.82945722341537
 1.706389491910849E9, -427.246170938015, -352.0891414284706, -268.07602882385254, -225.23173493146896
 1.7063894919429655E9, -303.02165400981903, -358.7910421490669, -302.5429468154907, -167.06881082057953
 1.7063894919429655E9, -336.77051120996475, -374.34902596473694, -328.39313530921936, -152.94694858789444
 1.7063894919434843E9, -449.74540907144547, -367.40777164697647, -277.1714655160904, -224.9923813343048
 1.7063894919434843E9, -357.354920566082, -373.87031877040863, -298.23458206653595, -207.04086154699326
 1.7063894919442184E9, -315.2286874651909, -388.94959539175034, -335.573743224144, -153.42565578222275
 1.7063894919442184E9, -429.40035331249237, -365.97165006399155, -292.96880292892456, -201.29637521505356
 1.706389491944956E9, -410.4914191365242, -369.56195402145386, -292.2507421374321, -229.30074608325958
 1.706389491944956E9, -302.5429468154907, -386.5560594201088, -338.92469358444214, -164.675274848938
 1.706389491955684E9, -401.87468963861465, -388.7102417945862, -321.69123458862305, -181.90873384475708
 1.706389491955684E9, -442.804154753685, -365.49294286966324, -279.8043550848961, -229.54009968042374
 1.7063894919710383E9, -309.0054939389229, -369.08324682712555, -311.15967631340027, -174.4887723326683
 1.7063894919710383E9, -336.5311576128006, -375.30644035339355, -325.76024574041367, -152.46824139356613
 1.7063894919864173E9, -442.08609396219254, -355.44009178876877, -274.0598687529564, -213.50340867042542
 1.7063894919864173E9, -353.2859094142914, -364.7748820781708, -297.27716767787933, -195.3125352859497
 1.7063894919870744E9, -304.45777559280396, -377.6999763250351, -333.8982680439949, -142.41539031267166
 1.7063894919870744E9, -426.0494029521942, -360.466517329216, -292.7294493317604, -193.39770650863647
 1.7063894920010395E9, -404.2682256102562, -361.6632853150368, -286.5062558054924, -221.64143097400665
 1.7063894920010395E9, -298.4739356637001, -385.11993783712387, -334.3769752383232, -151.98953419923782
 1.706389492016438E9, -394.69408172369003, -383.68381625413895, -320.01575940847397, -171.61652916669846
 1.706389492016438E9, -448.0699338912964, -372.912904381752, -282.67659825086594, -226.90721011161804
 1.706389492017285E9, -325.9995993375778, -385.359291434288, -319.7764058113098, -174.9674795269966
 1.706389492017285E9, -353.52526301145554, -386.5560594201088, -337.24921840429306, -156.53725254535675
 1.7063894920307288E9, -462.43114972114563, -369.3226004242897, -283.63401263952255, -215.6575910449028
 1.7063894920307288E9, -362.6206997036934, -364.0568212866783, -297.27716767787933, -198.18477845191956
 1.706389492046357E9, -319.2976986169815, -391.3431313633919, -335.3343896269798, -140.26120793819427
 1.706389492046357E9, -434.18742525577545, -375.0670867562294, -294.64427810907364, -191.7222313284874
 1.706389492047054E9, -397.3269712924957, -356.8762133717537, -283.3946590423584, -221.8807845711708
 1.706389492047054E9, -298.71328926086426, -387.0347666144371, -348.9775446653366, -176.6429547071457
 1.7063894920609107E9, -399.72050726413727, -386.5560594201088, -317.1435162425041, -175.44618672132492
 1.7063894920609107E9, -439.2138507962227, -359.5091029405594, -275.9746975302696, -224.75302773714066
 1.7063894920763507E9, -313.79256588220596, -367.40777164697647, -316.6648090481758, -165.6326892375946
 1.7063894920763507E9, -337.0098648071289, -366.45035725831985, -314.7499802708626, -139.5431471467018
 1.7063894920770516E9, -452.85700583457947, -359.74845653772354, -275.73534393310547, -211.82793349027634
