 Timestamp, EXG Channel 0, EXG Channel 1, EXG Channel 2, EXG Channel 3
 1.7054508275694056E9, -432.03324288129807, -483.9729734659195, -286.5062558054924, -148.3992302417755
 1.7054508275694056E9, 0.0, 0.0, 0.0, 0.0
 1.7054508276133132E9, -437.77772921323776, -498.0948356986046, -297.75587487220764, -224.75302773714066
 1.7054508276133132E9, -403.0714576244354, -484.4516806602478, -295.12298530340195, -110.10265469551086
 1.70545082762726E9, -310.68096911907196, -500.24901807308197, -319.7764058113098, -73.24220073223114
 1.70545082762726E9, -395.8908497095108, -503.8393220305443, -313.79256588220596, -206.56215435266495
 1.7054508276417153E9, -432.2725964784622, -478.94654792547226, -282.4372446537018, -150.5534126162529
 1.7054508276417153E9, -332.9408536553383, -502.1638468503952, -311.3990299105644, -54.33326655626297
 1.705450827642418E9, -359.26974934339523, -510.30186915397644, -323.12735617160797, -160.60626369714737
 1.705450827642418E9, -455.01118820905685, -488.99939900636673, -293.2081565260887, -213.74276226758957
 1.7054508276561205E9, -355.6794453859329, -487.32392382621765, -294.8836317062378, -67.7370679974556
 1.7054508276561205E9, -320.73382019996643, -508.62639397382736, -319.2976986169815, -116.32584822177887
 1.705450827672246E9, -432.5119500756264, -493.54711735248566, -294.4049245119095, -219.2478950023651
 1.705450827672246E9, -396.13020330667496, -480.3826695084572, -291.53268134593964, -106.99105793237686
 1.7054508276725888E9, -309.9629083275795, -510.0625155568123, -321.4518809914589, -66.30094641447067
 1.7054508276725888E9, -401.6353360414505, -508.14768677949905, -311.3990299105644, -202.25378960371017
 1.7054508276862113E9, -434.4267788529396, -488.5206918120384, -288.1817309856415, -150.79276621341705
 1.7054508276862113E9, -323.12735617160797, -498.0948356986046, -312.5957978963852, -45.47718346118927
 1.7054508277017386E9, -357.11556696891785, -509.583808362484, -322.64864897727966, -162.0423852801323
 1.7054508277017386E9, -448.5486410856247, -492.11099576950073, -297.9952284693718, -206.56215435266495
 1.7054508277024238E9, -363.0994068980217, -493.54711735248566, -299.4313500523567, -65.82223922014236
 1.7054508277024238E9, -325.5208921432495, -512.4560515284538, -326.7176601290703, -117.7619698047638
 1.7054508277164588E9, -430.11841410398483, -494.5045317411423, -301.1068252325058, -219.48724859952927
 1.7054508277164588E9, -408.3372367620468, -491.39293497800827, -302.0642396211624, -112.97489786148071
 1.7054508277317207E9, -314.0319194793701, -515.3282946944237, -318.8189914226532, -64.6254712343216
 1.7054508277317207E9, -393.49731373786926, -496.18000692129135, -304.93648278713226, -196.26994967460632
 1.7054508277324626E9, -430.59712129831314, -478.94654792547226, -285.5488414168358, -149.83535182476044
 1.7054508277324626E9, -327.6750745177269, -502.40320044755936, -314.27127307653427, -46.913305044174194
 1.7054508277628844E9, -354.96138459444046, -508.62639397382736, -314.98933386802673, -155.8191917538643
 1.7054508277628844E9, -447.83058029413223, -484.4516806602478, -289.85720616579056, -196.03059607744217
 1.705450827763553E9, -357.8336277604103, -488.5206918120384, -298.71328926086426, -58.64163130521774
 1.705450827763553E9, -317.8615770339966, -503.1212612390518, -318.57963782548904, -111.53877627849579
 1.705450827777049E9, -421.74103820323944, -493.3077637553215, -297.5165212750435, -213.0247014760971
 1.705450827777049E9, -388.94959539175034, -476.0743047595024, -283.15530544519424, -95.02337807416916
 1.7054508277774436E9, -301.34617882966995, -503.360614836216, -320.73382019996643, -62.71064245700836
 1.7054508277774436E9, -390.1463633775711, -500.24901807308197, -311.87773710489273, -203.45055758953094
 1.705450827791957E9, -428.92164611816406, -484.4516806602478, -295.8410460948944, -155.34048455953598
 1.705450827791957E9, -322.8880025744438, -500.24901807308197, -312.5957978963852, -49.06748741865158
 1.7054508277924407E9, -352.5678486227989, -504.7967364192009, -309.9629083275795, -151.75018060207367
 1.7054508277924407E9, -445.4370443224907, -483.25491267442703, -288.42108458280563, -202.01443600654602
 1.7054508278059742E9, -356.3975061774254, -489.95681339502335, -303.97906839847565, -63.66805684566498
 1.7054508278059742E9, -319.7764058113098, -511.25928354263306, -317.1435162425041, -106.99105793237686
 1.7054508278220632E9, -436.1022540330887, -500.7277252674103, -308.2874331474304, -219.00854140520096
 1.7054508278220632E9, -405.9437007904053, -490.1961669921875, -295.60169249773026, -105.31558275222778
 1.7054508278225613E9, -314.7499802708626, -511.4986371397972, -326.238952934742, -61.9925816655159
 1.7054508278225613E9, -399.9598608613014, -513.1741123199463, -322.16994178295135, -201.29637521505356
 1.7054508278360107E9, -432.03324288129807, -483.25491267442703, -288.6604381799698, -154.1437165737152
 1.7054508278360107E9, -324.32412415742874, -500.7277252674103, -310.20226192474365, -49.54619461297989
 1.7054508278520837E9, -356.3975061774254, -510.30186915397644, -317.8615770339966, -158.45208132266998
 1.7054508278520837E9, -446.63381230831146, -485.6484486460686, -291.0539741516113, -199.62090003490448
 1.705450827852491E9, -357.354920566082, -494.02582454681396, -301.5855324268341, -64.6254712343216
 1.705450827852491E9, -322.16994178295135, -506.71156519651413, -329.58990329504013, -112.73554426431656
 1.7054508278660643E9, -430.8364748954773, -498.0948356986046, -298.71328926086426, -214.46082305908203
 1.7054508278660643E9, -401.6353360414505, -480.14331591129303, -292.2507421374321, -101.48592519760132
 1.7054508278817456E9, -308.2874331474304, -500.4883716702461, -312.83515149354935, -65.82223922014236
 1.7054508278817456E9, -392.3005457520485, -498.0948356986046, -308.5267867445946, -194.59447449445724
 1.7054508278824737E9, -426.28875654935837, -473.4414151906967, -275.017283141613, -143.13345110416412
 1.7054508278824737E9, -304.93648278713226, -478.94654792547226, -300.38876444101334, -35.663685977458954
 1.705450827896619E9, -343.47241193056107, -500.4883716702461, -313.31385868787766, -149.35664463043213
 1.705450827896619E9, -438.25643640756607, -479.1859015226364, -275.017283141613, -196.74865686893463
 1.7054508279117184E9, -343.7117655277252, -480.14331591129303, -286.26690220832825, -51.46102339029312
 1.7054508279117184E9, -302.30359321832657, -492.11099576950073, -319.05834501981735, -93.10854929685593
 1.705450827912424E9, -400.6779216527939, -468.8936968445778, -283.63401263952255, -193.87641370296478
 1.705450827912424E9, -365.97165006399155, -459.79826015233994, -269.2727968096733, -75.87509030103683
 1.7054508279260712E9, -281.240476667881, -477.51042634248734, -289.6178525686264, -39.49334353208542
 1.7054508279260712E9, -376.26385474205017, -483.0155590772629, -293.686863720417, -179.51519787311554
 1.7054508279418993E9, -377.46062272787094, -434.66613245010376, -254.6722273826599, -123.50645613670349
 1.7054508279418993E9, -263.76766407489777, -438.7351436018944, -280.2830622792244, -24.653420507907867
 1.7054508279425912E9, -286.74560940265656, -443.2828619480133, -268.794089615345, -105.31558275222778
 1.7054508279425912E9, -359.0303957462311, -399.72050726413727, -224.9923813343048, -123.74580973386765
 1.7054508279562175E9, -266.87926083803177, -402.35339683294296, -229.30074608325958, 11.24961906671524
 1.7054508279562175E9, -218.2904806137085, -404.2682256102562, -232.8910500407219, -26.807602882385254
 1.705450827971814E9, -315.94674825668335, -373.6309651732445, -214.93953025341034, -120.39485937356949
 1.705450827971814E9, -280.7617694735527, -362.1419925093651, -194.59447449445724, -1.1967679858207703
 1.7054508279724555E9, -171.61652916669846, -361.18457812070847, -203.45055758953094, 39.01463633775711
 1.7054508279724555E9, -247.73097306489944, -349.69560545682907, -204.1686183810234, -96.45949965715408
 1.705450827986582E9, -272.8631007671356, -315.7073946595192, -153.1863021850586, -28.243724465370178
 1.705450827986582E9, -166.35075002908707, -336.77051120996475, -184.78097701072693, 77.55056548118591
 1.7054508280015185E9, -170.898468375206, -327.1963673233986, -184.30226981639862, -30.15855324268341
 1.7054508280015185E9, -270.70891839265823, -315.2286874651909, -150.31405901908875, -89.75759893655777
 1.705450828016758E9, -172.81329715251923, -301.5855324268341, -164.19656765460968, 63.90741044282913
 1.705450828016758E9, -142.89409750699997, -327.43572092056274, -184.54162341356277, 19.866348564624786
 1.7054508280174613E9, -243.66196191310883, -316.6648090481758, -170.65911477804184, -100.76786440610886
 1.7054508280174613E9, -214.93953025341034, -301.34617882966995, -160.60626369714737, -0.23935359716415405
 1.7054508280323033E9, -148.3992302417755, -349.21689826250076, -212.0672870874405, 18.190873384475708
 1.7054508280323033E9, -244.14066910743713, -362.1419925093651, -212.0672870874405, -103.6401075720787
 1.7054508280325656E9, -284.8307806253433, -346.10530149936676, -184.30226981639862, -60.31710648536682
 1.7054508280325656E9, -188.13192737102509, -370.2800148129463, -224.75302773714066, 24.17471331357956
 1.705450828046094E9, -237.43876838684082, -403.0714576244354, -253.236105799675, -108.42717951536179
 1.705450828046094E9, -357.11556696891785, -409.29465115070343, -257.7838241457939, -185.4990378022194
 1.7054508280618823E9, -291.0539741516113, -437.0596684217453, -273.82051515579224, -67.49771440029144
 1.7054508280618823E9, -250.12450903654099, -448.0699338912964, -286.5062558054924, -97.4169140458107
 1.7054508280624845E9, -348.02013027668, -423.4165133833885, -258.2625313401222, -194.3551208972931
 1.7054508280624845E9, -325.9995993375778, -421.9803918004036, -242.7045475244522, -77.78991907835007
 1.7054508280764196E9, -246.53420507907867, -454.2931274175644, -284.8307806253433, -58.40227770805359
 1.7054508280764196E9, -348.25948387384415, -466.97886806726456, -294.4049245119095, -205.84409356117249
 1.705450828091745E9, -393.49731373786926, -451.1815306544304, -285.30948781967163, -166.82945722341537
 1.705450828091745E9, -280.52241587638855, -462.90985691547394, -290.0965597629547, -56.72680252790451
 1.705450828092438E9, -307.56937235593796, -473.20206159353256, -297.5165212750435, -162.5210924744606
 1.705450828092438E9, -434.18742525577545, -488.5206918120384, -299.4313500523567, -231.45492845773697
 1.7054508281061788E9, -363.0994068980217, -505.03609001636505, -320.2551130056381, -101.96463239192963
 1.7054508281061788E9, -316.6648090481758, -513.8921731114388, -335.573743224144, -139.78250074386597
 1.7054508281219351E9, -438.4957900047302, -512.9347587227821, -321.9305881857872, -248.4490338563919
 1.7054508281219351E9, -408.3372367620468, -503.360614836216, -310.9203227162361, -141.6973295211792
 1.7054508281224327E9, -328.6324889063835, -529.2108033299446, -356.8762133717537, -107.23041152954102
 1.7054508281224327E9, -414.0817230939865, -528.4927425384521, -342.99370473623276, -240.55036514997482
 1.7054508281364615E9, -462.43114972114563, -519.6366594433784, -318.10093063116074, -202.73249679803848
 1.7054508281364615E9, -360.22716373205185, -547.1623231172562, -354.96138459444046, -105.07622915506363
 1.7054508281517248E9, -397.5663248896599, -568.9435004591942, -370.2800148129463, -216.61500543355942
 1.7054508281517248E9, -488.99939900636673, -539.2636544108391, -329.1111961007118, -264.7250784635544
 1.7054508281525123E9, -399.72050726413727, -535.1946432590485, -343.2330583333969, -116.56520181894302
 1.7054508281525123E9, -359.9878101348877, -557.9332349896431, -360.9452245235443, -159.8882029056549
 1.7054508281830077E9, -466.97886806726456, -540.2210687994957, -340.36081516742706, -267.59732162952423
 1.7054508281830077E9, -430.59712129831314, -527.7746817469597, -337.24921840429306, -155.57983815670013
 1.7054508281832397E9, -343.47241193056107, -550.7526270747185, -361.9026389122009, -112.97489786148071
 1.7054508281832397E9, -425.33134216070175, -547.8803839087486, -356.3975061774254, -251.0819234251976
 1.7054508281841023E9, -464.1066249012947, -516.5250626802444, -313.79256588220596, -203.92926478385925
 1.7054508281841023E9, -351.84978783130646, -532.5617536902428, -340.1214615702629, -92.62984210252762
 1.7054508281960332E9, -382.00834107398987, -548.3590911030769, -357.11556696891785, -198.66348564624786
 1.7054508281960332E9, -471.76594001054764, -521.0727810263634, -312.5957978963852, -241.98648673295975
 1.7054508282117496E9, -385.11993783712387, -521.3121346235275, -324.0847705602646, -97.4169140458107
 1.7054508282117496E9, -362.86005330085754, -558.1725885868073, -356.8762133717537, -159.8882029056549
 1.7054508282124417E9, -460.75567454099655, -539.0243008136749, -332.46214646101, -259.69865292310715
 1.7054508282124417E9, -430.59712129831314, -520.1153666377068, -325.28153854608536, -137.62831836938858
 1.705450828226172E9, -342.99370473623276, -546.6836159229279, -342.51499754190445, -104.11881476640701
 1.705450828226172E9, -429.6397069096565, -541.4178367853165, -340.1214615702629, -232.17298924922943
 1.7054508282417307E9, -459.79826015233994, -523.9450241923332, -330.7866712808609, -188.37128096818924
 1.7054508282417307E9, -353.2859094142914, -537.8275328278542, -348.9775446653366, -84.25246620178223
 1.7054508282424064E9, -387.5134738087654, -547.6410303115845, -363.33876049518585, -195.07318168878555
 1.7054508282424064E9, -477.2710727453232, -530.1682177186012, -329.1111961007118, -241.02907234430313
 1.7054508282565367E9, -377.46062272787094, -519.1579522490501, -320.4944666028023, -95.74143886566162
 1.7054508282565367E9, -348.25948387384415, -544.5294335484505, -356.3975061774254, -141.6973295211792
 1.7054508282717988E9, -441.8467403650284, -518.918598651886, -312.1170907020569, -242.94390112161636
 1.7054508282717988E9, -405.7043471932411, -499.77031087875366, -292.49009573459625, -123.9851633310318
 1.705450828272496E9, -320.01575940847397, -523.4663169980049, -329.58990329504013, -86.88535577058792
 1.705450828272496E9, -403.7895184159279, -526.5779137611389, -338.685339987278, -224.5136741399765
 1.7054508282860608E9, -456.2079561948776, -518.2005378603935, -332.2227928638458, -190.28610974550247
 1.7054508282860608E9, -344.1904727220535, -523.9450241923332, -325.76024574041367, -74.67832231521606
 1.7054508283192227E9, -387.0347666144371, -548.3590911030769, -350.6530198454857, -182.14808744192123
 1.7054508283192227E9, -471.5265864133835, -521.5514882206917, -316.90416264533997, -232.65169644355774
 1.705450828319646E9, -393.49731373786926, -524.1843777894974, -334.61632883548737, -96.69885325431824
 1.705450828319646E9, -345.62659430503845, -539.5030080080032, -331.98343926668167, -138.82508635520935
 1.7054508283203025E9, -454.53248101472855, -534.476582467556, -331.50473207235336, -249.16709464788437
 1.7054508283203025E9, -424.6132813692093, -516.5250626802444, -306.8513115644455, -143.85151189565659
 1.7054508283211524E9, -329.58990329504013, -528.9714497327805, -351.6104342341423, -95.26273167133331
 1.7054508283211524E9, -420.54427021741867, -537.1094720363617, -334.3769752383232, -231.21557486057281
 1.7054508283310747E9, -460.75567454099655, -520.1153666377068, -316.42545545101166, -186.21709859371185
 1.7054508283310747E9, -345.3872407078743, -523.4663169980049, -332.70150005817413, -78.02927267551422
 1.7054508283462968E9, -375.5457939505577, -538.5455936193466, -342.03629034757614, -180.95131945610046
 1.7054508283462968E9, -475.35624396800995, -522.9876098036766, -326.4783065319061, -239.1142435669899
 1.7054508283624632E9, -378.6573907136917, -514.1315267086029, -334.61632883548737, -92.39048850536346
 1.7054508283624632E9, -340.83952236175537, -539.0243008136749, -351.131727039814, -137.14961117506027
 1.7054508283631089E9, -448.5486410856247, -520.5940738320351, -325.0421849489212, -244.3800227046013
 1.7054508283631089E9, -414.799783885479, -501.92449325323105, -307.09066516160965, -131.16577124595642
 1.7054508283763282E9, -326.95701372623444, -531.6043393015862, -348.9775446653366, -91.43307411670685
 1.7054508283763282E9, -404.7469328045845, -523.9450241923332, -335.573743224144, -219.48724859952927
 1.7054508283917987E9, -433.70871806144714, -501.44578605890274, -312.35644429922104, -176.88230830430984
 1.7054508283917987E9, -334.8556824326515, -512.695405125618, -336.77051120996475, -68.69448238611221
 1.7054508283924556E9, -336.0524504184723, -501.6851396560669, -330.06861048936844, -162.28173887729645
 1.7054508283924556E9, -419.8262094259262, -458.8408457636833, -271.905686378479, -191.96158492565155
 1.7054508284063385E9, -320.9731737971306, -454.53248101472855, -282.1978910565376, -62.71064245700836
 1.7054508284063385E9, -248.20968025922775, -445.915751516819, -290.8146205544472, -79.46539425849915
 1.7054508284217107E9, -345.3872407078743, -423.8952205777168, -251.79998421669006, -172.33458995819092
 1.7054508284217107E9, -289.37849897146225, -379.13609790802, -213.98211586475372, -37.81786835193634
 1.7054508284224267E9, -185.9777449965477, -373.87031877040863, -219.00854140520096, 17.7121661901474
 1.7054508284224267E9, -250.12450903654099, -358.55168855190277, -189.0893417596817, -88.32147735357285
 1.7054508284363973E9, -281.47983026504517, -327.6750745177269, -162.28173887729645, -47.15265864133835
 1.7054508284363973E9, -161.08497089147568, -324.80283135175705, -179.27584427595139, 67.97642159461975
 1.7054508284517708E9, -183.10550183057785, -334.61632883548737, -187.41386657953262, -31.594674825668335
 1.7054508284517708E9, -265.92184644937515, -300.6281180381775, -164.43592125177383, -76.83250468969345
 1.7054508284671717E9, -180.233258664608, -298.71328926086426, -152.70759499073029, 61.51387447118759
 1.7054508284671717E9, -140.02185434103012, -319.53705221414566, -184.54162341356277, 20.58440935611725
 1.7054508284829323E9, -257.7838241457939, -323.84541696310043, -166.59010362625122, -97.4169140458107
 1.7054508284829323E9, -232.17298924922943, -319.7764058113098, -159.17014211416245, 4.787071943283081
 1.7054508284832246E9, -158.21272772550583, -349.69560545682907, -207.2802151441574, 30.876614034175873
 1.7054508284832246E9, -264.0070176720619, -378.1786835193634, -221.64143097400665, -118.48003059625626
 1.705450828484214E9, -320.73382019996643, -375.0670867562294, -197.70607125759125, -89.51824533939362
 1.705450828484214E9, -228.82203888893127, -399.72050726413727, -245.09808349609375, 0.7180607914924622
 1.7054508284966507E9, -262.33154249191284, -415.7571982741356, -259.459299325943, -102.92204678058624
 1.7054508284966507E9, -369.801307618618, -410.0127119421959, -241.98648673295975, -165.6326892375946
 1.7054508285117164E9, -299.910057246685, -422.21974539756775, -259.21994572877884, -38.29657554626465
 1.7054508285117164E9, -270.4695647954941, -454.05377382040024, -297.0378140807152, -83.29505181312561
 1.7054508285124156E9, -388.470888197422, -461.23438173532486, -278.128879904747, -203.2112039923668
 1.7054508285124156E9, -378.6573907136917, -467.2182216644287, -286.74560940265656, -106.99105793237686
 1.7054508285263605E9, -295.12298530340195, -493.06841015815735, -311.87773710489273, -69.41254317760468
 1.7054508285263605E9, -385.11993783712387, -501.44578605890274, -319.2976986169815, -208.47698312997818
 1.7054508285417566E9, -438.0170828104019, -487.5632774233818, -304.45777559280396, -177.36101549863815
 1.7054508285417566E9, -337.0098648071289, -510.30186915397644, -323.12735617160797, -80.42280864715576
 1.7054508285424476E9, -370.5193684101105, -532.5617536902428, -350.6530198454857, -186.93515938520432
 1.7054508285424476E9, -467.696928858757, -510.5412227511406, -333.65891444683075, -241.98648673295975
 1.7054508285560904E9, -385.5986450314522, -517.9611842632294, -333.8982680439949, -106.99105793237686
 1.7054508285560904E9, -353.7646166086197, -543.811372756958, -359.9878101348877, -146.00569427013397
 1.7054508285721016E9, -465.54274648427963, -537.8275328278542, -332.9408536553383, -257.54447054862976
 1.7054508285721016E9, -450.94217705726624, -534.7159360647202, -349.4562518596649, -160.60626369714737
 1.7054508285725029E9, -361.4239317178726, -562.2415997385979, -369.801307618618, -127.81482088565826
 1.7054508285725029E9, -429.8790605068207, -549.0771518945694, -349.69560545682907, -237.43876838684082
 1.7054508285860777E9, -474.39882957935333, -533.9978752732277, -320.73382019996643, -202.73249679803848
 1.7054508285860777E9, -370.04066121578217, -549.0771518945694, -362.6206997036934, -100.76786440610886
 1.7054508286011107E9, -408.09788316488266, -566.5499644875526, -373.87031877040863, -198.18477845191956
 1.7054508286011107E9, -503.1212612390518, -553.8642238378525, -341.0788759589195, -258.5018849372864
 1.7054508286172316E9, -377.2212691307068, -569.4222076535225, -376.26385474205017, -151.0321198105812
 1.7054508286172316E9, -477.51042634248734, -555.7790526151657, -363.0994068980217, -259.459299325943
 1.7054508286175625E9, -456.4473097920418, -543.811372756958, -341.0788759589195, -152.46824139356613
 1.7054508286175625E9, -364.5355284810066, -564.6351357102394, -363.33876049518585, -109.86330109834671
 1.7054508286310291E9, -451.6602378487587, -564.6351357102394, -364.5355284810066, -240.31101155281067
 1.7054508286310291E9, -491.6322885751724, -545.9655551314354, -344.66917991638184, -206.8015079498291
 1.7054508286469295E9, -380.57221949100494, -555.7790526151657, -354.00397020578384, -96.22014605998993
 1.7054508286469295E9, -390.1463633775711, -557.6938813924789, -359.26974934339523, -188.37128096818924
 1.7054508286474943E9, -469.13305044174194, -522.5089026093483, -314.0319194793701, -227.1465637087822
 1.7054508286474943E9, -399.0024464726448, -528.4927425384521, -313.31385868787766, -96.69885325431824
 1.7054508286615322E9, -354.48267740011215, -543.0933119654655, -345.3872407078743, -130.92641764879227
 1.7054508286615322E9, -474.87753677368164, -548.1197375059128, -339.88210797309875, -251.0819234251976
 1.7054508286767128E9, -452.6176522374153, -534.476582467556, -324.0847705602646, -139.30379354953766
 1.7054508286767128E9, -362.6206997036934, -563.6777213215828, -364.0568212866783, -107.70911872386932
 1.7054508286774237E9, -439.692557990551, -555.5396990180016, -351.131727039814, -233.3697572350502
 1.7054508286774237E9, -485.8878022432327, -536.3914112448692, -333.4195608496666, -199.62090003490448
 1.705450828691048E9, -374.5883795619011, -545.4868479371071, -363.57811409235, -94.3053172826767
 1.705450828691048E9, -388.94959539175034, -553.6248702406883, -367.6471252441406, -185.73839139938354
 1.7054508287068152E9, -486.36650943756104, -528.4927425384521, -326.95701372623444, -243.18325471878052
 1.7054508287068152E9, -408.57659035921097, -542.1358975768089, -342.03629034757614, -107.46976512670517
 1.7054508287074351E9, -370.04066121578217, -556.4971134066582, -355.2007381916046, -140.26120793819427
 1.7054508287074351E9, -473.4414151906967, -546.2049087285995, -336.5311576128006, -246.77355867624283
 1.7054508287210767E9, -454.53248101472855, -534.9552896618843, -314.5106266736984, -148.87793743610382
 1.7054508287210767E9, -356.63685977458954, -552.9068094491959, -355.44009178876877, -102.92204678058624
 1.7054508287367203E9, -431.3151820898056, -547.6410303115845, -351.131727039814, -224.9923813343048
 1.7054508287367203E9, -472.9627079963684, -525.8598529696465, -329.8292568922043, -192.44029211997986
 1.705450828737486E9, -374.82773315906525, -545.0081407427788, -341.55758315324783, -86.88535577058792
 1.705450828737486E9, -393.7366673350334, -556.7364670038223, -346.58400869369507, -178.55778348445892
 1.7054508287513115E9, -481.10073029994965, -532.3224000930786, -321.9305881857872, -233.60911083221436
 1.7054508287513115E9, -405.7043471932411, -533.9978752732277, -327.6750745177269, -93.82661008834839
 1.7054508287668943E9, -368.8438932299614, -557.2151741981506, -358.3123349547386, -135.23478239774704
 1.7054508287668943E9, -464.34597849845886, -538.7849472165108, -333.18020725250244, -241.02907234430313
 1.7054508287675328E9, -446.15510511398315, -528.4927425384521, -325.0421849489212, -135.71348959207535
 1.7054508287675328E9, -351.131727039814, -544.7687871456146, -349.69560545682907, -98.13497483730316
 1.7054508287813177E9, -423.4165133833885, -547.1623231172562, -346.10530149936676, -211.58857989311218
 1.7054508287813177E9, -472.9627079963684, -524.9024385809898, -314.5106266736984, -172.09523636102676
 1.7054508287970796E9, -367.6471252441406, -540.699775993824, -335.81309682130814, -74.19961512088776
 1.7054508287970796E9, -381.05092668533325, -547.4016767144203, -339.6427543759346, -167.30816441774368
 1.7054508287975876E9, -476.5530119538307, -526.8172673583031, -314.27127307653427, -217.33306622505188
 1.7054508287975876E9, -396.60891050100327, -522.03019541502, -318.10093063116074, -83.05569821596146
 1.7054508288110297E9, -350.1743126511574, -541.4178367853165, -342.2756439447403, -117.28326261043549
 1.7054508288110297E9, -453.57506662607193, -530.8862785100937, -324.32412415742874, -225.94979572296143
 1.705450828827217E9, -433.9480716586113, -517.7218306660652, -317.6222234368324, -129.01158887147903
 1.705450828827217E9, -340.83952236175537, -538.3062400221825, -338.44598639011383, -83.53440541028976
 1.7054508288275511E9, -412.40624791383743, -536.8701184391975, -337.24921840429306, -211.82793349027634
 1.7054508288275511E9, -465.3033928871155, -523.7056705951691, -308.04807955026627, -177.36101549863815
 1.705450828841008E9, -354.00397020578384, -532.0830464959145, -327.43572092056274, -69.41254317760468
 1.705450828841008E9, -373.3916115760803, -542.3752511739731, -343.47241193056107, -168.2655788064003
 1.7054508288734882E9, -462.6705033183098, -518.4398914575577, -313.31385868787766, -219.48724859952927
 1.7054508288734882E9, -391.3431313633919, -524.1843777894974, -313.79256588220596, -83.53440541028976
 1.7054508288742483E9, -344.1904727220535, -537.1094720363617, -334.8556824326515, -112.4961906671524
 1.7054508288742483E9, -443.04350835084915, -520.8334274291992, -311.87773710489273, -225.23173493146896
 1.7054508288748293E9, -412.88495510816574, -498.0948356986046, -293.44751012325287, -118.00132340192795
 1.7054508288748293E9, -329.8292568922043, -526.8172673583031, -332.70150005817413, -71.32737195491791
 1.7054508288754034E9, -404.7469328045845, -532.5617536902428, -331.98343926668167, -203.45055758953094
 1.7054508288754034E9, -451.42088425159454, -514.8495875000954, -310.20226192474365, -172.09523636102676
 1.7054508288859832E9, -345.8659479022026, -520.1153666377068, -326.95701372623444, -64.38611763715744
 1.7054508288859832E9, -370.04066121578217, -535.6733504533768, -334.8556824326515, -159.4094957113266
 1.705450828917539E9, -464.34597849845886, -519.8760130405426, -304.6971291899681, -217.57241982221603
 1.705450828917539E9, -381.2902802824974, -514.8495875000954, -312.83515149354935, -80.66216224431992
 1.705450828918216E9, -342.03629034757614, -533.7585216760635, -333.4195608496666, -115.84714102745056
 1.705450828918216E9, -434.9054860472679, -517.9611842632294, -308.5267867445946, -212.5459942817688
 1.7054508289189808E9, -419.10814863443375, -510.5412227511406, -307.3300187587738, -115.84714102745056
 1.7054508289189808E9, -339.1640471816063, -533.7585216760635, -328.1537817120552, -71.32737195491791
 1.7054508289310513E9, -403.55016481876373, -533.0404608845711, -322.64864897727966, -196.98801046609879
 1.7054508289310513E9, -456.2079561948776, -507.66897958517075, -287.70302379131317, -166.59010362625122
 1.705450828946991E9, -360.22716373205185, -523.2269634008408, -328.1537817120552, -65.82223922014236
 1.705450828946991E9, -372.19484359025955, -533.9978752732277, -330.06861048936844, -160.12755650281906
 1.7054508289475162E9, -468.1756360530853, -523.2269634008408, -314.5106266736984, -219.2478950023651
 1.7054508289475162E9, -372.912904381752, -498.33418929576874, -301.1068252325058, -68.69448238611221
 1.7054508289610229E9, -328.6324889063835, -516.7644162774086, -319.2976986169815, -108.66653311252594
 1.7054508289610229E9, -438.25643640756607, -520.8334274291992, -310.20226192474365, -225.47108852863312
 1.7054508289770217E9, -419.58685582876205, -506.9509187936783, -296.798460483551, -123.9851633310318
 1.7054508289770217E9, -333.4195608496666, -530.8862785100937, -329.350549697876, -74.91767591238022
 1.7054508289775033E9, -409.5340047478676, -531.364985704422, -340.6001687645912, -202.01443600654602
 1.7054508289775033E9, -457.4047241806984, -509.10510116815567, -310.68096911907196, -181.19067305326462
 1.70545082902157E9, -365.2535892724991, -529.2108033299446, -343.47241193056107, -78.74733346700668
 1.70545082902157E9, -378.6573907136917, -538.0668864250183, -339.1640471816063, -164.19656765460968
 1.7054508290390284E9, -466.2608072757721, -520.5940738320351, -320.9731737971306, -217.8117734193802
 1.7054508290390284E9, -385.83799862861633, -509.10510116815567, -322.4092953801155, -79.46539425849915
 1.7054508290395443E9, -338.44598639011383, -525.141792178154, -330.7866712808609, -106.2729971408844
 1.7054508290395443E9, -441.8467403650284, -513.8921731114388, -312.35644429922104, -218.52983421087265
 1.7054508290404072E9, -415.7571982741356, -501.6851396560669, -295.60169249773026, -114.17166584730148
 1.7054508290404072E9, -334.13762164115906, -522.2695490121841, -327.43572092056274, -72.76349353790283
 1.7054508290410144E9, -402.83210402727127, -526.3385601639748, -319.53705221414566, -197.4667176604271
 1.7054508290410144E9, -444.4796299338341, -501.44578605890274, -297.75587487220764, -162.28173887729645
 1.7054508290517275E9, -348.4988374710083, -511.0199299454689, -318.8189914226532, -62.949996054172516
 1.7054508290517275E9, -355.44009178876877, -524.6630849838257, -326.95701372623444, -149.83535182476044
 1.7054508290524545E9, -442.08609396219254, -501.6851396560669, -292.2507421374321, -207.04086154699326
 1.7054508290524545E9, -372.67355078458786, -500.24901807308197, -307.09066516160965, -74.67832231521606
 1.7054508290668583E9, -334.61632883548737, -523.4663169980049, -327.6750745177269, -116.08649462461472
 1.7054508290668583E9, -437.29902201890945, -517.7218306660652, -316.1861018538475, -227.86462450027466
 1.705450829067494E9, -415.51784467697144, -500.0096644759178, -295.12298530340195, -120.8735665678978
 1.705450829067494E9, -327.91442811489105, -514.8495875000954, -319.53705221414566, -65.58288562297821
 1.705450829081085E9, -400.43856805562973, -522.9876098036766, -314.27127307653427, -192.44029211997986
 1.705450829081085E9, -454.53248101472855, -509.82316195964813, -287.22431659698486, -172.33458995819092
 1.7054508290968184E9, -349.69560545682907, -514.8495875000954, -316.1861018538475, -61.03516727685928
 1.7054508290968184E9, -364.29617488384247, -531.8436928987503, -320.2551130056381, -154.86177736520767
 1.7054508290974348E9, -451.6602378487587, -506.9509187936783, -304.93648278713226, -203.6899111866951
 1.7054508290974348E9, -378.1786835193634, -505.03609001636505, -300.6281180381775, -78.98668706417084
 1.7054508291111367E9, -337.72792559862137, -533.5191680788994, -331.7440856695175, -112.4961906671524
 1.7054508291111367E9, -430.357767701149, -514.1315267086029, -310.9203227162361, -209.67375111579895
 1.7054508291272962E9, -410.0127119421959, -489.2387526035309, -303.50036120414734, -112.25683706998825
 1.7054508291272962E9, -315.2286874651909, -503.5999684333801, -316.42545545101166, -61.03516727685928
 1.7054508291275847E9, -388.470888197422, -513.8921731114388, -310.4416155219078, -189.56804895401
 1.7054508291275847E9, -431.3151820898056, -489.95681339502335, -287.70302379131317, -160.84561729431152
 1.7054508291416757E9, -335.81309682130814, -503.360614836216, -307.56937235593796, -52.41843777894974
 1.7054508291416757E9, -350.1743126511574, -512.2166979312897, -323.84541696310043, -140.73991513252258
 1.7054508291569014E9, -448.78799468278885, -509.583808362484, -293.2081565260887, -209.4343975186348
 1.7054508291569014E9, -377.6999763250351, -501.2064324617386, -300.86747163534164, -84.25246620178223
 1.7054508291575394E9, -336.5311576128006, -525.141792178154, -336.0524504184723, -118.71938419342041
 1.7054508291575394E9, -432.2725964784622, -520.5940738320351, -311.3990299105644, -225.94979572296143
 1.705450829171291E9, -415.7571982741356, -501.92449325323105, -294.16557091474533, -125.89999210834503
 1.705450829171291E9, -333.4195608496666, -520.8334274291992, -320.9731737971306, -73.24220073223114
 1.705450829186885E9, -398.0450320839882, -521.7908418178558, -321.4518809914589, -197.22736406326294
 1.705450829186885E9, -441.1286795735359, -501.2064324617386, -292.96880292892456, -169.46234679222107
 1.7054508291874607E9, -340.36081516742706, -506.9509187936783, -311.3990299105644, -59.59904569387436
 1.7054508291874607E9, -356.15815258026123, -519.1579522490501, -324.5634777545929, -153.42565578222275
 1.7054508292174795E9, -447.5912266969681, -509.82316195964813, -309.0054939389229, -211.34922629594803
 1.7054508292174795E9, -374.1096723675728, -500.24901807308197, -298.9526428580284, -82.8163446187973
 1.705450829218174E9, -327.1963673233986, -517.2431234717369, -323.12735617160797, -109.86330109834671
 1.705450829218174E9, -418.8687950372696, -504.3180292248726, -305.6545435786247, -212.30664068460464
 1.7054508292189045E9, -414.0817230939865, -500.24901807308197, -290.0965597629547, -123.26710253953934
 1.7054508292189045E9, -319.2976986169815, -503.5999684333801, -319.05834501981735, -67.97642159461975
 1.7054508292310617E9, -388.2315346002579, -509.583808362484, -314.5106266736984, -187.17451298236847
 1.7054508292310617E9, -441.1286795735359, -497.6161285042763, -292.96880292892456, -158.9307885169983
 1.7054508292474654E9, -347.5414230823517, -516.2857090830803, -317.6222234368324, -61.753228068351746
 1.7054508292474654E9, -360.70587092638016, -524.1843777894974, -320.73382019996643, -149.35664463043213
 1.7054508292622993E9, -453.57506662607193, -502.1638468503952, -293.9262173175812, -206.08344715833664
 1.7054508292622993E9, -377.46062272787094, -497.85548210144043, -304.6971291899681, -83.29505181312561
 1.705450829262506E9, -326.95701372623444, -513.6528195142746, -315.46804106235504, -104.35816836357117
 1.705450829262506E9, -420.54427021741867, -501.44578605890274, -299.6707036495209, -202.97185039520264
 1.7054508292771895E9, -401.87468963861465, -484.9303878545761, -289.6178525686264, -113.21425145864487
 1.7054508292771895E9, -306.13325077295303, -492.8290565609932, -296.08039969205856, -54.33326655626297
 1.7054508292918892E9, -375.78514754772186, -500.7277252674103, -310.4416155219078, -179.7545514702797
 1.7054508292918892E9, -427.48552453517914, -480.8613767027855, -290.0965597629547, -154.62242376804352
 1.705450829292439E9, -336.29180401563644, -497.13742130994797, -306.3726043701172, -55.290680944919586
 1.705450829292439E9, -353.2859094142914, -512.4560515284538, -315.46804106235504, -146.48440146446228
 1.7054508293067837E9, -438.97449719905853, -492.8290565609932, -287.9423773884773, -201.5357288122177
 1.7054508293067837E9, -366.2110036611557, -490.43552058935165, -289.37849897146225, -74.43896871805191
 1.705450829307422E9, -316.42545545101166, -503.360614836216, -304.93648278713226, -93.82661008834839
 1.705450829307422E9, -406.1830543875694, -491.6322885751724, -289.1391453742981, -197.4667176604271
 1.7054508293213007E9, -391.58248496055603, -470.808525621891, -278.6075870990753, -109.3845939040184
 1.7054508293213007E9, -302.5429468154907, -491.6322885751724, -303.97906839847565, -54.33326655626297
 1.705450829337543E9, -371.9554899930954, -494.7438853383064, -301.5855324268341, -176.88230830430984
 1.705450829337543E9, -423.4165133833885, -478.46784073114395, -285.5488414168358, -150.0747054219246
 1.7054508293382547E9, -333.8982680439949, -496.8980677127838, -302.0642396211624, -51.93973058462143
 1.7054508293382547E9, -349.9349590539932, -515.5676482915878, -320.4944666028023, -143.13345110416412
 1.7054508293515549E9, -439.2138507962227, -494.02582454681396, -285.0701342225075, -195.79124248027802
 1.7054508293515549E9, -363.0994068980217, -484.9303878545761, -283.63401263952255, -72.76349353790283
 1.7054508293667924E9, -314.98933386802673, -500.4883716702461, -316.1861018538475, -100.5285108089447
 1.7054508293667924E9, -396.8482640981674, -484.9303878545761, -297.75587487220764, -202.01443600654602
 1.705450829367494E9, -394.69408172369003, -481.3400838971138, -287.22431659698486, -112.4961906671524
 1.705450829367494E9, -308.7661403417587, -497.3767749071121, -307.09066516160965, -56.2480953335762
 1.7054508293814197E9, -365.49294286966324, -491.6322885751724, -309.9629083275795, -175.92489391565323
 1.7054508293814197E9, -426.7674637436867, -478.46784073114395, -280.7617694735527, -154.86177736520767
 1.7054508293972673E9, -334.8556824326515, -497.3767749071121, -313.79256588220596, -55.769388139247894
 1.7054508293972673E9, -351.131727039814, -520.3547202348709, -320.01575940847397, -150.5534126162529
 1.705450829428402E9, -444.71898353099823, -503.1212612390518, -311.3990299105644, -210.15245831012726
 1.705450829428402E9, -372.67355078458786, -494.2651781439781, -293.9262173175812, -77.0718582868576
 1.7054508294289875E9, -325.9995993375778, -511.73799073696136, -320.01575940847397, -101.48592519760132
 1.7054508294289875E9, -423.6558669805527, -511.4986371397972, -304.93648278713226, -214.93953025341034
 1.7054508294431903E9, -414.0817230939865, -499.5309572815895, -304.45777559280396, -127.81482088565826
 1.7054508294431903E9, -324.32412415742874, -511.0199299454689, -315.7073946595192, -70.8486647605896
 1.7054508294438531E9, -387.5134738087654, -511.25928354263306, -325.76024574041367, -193.87641370296478
 1.7054508294438531E9, -439.45320439338684, -505.03609001636505, -300.86747163534164, -176.6429547071457
 1.7054508294445791E9, -348.9775446653366, -509.583808362484, -317.8615770339966, -70.13060396909714
 1.7054508294445791E9, -362.6206997036934, -529.4501569271088, -343.47241193056107, -159.64884930849075
 1.7054508294453764E9, -447.5912266969681, -513.1741123199463, -316.1861018538475, -211.58857989311218
 1.7054508294453764E9, -385.5986450314522, -505.51479721069336, -317.1435162425041, -90.47565972805023
 1.7054508294560528E9, -338.2066327929497, -526.5779137611389, -329.58990329504013, -112.73554426431656
 1.7054508294560528E9, -416.7146126627922, -503.5999684333801, -319.2976986169815, -204.64732557535172
 1.7054508294710927E9, -397.5663248896599, -481.57943749427795, -286.26690220832825, -114.88972663879395
 1.7054508294710927E9, -311.87773710489273, -496.4193605184555, -317.3828698396683, -65.1041784286499
 1.705450829487028E9, -373.6309651732445, -500.7277252674103, -308.5267867445946, -183.8235626220703
 1.705450829487028E9, -419.8262094259262, -479.1859015226364, -283.8733662366867, -156.7766061425209
 1.705450829487522E9, -332.9408536553383, -493.06841015815735, -293.9262173175812, -49.54619461297989
 1.705450829487522E9, -351.131727039814, -518.4398914575577, -312.1170907020569, -145.52698707580566
 1.705450829501104E9, -436.580961227417, -504.3180292248726, -301.1068252325058, -206.8015079498291
 1.705450829501104E9, -383.9231698513031, -501.2064324617386, -303.2610076069832, -88.560830950737
 1.705450829517044E9, -346.3446550965309, -524.4237313866615, -342.99370473623276, -114.88972663879395
 1.705450829517044E9, -426.28875654935837, -513.6528195142746, -308.2874331474304, -214.70017665624619
 1.7054508295174613E9, -422.4590989947319, -509.583808362484, -303.97906839847565, -131.40512484312057
 1.7054508295174613E9, -337.9672791957855, -524.1843777894974, -338.685339987278, -78.02927267551422
 1.705450829547855E9, -394.69408172369003, -527.2959745526314, -325.76024574041367, -187.65322017669678
 1.705450829547855E9, -430.59712129831314, -493.7864709496498, -303.50036120414734, -161.80303168296814
 1.7054508295486157E9, -342.99370473623276, -497.85548210144043, -306.61195796728134, -60.31710648536682
 1.7054508295486157E9, -352.0891414284706, -516.0463554859161, -318.3402842283249, -149.59599822759628
 1.705450829578154E9, -439.93191158771515, -499.5309572815895, -300.38876444101334, -204.88667917251587
 1.705450829578154E9, -374.82773315906525, -488.5206918120384, -292.01138854026794, -74.43896871805191
 1.7054508295788205E9, -325.5208921432495, -515.5676482915878, -317.3828698396683, -106.03364354372025
 1.7054508295788205E9, -415.99655187129974, -504.7967364192009, -298.9526428580284, -206.56215435266495
 1.7054508295933733E9, -400.91727524995804, -481.10073029994965, -290.33591336011887, -114.41101944446564
 1.7054508295933733E9, -317.8615770339966, -503.5999684333801, -314.5106266736984, -69.89125037193298
 1.7054508295939395E9, -375.5457939505577, -506.71156519651413, -311.15967631340027, -188.6106345653534
 1.7054508295939395E9, -423.17715978622437, -482.05814468860626, -292.01138854026794, -164.91462844610214
 1.7054508295947094E9, -338.92469358444214, -497.6161285042763, -306.3726043701172, -66.54030001163483
 1.7054508295947094E9, -346.8233622908592, -506.71156519651413, -318.10093063116074, -140.50056153535843
 1.7054508295955148E9, -432.9906572699547, -495.9406533241272, -292.7294493317604, -197.9454248547554
 1.7054508295955148E9, -375.30644035339355, -492.11099576950073, -294.64427810907364, -85.20988059043884
 1.7054508296222265E9, -415.2784910798073, -507.19027239084244, -300.38876444101334, -203.6899111866951
 1.7054508296222265E9, -397.0876176953316, -478.94654792547226, -284.8307806253433, -120.15550577640533
 1.7054508296225672E9, -309.9629083275795, -496.8980677127838, -300.38876444101334, -67.49771440029144
 1.7054508296225672E9, -370.7587220072746, -502.88190764188766, -302.7823004126549, -177.83972269296646
 1.705450829636083E9, -421.9803918004036, -483.73361986875534, -286.5062558054924, -156.2978989481926
 1.705450829636083E9, -342.7543511390686, -503.5999684333801, -308.5267867445946, -59.83839929103851
 1.7054508296520696E9, -360.466517329216, -523.2269634008408, -327.91442811489105, -151.98953419923782
 1.7054508296520696E9, -438.97449719905853, -501.44578605890274, -303.2610076069832, -211.58857989311218
 1.7054508296526463E9, -374.82773315906525, -488.7600454092026, -290.0965597629547, -85.68858778476715
 1.7054508296526463E9, -336.29180401563644, -512.9347587227821, -325.5208921432495, -113.93231225013733
 1.705450829666299E9, -420.54427021741867, -510.30186915397644, -309.4842011332512, -208.71633672714233
 1.705450829666299E9, -398.76309287548065, -483.9729734659195, -282.67659825086594, -113.93231225013733
 1.705450829682058E9, -314.27127307653427, -498.81289649009705, -308.04807955026627, -59.83839929103851
 1.705450829682058E9, -373.3916115760803, -497.3767749071121, -314.0319194793701, -175.44618672132492
 1.7054508296830049E9, -426.28875654935837, -478.94654792547226, -284.11271983385086, -150.0747054219246
 1.7054508296830049E9, -336.5311576128006, -489.47810620069504, -297.5165212750435, -56.487448930740356
 1.7054508296962845E9, -341.3182295560837, -499.5309572815895, -317.8615770339966, -138.82508635520935
 1.7054508296962845E9, -425.5706957578659, -486.6058630347252, -281.9585374593735, -188.84998816251755
 1.7054508297123044E9, -362.86005330085754, -478.46784073114395, -279.8043550848961, -74.19961512088776
 1.7054508297123044E9, -320.4944666028023, -499.29160368442535, -315.7073946595192, -99.09238922595978
 1.7054508297125647E9, -411.9275407195091, -497.13742130994797, -295.8410460948944, -204.1686183810234
 1.7054508297125647E9, -407.61917597055435, -487.5632774233818, -292.7294493317604, -121.11292016506195
 1.7054508297260582E9, -318.3402842283249, -500.4883716702461, -316.6648090481758, -65.34353202581406
 1.7054508297260582E9, -374.1096723675728, -502.1638468503952, -306.8513115644455, -183.58420902490616
 1.7054508297425575E9, -425.33134216070175, -486.84521663188934, -288.89979177713394, -163.23915326595306
 1.7054508297425575E9, -337.0098648071289, -498.81289649009705, -307.09066516160965, -64.38611763715744
 1.7054508297426736E9, -348.25948387384415, -516.7644162774086, -332.9408536553383, -153.42565578222275
 1.7054508297426736E9, -432.9906572699547, -497.3767749071121, -303.7397148013115, -213.0247014760971
 1.7054508297560475E9, -368.3651860356331, -490.1961669921875, -296.55910688638687, -93.34790289402008
 1.7054508297560475E9, -322.8880025744438, -508.3870403766632, -322.64864897727966, -102.68269318342209
 1.7054508297717087E9, -400.91727524995804, -491.1535813808441, -306.61195796728134, -201.77508240938187
 1.7054508297717087E9, -395.17278891801834, -479.9039623141289, -291.2933277487755, -114.65037304162979
 1.705450829772431E9, -322.8880025744438, -510.78057634830475, -315.7073946595192, -74.91767591238022
 1.705450829772431E9, -391.58248496055603, -522.2695490121841, -326.238952934742, -193.15835291147232
 1.7054508297866848E9, -426.5281101465225, -491.6322885751724, -302.30359321832657, -166.35075002908707
 1.7054508297866848E9, -339.40340077877045, -501.6851396560669, -308.7661403417587, -70.8486647605896
 1.7054508298017905E9, -351.6104342341423, -512.2166979312897, -324.80283135175705, -151.51082700490952
 1.7054508298017905E9, -431.7938892841339, -495.4619461297989, -293.9262173175812, -203.6899111866951
 1.7054508298024783E9, -371.71613639593124, -486.6058630347252, -289.6178525686264, -85.9279413819313
 1.7054508298024783E9, -326.95701372623444, -511.73799073696136, -323.3667097687721, -110.34200829267502
 1.7054508298164525E9, -424.6132813692093, -514.6102339029312, -326.95701372623444, -214.93953025341034
 1.7054508298164525E9, -410.25206553936005, -489.2387526035309, -297.5165212750435, -128.29352807998657
 1.705450829848112E9, -336.0524504184723, -514.6102339029312, -329.1111961007118, -78.02927267551422
 1.705450829848112E9, -394.2153745293617, -514.6102339029312, -333.18020725250244, -188.13192737102509
 1.7054508298489323E9, -428.92164611816406, -484.69103425741196, -303.7397148013115, -171.8558827638626
 1.7054508298489323E9, -341.0788759589195, -493.3077637553215, -298.71328926086426, -60.79581367969513
 1.7054508298497088E9, -351.131727039814, -511.9773443341255, -323.84541696310043, -150.31405901908875
 1.7054508298497088E9, -436.1022540330887, -499.77031087875366, -306.61195796728134, -210.15245831012726
 1.7054508298503804E9, -375.0670867562294, -484.4516806602478, -287.9423773884773, -86.88535577058792
 1.7054508298503804E9, -327.6750745177269, -503.1212612390518, -332.2227928638458, -107.23041152954102
 1.7054508298769364E9, -412.40624791383743, -501.2064324617386, -307.8087259531021, -206.3228007555008
 1.7054508298769364E9, -400.43856805562973, -478.2284871339798, -286.9849629998207, -122.78839534521103
 1.7054508298774912E9, -322.4092953801155, -499.29160368442535, -309.0054939389229, -66.77965360879898
 1.7054508298774912E9, -376.98191553354263, -505.99350440502167, -309.4842011332512, -181.90873384475708
 1.7054508298918147E9, -428.44293892383575, -483.73361986875534, -286.0275486111641, -161.80303168296814
 1.7054508298918147E9, -340.6001687645912, -490.1961669921875, -306.3726043701172, -64.38611763715744
 1.7054508298924727E9, -348.25948387384415, -509.3444547653198, -322.8880025744438, -141.6973295211792
 1.7054508298924727E9, -421.022977411747, -475.1168903708458, -291.2933277487755, -193.15835291147232
 1.7054508299060452E9, -359.74845653772354, -476.0743047595024, -285.30948781967163, -75.63573670387268
 1.7054508299060452E9, -319.05834501981735, -497.3767749071121, -314.27127307653427, -92.86919569969177
 1.705450829921739E9, -405.7043471932411, -486.36650943756104, -294.64427810907364, -192.679645717144
 1.705450829921739E9, -394.2153745293617, -476.7923655509949, -289.1391453742981, -114.88972663879395
 1.7054508299224968E9, -316.90416264533997, -493.7864709496498, -306.3726043701172, -62.949996054172516
 1.7054508299224968E9, -376.26385474205017, -499.29160368442535, -304.45777559280396, -173.77071154117584
 1.7054508299528356E9, -419.8262094259262, -480.8613767027855, -287.463670194149, -157.2553133368492
 1.7054508299528356E9, -341.796936750412, -493.54711735248566, -305.8938971757889, -62.949996054172516
 1.7054508299532022E9, -343.9511191248894, -504.07867562770844, -315.46804106235504, -141.2186223268509
 1.7054508299532022E9, -432.9906572699547, -491.6322885751724, -289.37849897146225, -199.14219284057617
 1.7054508299539268E9, -371.4767827987671, -487.32392382621765, -302.30359321832657, -77.78991907835007
 1.7054508299539268E9, -330.06861048936844, -510.78057634830475, -324.5634777545929, -99.57109642028809
 1.7054508299824345E9, -413.6030158996582, -495.22259253263474, -301.82488602399826, -196.74865686893463
 1.7054508299824345E9, -406.1830543875694, -483.25491267442703, -307.09066516160965, -119.43744498491287
 1.7054508299988973E9, -329.58990329504013, -507.9083331823349, -325.9995993375778, -72.52413994073868
 1.7054508299988973E9, -388.470888197422, -513.6528195142746, -323.6060633659363, -188.37128096818924
 1.705450829999666E9, -429.6397069096565, -491.6322885751724, -295.60169249773026, -167.06881082057953
 1.705450829999666E9, -350.41366624832153, -498.0948356986046, -302.0642396211624, -63.18934965133667
 1.7054508300003972E9, -358.3123349547386, -518.2005378603935, -326.4783065319061, -140.02185434103012
 1.7054508300003972E9, -437.77772921323776, -494.5045317411423, -290.575266957283, -202.73249679803848
 1.7054508300010128E9, -376.024501144886, -488.0419846177101, -297.0378140807152, -77.78991907835007
 1.7054508300010128E9, -335.81309682130814, -519.3973058462143, -328.6324889063835, -100.28915721178055
 1.7054508300111957E9, -410.4914191365242, -500.0096644759178, -305.41518998146057, -204.1686183810234
 1.7054508300111957E9, -405.9437007904053, -479.1859015226364, -284.8307806253433, -122.30968815088272
 1.7054508300260243E9, -308.2874331474304, -484.9303878545761, -296.798460483551, -57.92357051372528
 1.7054508300260243E9, -366.45035725831985, -497.85548210144043, -309.0054939389229, -171.61652916669846
 1.7054508300417645E9, -426.28875654935837, -487.0845702290535, -285.0701342225075, -158.9307885169983
 1.7054508300417645E9, -339.6427543759346, -488.7600454092026, -295.60169249773026, -54.81197375059128
 1.7054508300424688E9, -347.5414230823517, -510.30186915397644, -308.2874331474304, -142.1760367155075
 1.7054508300424688E9, -436.34160763025284, -498.5735428929329, -296.798460483551, -199.14219284057617
 1.7054508300560193E9, -374.82773315906525, -489.2387526035309, -288.6604381799698, -76.5931510925293
 1.7054508300560193E9, -329.58990329504013, -513.6528195142746, -321.9305881857872, -104.35816836357117
 1.7054508300717692E9, -409.77335834503174, -496.4193605184555, -305.6545435786247, -197.22736406326294
 1.7054508300717692E9, -410.9701263308525, -486.1271558403969, -292.49009573459625, -118.71938419342041
 1.7054508300724769E9, -323.84541696310043, -495.70129972696304, -309.0054939389229, -61.753228068351746
 1.7054508300724769E9, -377.6999763250351, -506.71156519651413, -314.5106266736984, -179.51519787311554
 1.705450830086161E9, -426.7674637436867, -478.94654792547226, -283.63401263952255, -158.45208132266998
 1.705450830086161E9, -342.99370473623276, -496.65871411561966, -301.5855324268341, -54.093912959098816
 1.7054508301021647E9, -345.62659430503845, -505.99350440502167, -325.9995993375778, -143.37280470132828
 1.7054508301021647E9, -421.9803918004036, -486.84521663188934, -296.08039969205856, -196.98801046609879
 1.7054508301025128E9, -370.2800148129463, -478.94654792547226, -298.4739356637001, -79.94410145282745
 1.7054508301025128E9, -322.16994178295135, -505.51479721069336, -305.1758363842964, -92.15113490819931
 1.7054508301329117E9, -410.25206553936005, -495.4619461297989, -299.910057246685, -193.15835291147232
 1.7054508301329117E9, -402.35339683294296, -479.1859015226364, -279.8043550848961, -110.34200829267502
 1.7054508301332352E9, -323.3667097687721, -497.85548210144043, -308.5267867445946, -56.966156125068665
 1.7054508301332352E9, -372.4341971874237, -497.3767749071121, -322.64864897727966, -179.27584427595139
 1.7054508301339257E9, -418.3900878429413, -470.09046483039856, -284.352073431015, -159.64884930849075
 1.7054508301339257E9, -338.685339987278, -485.16974145174026, -298.71328926086426, -51.93973058462143
 1.70545083014609E9, -337.0098648071289, -498.0948356986046, -311.3990299105644, -131.16577124595642
 1.70545083014609E9, -427.00681734085083, -484.21232706308365, -288.6604381799698, -187.41386657953262
 1.7054508301617427E9, -360.70587092638016, -479.42525511980057, -289.1391453742981, -72.04543274641037
 1.7054508301617427E9, -321.21252739429474, -492.11099576950073, -301.1068252325058, -91.1937205195427
 1.7054508301624506E9, -399.4811536669731, -488.0419846177101, -297.0378140807152, -190.52546334266663
 1.7054508301624506E9, -394.9334353208542, -470.3298184275627, -286.0275486111641, -106.99105793237686
 1.705450830176495E9, -315.7073946595192, -487.32392382621765, -300.86747163534164, -51.22166979312897
 1.705450830176495E9, -374.34902596473694, -493.7864709496498, -302.0642396211624, -167.786871612072
 1.705450830191935E9, -423.4165133833885, -481.57943749427795, -278.84694069623947, -154.86177736520767
 1.705450830191935E9, -332.70150005817413, -488.0419846177101, -290.0965597629547, -51.700376987457275
 1.705450830192469E9, -338.2066327929497, -508.14768677949905, -305.6545435786247, -135.71348959207535
 1.705450830192469E9, -427.00681734085083, -484.9303878545761, -295.8410460948944, -195.07318168878555
 1.7054508302062485E9, -358.07298135757446, -471.5265864133835, -286.0275486111641, -76.35379749536514
 1.7054508302062485E9, -325.76024574041367, -504.55738282203674, -316.42545545101166, -99.09238922595978
 1.7054508302223542E9, -410.73077273368835, -499.77031087875366, -295.3623389005661, -198.66348564624786
 1.7054508302223542E9, -404.50757920742035, -477.2710727453232, -280.04370868206024, -107.23041152954102
 1.7054508302367363E9, -325.0421849489212, -503.360614836216, -301.82488602399826, -60.556460082530975
 1.7054508302367363E9, -383.9231698513031, -510.30186915397644, -297.0378140807152, -176.16424751281738
 1.7054508302374477E9, -436.1022540330887, -487.80263102054596, -286.74560940265656, -159.64884930849075
 1.7054508302374477E9, -355.2007381916046, -500.24901807308197, -312.5957978963852, -60.07775288820267
 1.705450830252318E9, -358.7910421490669, -515.0889410972595, -322.16994178295135, -141.45797592401505
 1.705450830252318E9, -442.804154753685, -496.8980677127838, -300.86747163534164, -200.33896082639694
 1.7054508302525997E9, -380.8115730881691, -490.43552058935165, -292.7294493317604, -73.24220073223114
 1.7054508302525997E9, -331.2653784751892, -509.583808362484, -321.69123458862305, -99.57109642028809
 1.7054508302661932E9, -421.26233100891113, -505.03609001636505, -315.7073946595192, -206.3228007555008
 1.7054508302661932E9, -408.3372367620468, -484.69103425741196, -281.47983026504517, -113.93231225013733
 1.7054508302824783E9, -315.46804106235504, -494.9832389354706, -302.0642396211624, -58.64163130521774
 1.7054508302824783E9, -370.9980756044388, -492.58970296382904, -300.38876444101334, -167.54751801490784
 1.7054508302831807E9, -417.6720270514488, -477.031719148159, -287.9423773884773, -150.79276621341705
 1.7054508302831807E9, -333.18020725250244, -483.25491267442703, -278.84694069623947, -47.87071943283081
 1.7054508302963846E9, -336.77051120996475, -500.0096644759178, -305.1758363842964, -128.53288167715073
 1.7054508302963846E9, -422.21974539756775, -482.05814468860626, -280.04370868206024, -186.21709859371185
 1.7054508303117845E9, -355.44009178876877, -469.3724040389061, -272.14503997564316, -67.7370679974556
 1.7054508303117845E9, -317.6222234368324, -499.5309572815895, -303.2610076069832, -92.86919569969177
 1.7054508303125813E9, -407.14046877622604, -489.47810620069504, -309.0054939389229, -199.62090003490448
 1.7054508303125813E9, -409.0552975535393, -486.6058630347252, -279.3256478905678, -112.97489786148071
 1.7054508303260207E9, -328.87184250354767, -500.96707886457443, -297.0378140807152, -61.753228068351746
 1.7054508303260207E9, -385.11993783712387, -513.8921731114388, -298.71328926086426, -176.40360110998154
 1.7054508303417077E9, -426.7674637436867, -485.16974145174026, -273.82051515579224, -159.64884930849075
 1.7054508303417077E9, -339.40340077877045, -487.32392382621765, -291.0539741516113, -51.22166979312897
 1.705450830342424E9, -344.1904727220535, -505.2754436135292, -305.6545435786247, -139.30379354953766
 1.705450830342424E9, -431.3151820898056, -489.2387526035309, -284.352073431015, -195.79124248027802
 1.7054508303561604E9, -379.3754515051842, -491.39293497800827, -283.15530544519424, -77.0718582868576
 1.7054508303561604E9, -331.2653784751892, -510.0625155568123, -308.2874331474304, -98.13497483730316
 1.705450830371919E9, -413.1243087053299, -503.5999684333801, -299.4313500523567, -198.66348564624786
 1.705450830371919E9, -413.36366230249405, -485.8878022432327, -283.8733662366867, -112.73554426431656
 1.7054508303725536E9, -329.58990329504013, -501.92449325323105, -308.5267867445946, -66.54030001163483
 1.7054508303725536E9, -383.9231698513031, -506.2328580021858, -325.76024574041367, -186.21709859371185
 1.7054508304028125E9, -418.3900878429413, -472.0052936077118, -286.9849629998207, -153.6650093793869
 1.7054508304028125E9, -339.6427543759346, -487.80263102054596, -296.55910688638687, -53.375852167606354
 1.70545083040335E9, -353.2859094142914, -512.4560515284538, -314.0319194793701, -138.5857327580452
 1.70545083040335E9, -431.07582849264145, -488.5206918120384, -296.55910688638687, -189.32869535684586
 1.7054508304040449E9, -368.12583243846893, -484.4516806602478, -303.50036120414734, -73.4815543293953
 1.7054508304040449E9, -327.1963673233986, -517.0037698745728, -320.9731737971306, -91.43307411670685
 1.705450830416067E9, -414.32107669115067, -502.6425540447235, -290.575266957283, -199.86025363206863
 1.705450830416067E9, -404.2682256102562, -475.5955975651741, -285.78819501399994, -111.77812987565994
 1.705450830432192E9, -326.4783065319061, -499.77031087875366, -293.686863720417, -56.72680252790451
 1.705450830432192E9, -383.68381625413895, -510.78057634830475, -305.6545435786247, -176.40360110998154
 1.705450830446885E9, -430.59712129831314, -483.25491267442703, -279.0862942934036, -162.9997996687889
 1.705450830446885E9, -348.9775446653366, -489.2387526035309, -302.30359321832657, -55.769388139247894
 1.7054508304477077E9, -351.131727039814, -504.7967364192009, -300.6281180381775, -133.08060002326965
 1.7054508304477077E9, -429.6397069096565, -480.62202310562134, -279.0862942934036, -189.32869535684586
 1.7054508304622636E9, -366.45035725831985, -477.98913353681564, -287.463670194149, -71.56672555208206
 1.7054508304622636E9, -326.4783065319061, -504.3180292248726, -307.09066516160965, -89.27889174222946
 1.7054508304625492E9, -409.77335834503174, -494.5045317411423, -292.49009573459625, -194.59447449445724
 1.7054508304625492E9, -397.3269712924957, -473.920122385025, -274.77792954444885, -109.3845939040184
 1.7054508304760828E9, -313.0745050907135, -486.84521663188934, -302.5429468154907, -52.17908418178558
 1.7054508304760828E9, -376.024501144886, -501.44578605890274, -303.7397148013115, -172.57394355535507
 1.7054508304917483E9, -430.59712129831314, -489.47810620069504, -280.7617694735527, -161.56367808580399
 1.7054508304917483E9, -340.6001687645912, -490.43552058935165, -299.19199645519257, -59.12033849954605
 1.7054508304924755E9, -345.8659479022026, -503.8393220305443, -311.87773710489273, -140.73991513252258
 1.7054508304924755E9, -424.6132813692093, -480.8613767027855, -279.8043550848961, -195.55188888311386
 1.7054508305062804E9, -364.5355284810066, -479.9039623141289, -281.7191838622093, -70.36995756626129
 1.7054508305062804E9, -320.4944666028023, -504.07867562770844, -311.3990299105644, -89.27889174222946
 1.7054508305544996E9, -405.2256399989128, -492.58970296382904, -292.96880292892456, -196.03059607744217
 1.7054508305544996E9, -399.72050726413727, -477.98913353681564, -281.7191838622093, -115.36843383312225
 1.705450830554978E9, -320.4944666028023, -497.3767749071121, -312.5957978963852, -62.47128885984421
 1.705450830554978E9, -377.93932992219925, -504.07867562770844, -318.3402842283249, -183.8235626220703
 1.7054508305556476E9, -443.04350835084915, -493.06841015815735, -302.30359321832657, -171.61652916669846
 1.7054508305556476E9, -350.6530198454857, -503.360614836216, -309.0054939389229, -56.72680252790451
 1.7054508305564032E9, -357.59427416324615, -516.7644162774086, -320.01575940847397, -138.1070255637169
 1.7054508305564032E9, -437.29902201890945, -494.02582454681396, -292.49009573459625, -197.4667176604271
 1.705450830566861E9, -377.93932992219925, -490.1961669921875, -297.9952284693718, -82.8163446187973
 1.705450830566861E9, -328.39313530921936, -506.47221159935, -319.2976986169815, -93.58725649118423
 1.7054508305674725E9, -407.14046877622604, -494.7438853383064, -298.4739356637001, -196.50930327177048
 1.7054508305674725E9, -398.76309287548065, -477.7497799396515, -276.93211191892624, -116.08649462461472
 1.7054508305817883E9, -315.46804106235504, -497.85548210144043, -308.5267867445946, -58.40227770805359
 1.7054508305817883E9, -371.9554899930954, -497.3767749071121, -304.2184219956398, -172.33458995819092
 1.7054508305825472E9, -425.5706957578659, -481.8187910914421, -287.9423773884773, -161.80303168296814
 1.7054508305825472E9, -334.61632883548737, -491.1535813808441, -297.0378140807152, -47.15265864133835
 1.705450830596304E9, -349.69560545682907, -511.9773443341255, -324.80283135175705, -135.71348959207535
 1.705450830596304E9, -432.9906572699547, -489.47810620069504, -305.1758363842964, -199.62090003490448
 1.7054508306112792E9, -375.30644035339355, -482.2974982857704, -292.2507421374321, -69.17318958044052
 1.7054508306112792E9, -329.1111961007118, -510.78057634830475, -326.4783065319061, -100.76786440610886
 1.705450830626819E9, -409.29465115070343, -488.7600454092026, -289.1391453742981, -122.07033455371857
 1.705450830626819E9, -320.4944666028023, -503.360614836216, -314.0319194793701, -60.07775288820267
 1.705450830627428E9, -378.89674431085587, -501.44578605890274, -320.4944666028023, -179.03649067878723
 1.705450830627428E9, -431.3151820898056, -488.5206918120384, -284.59142702817917, -161.56367808580399
 1.705450830641248E9, -341.55758315324783, -490.1961669921875, -304.2184219956398, -58.64163130521774
 1.705450830641248E9, -350.89237344264984, -506.71156519651413, -318.8189914226532, -142.41539031267166
 1.7054508306567807E9, -432.5119500756264, -492.58970296382904, -288.42108458280563, -196.50930327177048
 1.7054508306567807E9, -374.82773315906525, -483.25491267442703, -290.575266957283, -77.78991907835007
 1.705450830657482E9, -330.54731768369675, -510.30186915397644, -319.05834501981735, -99.81045001745224
 1.705450830657482E9, -419.8262094259262, -503.1212612390518, -296.55910688638687, -202.25378960371017
 1.7054508306874464E9, -412.6456015110016, -485.4090950489044, -292.7294493317604, -120.39485937356949
 1.7054508306874464E9, -332.46214646101, -512.695405125618, -317.3828698396683, -71.80607914924622
 1.705450830688151E9, -388.2315346002579, -514.6102339029312, -315.7073946595192, -186.69580578804016
 1.705450830688151E9, -442.804154753685, -489.2387526035309, -284.11271983385086, -169.46234679222107
 1.7054508306888912E9, -342.7543511390686, -489.7174597978592, -305.8938971757889, -59.83839929103851
 1.7054508306888912E9, -345.3872407078743, -513.1741123199463, -323.84541696310043, -142.1760367155075
 1.7054508307010908E9, -443.52221554517746, -501.2064324617386, -313.31385868787766, -206.3228007555008
 1.7054508307010908E9, -376.5032083392143, -486.36650943756104, -305.41518998146057, -81.38022303581238
 1.7054508307173088E9, -333.65891444683075, -513.4134659171104, -325.28153854608536, -107.46976512670517
 1.7054508307173088E9, -420.06556302309036, -504.55738282203674, -318.57963782548904, -204.64732557535172
 1.7054508307175696E9, -407.3798223733902, -479.42525511980057, -288.42108458280563, -117.04390901327133
 1.7054508307175696E9, -318.10093063116074, -494.02582454681396, -312.83515149354935, -59.59904569387436
 1.705450830731354E9, -373.87031877040863, -500.24901807308197, -302.7823004126549, -171.61652916669846
 1.705450830731354E9, -415.51784467697144, -474.87753677368164, -272.3843935728073, -155.8191917538643
 1.705450830746746E9, -320.2551130056381, -475.5955975651741, -289.6178525686264, -48.110073029994965
 1.705450830746746E9, -331.7440856695175, -496.8980677127838, -309.4842011332512, -132.8412464261055
 1.7054508307474592E9, -427.7248781323433, -486.36650943756104, -282.9159518480301, -201.77508240938187
 1.7054508307474592E9, -361.6632853150368, -475.35624396800995, -276.45340472459793, -69.89125037193298
 1.7054508307612245E9, -319.05834501981735, -501.44578605890274, -307.56937235593796, -93.58725649118423
 1.7054508307612245E9, -406.1830543875694, -495.70129972696304, -291.53268134593964, -200.81766802072525
 1.7054508307771811E9, -400.6779216527939, -479.1859015226364, -294.64427810907364, -121.59162735939026
 1.7054508307771811E9, -320.4944666028023, -503.360614836216, -314.0319194793701, -59.83839929103851
 1.705450830791751E9, -380.3328658938408, -510.5412227511406, -317.1435162425041, -179.99390506744385
 1.705450830791751E9, -423.6558669805527, -481.8187910914421, -284.59142702817917, -165.1539820432663
 1.705450830792461E9, -331.7440856695175, -487.5632774233818, -300.6281180381775, -58.64163130521774
 1.705450830792461E9, -340.6001687645912, -507.19027239084244, -317.3828698396683, -141.45797592401505
 1.7054508308067276E9, -427.00681734085083, -486.84521663188934, -298.9526428580284, -203.92926478385925
 1.7054508308067276E9, -361.9026389122009, -479.1859015226364, -285.0701342225075, -74.91767591238022
 1.705450830807433E9, -314.27127307653427, -497.85548210144043, -313.79256588220596, -96.69885325431824
 1.705450830807433E9, -395.8908497095108, -495.22259253263474, -297.27716767787933, -196.26994967460632
 1.7054508308215125E9, -392.06119215488434, -478.94654792547226, -281.9585374593735, -112.0174834728241
 1.7054508308215125E9, -304.6971291899681, -496.4193605184555, -298.71328926086426, -53.1364985704422
 1.7054508308370807E9, -363.81746768951416, -493.3077637553215, -301.82488602399826, -170.41976118087769
 1.7054508308370807E9, -409.77335834503174, -465.3033928871155, -284.11271983385086, -150.79276621341705
 1.7054508308376927E9, -331.7440856695175, -478.46784073114395, -299.6707036495209, -50.26425540447235
 1.7054508308376927E9, -336.77051120996475, -494.9832389354706, -301.34617882966995, -135.23478239774704
 1.705450830851118E9, -426.5281101465225, -485.6484486460686, -288.42108458280563, -189.56804895401
 1.705450830851118E9, -361.6632853150368, -478.46784073114395, -276.93211191892624, -74.19961512088776
 1.7054508308667765E9, -318.8189914226532, -505.99350440502167, -319.53705221414566, -97.17756044864655
 1.7054508308667765E9, -407.8585295677185, -492.8290565609932, -297.75587487220764, -203.2112039923668
 1.7054508308675196E9, -410.25206553936005, -480.14331591129303, -278.36823350191116, -118.71938419342041
 1.7054508308675196E9, -304.6971291899681, -489.7174597978592, -306.3726043701172, -48.110073029994965
 1.705450830881382E9, -375.78514754772186, -500.0096644759178, -305.8938971757889, -177.36101549863815
 1.705450830881382E9, -424.37392777204514, -478.46784073114395, -270.70891839265823, -160.60626369714737
 1.705450830897473E9, -337.9672791957855, -492.11099576950073, -296.55910688638687, -58.162924110889435
 1.705450830897473E9, -347.5414230823517, -510.78057634830475, -314.0319194793701, -146.24504786729813
 1.705450830897539E9, -435.14483964443207, -493.06841015815735, -298.9526428580284, -210.15245831012726
 1.705450830897539E9, -371.9554899930954, -482.2974982857704, -287.463670194149, -77.0718582868576
 1.7054508309110508E9, -333.8982680439949, -516.2857090830803, -319.7764058113098, -104.35816836357117
 1.7054508309110508E9, -410.9701263308525, -493.3077637553215, -299.4313500523567, -209.67375111579895
 1.705450830926885E9, -404.2682256102562, -480.3826695084572, -283.63401263952255, -123.74580973386765
 1.705450830926885E9, -319.7764058113098, -503.8393220305443, -314.0319194793701, -69.41254317760468
 1.705450830927536E9, -375.30644035339355, -501.92449325323105, -308.5267867445946, -184.30226981639862
 1.705450830927536E9, -424.6132813692093, -479.1859015226364, -276.6927583217621, -164.19656765460968
 1.7054508309412973E9, -329.58990329504013, -489.7174597978592, -298.71328926086426, -52.897144973278046
 1.7054508309412973E9, -340.6001687645912, -510.78057634830475, -304.45777559280396, -133.79866081476212
 1.7054508309567308E9, -428.2035853266716, -485.6484486460686, -287.22431659698486, -194.3551208972931
 1.7054508309567308E9, -362.86005330085754, -475.5955975651741, -276.2140511274338, -65.58288562297821
 1.705450830957452E9, -314.7499802708626, -496.8980677127838, -311.6383835077286, -90.95436692237854
 1.705450830957452E9, -409.77335834503174, -496.4193605184555, -302.30359321832657, -202.25378960371017
 1.7054508309712667E9, -399.9598608613014, -477.98913353681564, -278.128879904747, -107.94847232103348
 1.7054508309712667E9, -316.42545545101166, -497.13742130994797, -300.86747163534164, -55.769388139247894
 1.7054508309867568E9, -377.93932992219925, -503.5999684333801, -297.0378140807152, -174.24941873550415
 1.7054508309867568E9, -427.246170938015, -482.2974982857704, -288.6604381799698, -159.4094957113266
 1.7054508309874897E9, -336.5311576128006, -490.91422778367996, -292.96880292892456, -50.503609001636505
 1.7054508309874897E9, -347.78077667951584, -507.4296259880066, -313.79256588220596, -136.19219678640366
 1.7054508310010884E9, -426.5281101465225, -484.4516806602478, -269.51215040683746, -195.3125352859497
 1.7054508310010884E9, -368.8438932299614, -481.8187910914421, -281.240476667881, -71.08801835775375
 1.705450831017115E9, -315.7073946595192, -499.5309572815895, -319.53705221414566, -95.98079246282578
 1.705450831017115E9, -408.09788316488266, -491.39293497800827, -292.49009573459625, -193.39770650863647
 1.705450831017584E9, -403.3108112215996, -480.14331591129303, -288.6604381799698, -117.04390901327133
 1.705450831017584E9, -314.5106266736984, -497.3767749071121, -307.3300187587738, -55.05132734775543
 1.7054508310316076E9, -373.3916115760803, -501.6851396560669, -300.38876444101334, -168.7442860007286
 1.7054508310316076E9, -422.69845259189606, -477.7497799396515, -271.905686378479, -152.46824139356613
 1.7054508310467613E9, -334.8556824326515, -484.9303878545761, -299.19199645519257, -47.15265864133835
 1.7054508310467613E9, -340.83952236175537, -505.03609001636505, -309.9629083275795, -131.40512484312057
 1.7054508310474546E9, -429.1609997153282, -482.53685188293457, -273.5811615586281, -189.80740255117416
 1.7054508310474546E9, -360.466517329216, -474.87753677368164, -293.9262173175812, -67.97642159461975
 1.7054508310611663E9, -320.01575940847397, -500.7277252674103, -307.8087259531021, -87.12470936775208
 1.7054508310611663E9, -412.6456015110016, -491.8716421723366, -300.1494108438492, -202.01443600654602
 1.7054508310773141E9, -395.4121425151825, -475.1168903708458, -271.66633278131485, -108.66653311252594
 1.7054508310773141E9, -312.5957978963852, -501.2064324617386, -308.04807955026627, -55.53003454208374
 1.7054508310917175E9, -379.3754515051842, -503.360614836216, -320.9731737971306, -182.62679463624954
 1.7054508310917175E9, -421.022977411747, -475.83495116233826, -274.5385759472847, -154.62242376804352
 1.7054508310924416E9, -331.02602487802505, -482.53685188293457, -292.01138854026794, -50.74296259880066
 1.7054508310924416E9, -342.03629034757614, -503.5999684333801, -323.6060633659363, -139.5431471467018
 1.705450831106983E9, -431.7938892841339, -485.16974145174026, -296.55910688638687, -198.90283924341202
 1.705450831106983E9, -371.71613639593124, -491.1535813808441, -299.6707036495209, -81.85893023014069
 1.7054508311075368E9, -326.7176601290703, -504.7967364192009, -318.10093063116074, -99.57109642028809
 1.7054508311075368E9, -412.6456015110016, -498.81289649009705, -303.2610076069832, -203.45055758953094
 1.705450831121153E9, -408.3372367620468, -481.57943749427795, -289.85720616579056, -112.0174834728241
 1.705450831121153E9, -316.1861018538475, -496.8980677127838, -313.31385868787766, -56.487448930740356
 1.70545083113712E9, -387.5134738087654, -511.9773443341255, -331.02602487802505, -182.14808744192123
 1.70545083113712E9, -437.77772921323776, -491.1535813808441, -278.6075870990753, -162.76044607162476
 1.7054508311376092E9, -344.908533513546, -498.33418929576874, -299.4313500523567, -54.572620153427124
 1.7054508311376092E9, -350.6530198454857, -514.1315267086029, -326.238952934742, -145.76634067296982
 1.705450831151127E9, -439.93191158771515, -494.9832389354706, -299.910057246685, -201.0570216178894
 1.705450831151127E9, -364.5355284810066, -479.1859015226364, -283.63401263952255, -70.36995756626129
 1.7054508311669E9, -320.9731737971306, -511.4986371397972, -313.79256588220596, -94.54467087984085
 1.7054508311669E9, -416.7146126627922, -500.0096644759178, -296.798460483551, -200.0996072292328
 1.7054508311675253E9, -405.7043471932411, -481.10073029994965, -277.1714655160904, -111.77812987565994
 1.7054508311675253E9, -321.9305881857872, -500.24901807308197, -314.27127307653427, -56.2480953335762
 1.7054508311815217E9, -374.34902596473694, -502.88190764188766, -307.09066516160965, -179.03649067878723
 1.7054508311815217E9, -429.1609997153282, -483.73361986875534, -280.04370868206024, -158.45208132266998
 1.7054508311971877E9, -336.0524504184723, -490.1961669921875, -305.1758363842964, -56.487448930740356
 1.7054508311971877E9, -330.54731768369675, -494.5045317411423, -300.86747163534164, -128.53288167715073
 1.7054508312118351E9, -433.9480716586113, -495.4619461297989, -293.44751012325287, -196.26994967460632
 1.7054508312118351E9, -370.7587220072746, -486.6058630347252, -289.85720616579056, -73.72090792655945
 1.705450831212738E9, -328.87184250354767, -511.9773443341255, -317.1435162425041, -101.48592519760132
 1.705450831212738E9, -414.799783885479, -498.33418929576874, -294.64427810907364, -200.81766802072525
 1.7054508312432704E9, -403.0714576244354, -481.8187910914421, -281.00112307071686, -116.56520181894302
 1.7054508312432704E9, -322.4092953801155, -500.7277252674103, -311.87773710489273, -57.20550972223282
 1.7054508312438169E9, -386.5560594201088, -507.66897958517075, -306.8513115644455, -180.7119658589363
 1.7054508312438169E9, -432.7513036727905, -484.69103425741196, -285.5488414168358, -169.94105398654938
 1.7054508312445629E9, -346.10530149936676, -497.13742130994797, -289.6178525686264, -50.98231619596481
 1.7054508312445629E9, -346.8233622908592, -510.5412227511406, -314.0319194793701, -134.03801441192627
 1.705450831245335E9, -435.86290043592453, -494.9832389354706, -290.575266957283, -198.4241320490837
 1.705450831245335E9, -359.5091029405594, -474.6381831765175, -281.7191838622093, -68.93383598327637
 1.7054508312565315E9, -317.8615770339966, -500.0096644759178, -304.45777559280396, -92.15113490819931
 1.7054508312565315E9, -415.99655187129974, -504.7967364192009, -298.23458206653595, -204.1686183810234
 1.7054508312713504E9, -402.5927504301071, -484.69103425741196, -281.47983026504517, -113.21425145864487
 1.7054508312713504E9, -318.8189914226532, -504.55738282203674, -308.5267867445946, -62.231935262680054
 1.7054508312867615E9, -381.52963387966156, -507.66897958517075, -311.6383835077286, -178.55778348445892
 1.7054508312867615E9, -435.3841932415962, -489.47810620069504, -295.8410460948944, -169.46234679222107
 1.7054508312874396E9, -332.70150005817413, -488.7600454092026, -297.0378140807152, -53.85455936193466
 1.7054508312874396E9, -335.81309682130814, -501.6851396560669, -315.2286874651909, -135.4741359949112
 1.705450831301499E9, -419.10814863443375, -478.2284871339798, -287.70302379131317, -196.03059607744217
 1.705450831301499E9, -353.7646166086197, -469.13305044174194, -278.36823350191116, -71.56672555208206
 1.7054508313173437E9, -309.0054939389229, -495.9406533241272, -311.15967631340027, -92.15113490819931
 1.7054508313173437E9, -400.91727524995804, -494.2651781439781, -297.9952284693718, -198.66348564624786
 1.705450831317536E9, -392.3005457520485, -473.4414151906967, -274.5385759472847, -115.84714102745056
 1.705450831317536E9, -314.0319194793701, -502.40320044755936, -310.4416155219078, -61.03516727685928
 1.705450831331339E9, -372.4341971874237, -503.5999684333801, -311.3990299105644, -177.6003690958023
 1.705450831331339E9, -415.2784910798073, -478.94654792547226, -275.4959903359413, -158.9307885169983
 1.7054508313632777E9, -331.98343926668167, -483.0155590772629, -300.6281180381775, -54.093912959098816
 1.7054508313632777E9, -343.47241193056107, -510.78057634830475, -320.01575940847397, -141.93668311834335
 1.7054508313639388E9, -432.9906572699547, -488.28133821487427, -295.8410460948944, -199.38154643774033
 1.7054508313639388E9, -368.12583243846893, -481.10073029994965, -288.6604381799698, -74.43896871805191
 1.7054508313647287E9, -324.0847705602646, -514.6102339029312, -311.3990299105644, -93.10854929685593
 1.7054508313647287E9, -412.6456015110016, -506.71156519651413, -300.86747163534164, -199.62090003490448
 1.7054508313655257E9, -410.4914191365242, -491.39293497800827, -289.37849897146225, -114.65037304162979
 1.7054508313655257E9, -321.21252739429474, -499.77031087875366, -309.72355473041534, -59.83839929103851
 1.7054508313761058E9, -378.6573907136917, -499.0522500872612, -320.01575940847397, -180.233258664608
 1.7054508313761058E9, -434.9054860472679, -487.80263102054596, -296.55910688638687, -167.54751801490784
 1.705450831391328E9, -351.6104342341423, -502.6425540447235, -314.5106266736984, -70.36995756626129
 1.705450831391328E9, -353.2859094142914, -513.6528195142746, -326.238952934742, -140.73991513252258
 1.705450831407204E9, -443.7615691423416, -495.70129972696304, -304.45777559280396, -203.45055758953094
 1.705450831407204E9, -369.08324682712555, -484.69103425741196, -291.53268134593964, -77.78991907835007
 1.7054508314075496E9, -330.06861048936844, -510.0625155568123, -327.1963673233986, -102.68269318342209
 1.7054508314075496E9, -422.21974539756775, -509.3444547653198, -308.5267867445946, -206.8015079498291
 1.705450831421183E9, -416.95396625995636, -484.4516806602478, -282.9159518480301, -121.3522737622261
 1.705450831421183E9, -330.3079640865326, -511.25928354263306, -323.12735617160797, -70.36995756626129
 1.7054508314368303E9, -384.4018770456314, -512.4560515284538, -317.8615770339966, -183.10550183057785
 1.7054508314368303E9, -438.97449719905853, -496.65871411561966, -297.0378140807152, -168.2655788064003
 1.7054508314374974E9, -351.84978783130646, -504.55738282203674, -314.5106266736984, -67.01900720596313
 1.7054508314374974E9, -354.48267740011215, -518.4398914575577, -332.9408536553383, -147.20246225595474
 1.7054508314511063E9, -452.138945043087, -508.14768677949905, -313.0745050907135, -214.70017665624619
 1.7054508314511063E9, -386.79541301727295, -502.40320044755936, -299.19199645519257, -89.99695253372192
 1.705450831466853E9, -336.5311576128006, -519.6366594433784, -345.62659430503845, -110.34200829267502
 1.705450831466853E9, -423.4165133833885, -507.66897958517075, -315.46804106235504, -215.6575910449028
 1.7054508314675255E9, -419.58685582876205, -501.2064324617386, -302.30359321832657, -133.08060002326965
 1.7054508314675255E9, -333.18020725250244, -513.4134659171104, -337.9672791957855, -71.32737195491791
 1.7054508314813144E9, -397.80567848682404, -523.2269634008408, -331.7440856695175, -195.55188888311386
 1.7054508314813144E9, -440.6499723792076, -494.7438853383064, -299.6707036495209, -169.22299319505692
 1.7054508314973352E9, -353.7646166086197, -507.66897958517075, -314.0319194793701, -61.51387447118759
 1.7054508314973352E9, -354.243323802948, -519.1579522490501, -334.8556824326515, -143.37280470132828
 1.7054508314975731E9, -444.9583371281624, -497.6161285042763, -308.7661403417587, -214.46082305908203
 1.7054508314975731E9, -386.79541301727295, -500.7277252674103, -306.13325077295303, -89.75759893655777
 1.705450831511192E9, -334.8556824326515, -519.1579522490501, -331.02602487802505, -104.35816836357117
 1.705450831511192E9, -418.3900878429413, -503.8393220305443, -313.79256588220596, -205.84409356117249
 1.705450831527044E9, -415.51784467697144, -490.43552058935165, -289.37849897146225, -118.71938419342041
 1.705450831527044E9, -337.9672791957855, -515.3282946944237, -324.0847705602646, -70.13060396909714
 1.705450831527504E9, -395.65149611234665, -516.7644162774086, -324.80283135175705, -189.32869535684586
 1.705450831527504E9, -452.85700583457947, -500.96707886457443, -293.2081565260887, -175.92489391565323
 1.7054508315414977E9, -361.6632853150368, -504.07867562770844, -314.0319194793701, -63.18934965133667
 1.7054508315414977E9, -366.92906445264816, -525.8598529696465, -328.1537817120552, -148.15987664461136
 1.7054508315571823E9, -452.37829864025116, -507.9083331823349, -299.4313500523567, -204.88667917251587
 1.7054508315571823E9, -389.90700978040695, -498.33418929576874, -302.5429468154907, -79.94410145282745
 1.7054508315718188E9, -331.50473207235336, -511.73799073696136, -325.5208921432495, -102.20398598909378
 1.7054508315718188E9, -419.10814863443375, -502.40320044755936, -303.7397148013115, -211.82793349027634
 1.7054508315724847E9, -415.2784910798073, -489.2387526035309, -295.60169249773026, -125.66063851118088
 1.7054508315724847E9, -330.3079640865326, -512.695405125618, -324.5634777545929, -73.24220073223114
 1.7054508315872097E9, -386.31670582294464, -515.3282946944237, -324.5634777545929, -190.04675614833832
 1.7054508315872097E9, -432.9906572699547, -490.1961669921875, -294.8836317062378, -167.30816441774368
 1.705450831587548E9, -338.685339987278, -494.2651781439781, -308.7661403417587, -57.44486331939697
 1.705450831587548E9, -341.55758315324783, -508.8657475709915, -319.53705221414566, -138.34637916088104
 1.7054508316012757E9, -429.6397069096565, -492.3503493666649, -300.38876444101334, -202.97185039520264
 1.7054508316012757E9, -365.49294286966324, -477.98913353681564, -298.23458206653595, -78.02927267551422
 1.7054508316161036E9, -318.8189914226532, -502.1638468503952, -316.42545545101166, -95.26273167133331
 1.7054508316161036E9, -413.1243087053299, -502.88190764188766, -309.72355473041534, -204.64732557535172
 1.7054508316487117E9, -327.43572092056274, -510.78057634830475, -321.4518809914589, -71.32737195491791
 1.7054508316487117E9, -382.4870482683182, -508.14768677949905, -320.73382019996643, -187.17451298236847
 1.705450831649047E9, -436.1022540330887, -483.73361986875534, -287.9423773884773, -165.39333564043045
 1.705450831649047E9, -346.10530149936676, -504.55738282203674, -309.72355473041534, -65.1041784286499
 1.705450831649824E9, -348.02013027668, -515.0889410972595, -326.4783065319061, -145.76634067296982
 1.705450831649824E9, -438.4957900047302, -491.6322885751724, -305.8938971757889, -206.3228007555008
 1.7054508316506956E9, -382.72640186548233, -499.5309572815895, -296.08039969205856, -84.01311260461807
 1.7054508316506956E9, -333.4195608496666, -521.3121346235275, -328.6324889063835, -100.5285108089447
 1.7054508316610856E9, -414.799783885479, -504.7967364192009, -308.5267867445946, -208.47698312997818
 1.7054508316610856E9, -403.7895184159279, -483.25491267442703, -291.2933277487755, -118.71938419342041
 1.70545083167628E9, -304.93648278713226, -491.6322885751724, -312.83515149354935, -62.71064245700836
 1.70545083167628E9, -370.04066121578217, -498.5735428929329, -320.4944666028023, -186.21709859371185
 1.70545083169175E9, -427.7248781323433, -482.7762054800987, -293.44751012325287, -164.43592125177383
 1.70545083169175E9, -335.573743224144, -489.47810620069504, -308.04807955026627, -60.79581367969513
 1.7054508316924944E9, -339.88210797309875, -509.10510116815567, -320.73382019996643, -142.89409750699997
 1.7054508316924944E9, -425.5706957578659, -487.32392382621765, -293.686863720417, -200.81766802072525
 1.7054508317064452E9, -370.7587220072746, -481.57943749427795, -285.0701342225075, -76.35379749536514
 1.7054508317064452E9, -320.01575940847397, -507.9083331823349, -323.3667097687721, -102.20398598909378
 1.7054508317220738E9, -415.99655187129974, -505.03609001636505, -306.3726043701172, -204.40797197818756
 1.7054508317220738E9, -409.77335834503174, -490.6748741865158, -301.5855324268341, -122.78839534521103
 1.7054508317226045E9, -325.76024574041367, -504.55738282203674, -317.8615770339966, -64.6254712343216
 1.7054508317226045E9, -387.5134738087654, -513.6528195142746, -317.1435162425041, -180.7119658589363
 1.7054508317360933E9, -440.6499723792076, -494.7438853383064, -298.4739356637001, -173.29200434684753
 1.7054508317360933E9, -352.8072022199631, -505.03609001636505, -314.98933386802673, -61.27452087402344
 1.7054508317518404E9, -360.22716373205185, -522.5089026093483, -338.92469358444214, -150.79276621341705
 1.7054508317518404E9, -440.1712651848793, -500.4883716702461, -301.34617882966995, -206.3228007555008
 1.7054508317524605E9, -376.26385474205017, -493.3077637553215, -291.53268134593964, -81.38022303581238
 1.7054508317524605E9, -325.28153854608536, -510.30186915397644, -320.01575940847397, -102.68269318342209
 1.7054508317815511E9, -405.9437007904053, -492.58970296382904, -297.75587487220764, -201.0570216178894
 1.7054508317815511E9, -400.1992144584656, -484.69103425741196, -282.67659825086594, -124.94257771968842
 1.7054508317988112E9, -318.3402842283249, -496.8980677127838, -314.7499802708626, -62.949996054172516
 1.7054508317988112E9, -375.78514754772186, -500.4883716702461, -309.9629083275795, -175.68554031848907
 1.7054508317993205E9, -432.9906572699547, -490.1961669921875, -284.8307806253433, -162.0423852801323
 1.7054508317993205E9, -344.4298263192177, -499.29160368442535, -307.8087259531021, -58.8809849023819
 1.7054508318000412E9, -345.8659479022026, -515.3282946944237, -324.0847705602646, -138.5857327580452
 1.7054508318000412E9, -432.7513036727905, -492.58970296382904, -294.64427810907364, -207.2802151441574
 1.7054508318118262E9, -371.23742920160294, -482.53685188293457, -297.27716767787933, -86.88535577058792
 1.7054508318118262E9, -333.4195608496666, -512.695405125618, -322.64864897727966, -108.66653311252594
 1.7054508318125856E9, -410.9701263308525, -493.7864709496498, -311.3990299105644, -206.3228007555008
 1.7054508318125856E9, -402.83210402727127, -479.1859015226364, -286.26690220832825, -117.28326261043549
 1.7054508318260844E9, -322.64864897727966, -503.8393220305443, -305.1758363842964, -60.556460082530975
 1.7054508318260844E9, -384.16252344846725, -506.71156519651413, -316.42545545101166, -182.8661482334137
 1.7054508318418448E9, -430.8364748954773, -485.6484486460686, -291.7720349431038, -164.43592125177383
 1.7054508318418448E9, -339.88210797309875, -488.28133821487427, -298.4739356637001, -56.72680252790451
 1.7054508318425093E9, -346.58400869369507, -506.9509187936783, -314.0319194793701, -138.1070255637169
 1.7054508318425093E9, -421.5016846060753, -476.7923655509949, -280.04370868206024, -194.59447449445724
 1.7054508318563106E9, -366.689710855484, -480.14331591129303, -280.2830622792244, -75.15702950954437
 1.7054508318563106E9, -330.3079640865326, -512.9347587227821, -314.0319194793701, -98.61368203163147
 1.7054508318720624E9, -417.911380648613, -504.07867562770844, -299.6707036495209, -205.84409356117249
 1.7054508318720624E9, -407.8585295677185, -482.7762054800987, -284.352073431015, -118.71938419342041
 1.7054508318726015E9, -312.83515149354935, -493.7864709496498, -297.75587487220764, -53.375852167606354
 1.7054508318726015E9, -376.024501144886, -498.5735428929329, -303.50036120414734, -176.40360110998154
 1.7054508318861575E9, -424.134574174881, -479.6646087169647, -273.1024543642998, -154.38307017087936
 1.7054508318861575E9, -339.40340077877045, -487.80263102054596, -301.5855324268341, -52.17908418178558
 1.705450831902074E9, -341.55758315324783, -504.3180292248726, -308.5267867445946, -130.44771045446396
 1.705450831902074E9, -435.86290043592453, -490.91422778367996, -292.49009573459625, -193.87641370296478
 1.705450831902514E9, -382.00834107398987, -490.6748741865158, -291.2933277487755, -71.80607914924622
 1.705450831902514E9, -330.7866712808609, -514.3708803057671, -312.5957978963852, -96.45949965715408
 1.7054508319164982E9, -421.5016846060753, -497.6161285042763, -295.60169249773026, -204.88667917251587
 1.7054508319164982E9, -418.15073424577713, -488.7600454092026, -282.67659825086594, -118.71938419342041
 1.705450831931831E9, -331.7440856695175, -511.73799073696136, -316.6648090481758, -71.80607914924622
 1.705450831931831E9, -392.7792529463768, -519.8760130405426, -312.35644429922104, -183.58420902490616
 1.705450831932577E9, -439.93191158771515, -492.58970296382904, -283.15530544519424, -168.2655788064003
 1.705450831932577E9, -345.8659479022026, -499.29160368442535, -303.02165400981903, -54.572620153427124
 1.7054508319462E9, -358.7910421490669, -519.6366594433784, -322.64864897727966, -142.1760367155075
 1.7054508319462E9, -444.9583371281624, -494.7438853383064, -289.85720616579056, -201.77508240938187
 1.7054508319623482E9, -381.7689874768257, -491.39293497800827, -300.38876444101334, -85.68858778476715
 1.7054508319623482E9, -340.36081516742706, -523.4663169980049, -332.9408536553383, -110.10265469551086
 1.7054508319626734E9, -421.5016846060753, -505.7541508078575, -311.15967631340027, -217.8117734193802
 1.7054508319626734E9, -416.95396625995636, -493.3077637553215, -295.8410460948944, -130.6870640516281
 1.7054508319761403E9, -331.50473207235336, -509.3444547653198, -318.8189914226532, -67.7370679974556
 1.7054508319761403E9, -391.3431313633919, -517.2431234717369, -316.1861018538475, -189.0893417596817
 1.7054508319919052E9, -442.56480115652084, -492.8290565609932, -295.3623389005661, -170.41976118087769
 1.7054508319919052E9, -351.131727039814, -498.81289649009705, -314.5106266736984, -67.7370679974556
 1.7054508319925442E9, -358.55168855190277, -519.3973058462143, -319.2976986169815, -146.24504786729813
 1.7054508319925442E9, -450.2241162657738, -504.3180292248726, -297.9952284693718, -204.88667917251587
 1.7054508320060785E9, -382.72640186548233, -490.43552058935165, -290.8146205544472, -78.98668706417084
 1.7054508320060785E9, -339.88210797309875, -520.3547202348709, -324.32412415742874, -99.81045001745224
 1.7054508320221753E9, -422.9378061890602, -501.44578605890274, -299.910057246685, -206.3228007555008
 1.7054508320221753E9, -417.6720270514488, -490.6748741865158, -290.0965597629547, -126.85740649700165
 1.7054508320226305E9, -331.2653784751892, -508.3870403766632, -310.9203227162361, -70.36995756626129
 1.7054508320226305E9, -386.0773522257805, -510.0625155568123, -310.20226192474365, -176.6429547071457
 1.7054508320361433E9, -434.66613245010376, -491.6322885751724, -276.93211191892624, -158.45208132266998
 1.7054508320361433E9, -342.51499754190445, -497.3767749071121, -291.7720349431038, -58.40227770805359
 1.7054508320518265E9, -352.8072022199631, -514.3708803057671, -314.5106266736984, -136.19219678640366
 1.7054508320518265E9, -436.34160763025284, -494.7438853383064, -290.33591336011887, -198.66348564624786
 1.7054508320671616E9, -376.5032083392143, -489.47810620069504, -296.798460483551, -84.49181979894638
 1.7054508320671616E9, -323.6060633659363, -504.55738282203674, -319.05834501981735, -95.98079246282578
 1.7054508320675135E9, -412.88495510816574, -493.3077637553215, -301.1068252325058, -204.64732557535172
 1.7054508320675135E9, -402.83210402727127, -480.62202310562134, -288.1817309856415, -114.41101944446564
 1.7054508320822763E9, -314.98933386802673, -497.13742130994797, -309.0054939389229, -66.30094641447067
 1.7054508320822763E9, -378.1786835193634, -504.55738282203674, -309.4842011332512, -183.8235626220703
 1.7054508320826416E9, -426.5281101465225, -481.8187910914421, -285.0701342225075, -160.12755650281906
 1.7054508320826416E9, -335.0950360298157, -487.80263102054596, -293.9262173175812, -54.093912959098816
 1.7054508320961294E9, -333.18020725250244, -499.0522500872612, -308.7661403417587, -138.34637916088104
 1.7054508320961294E9, -429.40035331249237, -481.10073029994965, -289.6178525686264, -196.74865686893463
 1.705450832112409E9, -371.9554899930954, -490.43552058935165, -275.9746975302696, -78.26862627267838
 1.705450832112409E9, -322.64864897727966, -507.66897958517075, -305.41518998146057, -92.15113490819931
 1.7054508321268754E9, -406.4224079847336, -490.6748741865158, -291.53268134593964, -197.4667176604271
 1.7054508321268754E9, -393.01860654354095, -474.1594759821892, -282.4372446537018, -114.88972663879395
 1.70545083212789E9, -309.24484753608704, -490.43552058935165, -292.2507421374321, -55.769388139247894
 1.70545083212789E9, -375.78514754772186, -505.99350440502167, -303.2610076069832, -174.72812592983246
 1.7054508321418605E9, -428.6822925209999, -486.84521663188934, -289.6178525686264, -157.97337412834167
 1.7054508321418605E9, -339.1640471816063, -488.0419846177101, -292.01138854026794, -53.61520576477051
 1.7054508321424832E9, -348.25948387384415, -505.7541508078575, -310.68096911907196, -143.13345110416412
 1.7054508321424832E9, -429.40035331249237, -486.1271558403969, -286.5062558054924, -196.26994967460632
 1.705450832156258E9, -365.97165006399155, -471.76594001054764, -282.4372446537018, -73.4815543293953
 1.705450832156258E9, -322.4092953801155, -505.2754436135292, -319.05834501981735, -96.22014605998993
 1.7054508321718237E9, -408.8159439563751, -494.2651781439781, -282.67659825086594, -195.3125352859497
 1.7054508321718237E9, -409.0552975535393, -474.87753677368164, -280.52241587638855, -111.53877627849579
 1.705450832172428E9, -317.1435162425041, -493.7864709496498, -304.45777559280396, -55.05132734775543
 1.705450832172428E9, -377.46062272787094, -500.7277252674103, -306.3726043701172, -173.77071154117584
 1.7054508321861956E9, -424.134574174881, -477.7497799396515, -284.352073431015, -152.46824139356613
 1.7054508321861956E9, -335.573743224144, -488.5206918120384, -298.71328926086426, -48.58878022432327
 1.7054508322029233E9, -330.7866712808609, -496.18000692129135, -299.910057246685, -128.77223527431488
 1.7054508322029233E9, -426.28875654935837, -484.21232706308365, -281.00112307071686, -196.50930327177048
 1.7054508322171888E9, -363.33876049518585, -473.20206159353256, -274.29922235012054, -72.76349353790283
 1.7054508322171888E9, -319.05834501981735, -497.85548210144043, -305.6545435786247, -89.27889174222946
 1.70545083221767E9, -404.2682256102562, -484.4516806602478, -283.63401263952255, -190.04675614833832
 1.70545083221767E9, -407.14046877622604, -479.42525511980057, -274.5385759472847, -112.73554426431656
 1.7054508322318497E9, -326.238952934742, -500.24901807308197, -314.0319194793701, -57.20550972223282
 1.7054508322318497E9, -381.2902802824974, -505.7541508078575, -305.1758363842964, -177.121661901474
 1.7054508322324128E9, -434.18742525577545, -487.80263102054596, -282.67659825086594, -164.675274848938
 1.7054508322324128E9, -346.3446550965309, -496.8980677127838, -310.4416155219078, -54.81197375059128
 1.705450832246425E9, -353.52526301145554, -517.7218306660652, -338.2066327929497, -139.0644399523735
 1.705450832246425E9, -438.7351436018944, -496.18000692129135, -289.37849897146225, -201.77508240938187
 1.705450832261878E9, -378.89674431085587, -493.06841015815735, -275.25663673877716, -80.90151584148407
 1.705450832261878E9, -335.0950360298157, -511.25928354263306, -318.57963782548904, -97.4169140458107
 1.7054508322624645E9, -419.58685582876205, -508.62639397382736, -310.68096911907196, -202.25378960371017
 1.7054508322624645E9, -416.95396625995636, -496.8980677127838, -283.8733662366867, -125.18193131685257
 1.7054508322764976E9, -325.0421849489212, -500.96707886457443, -321.4518809914589, -66.54030001163483
 1.7054508322764976E9, -383.68381625413895, -507.4296259880066, -315.46804106235504, -185.73839139938354
 1.705450832291811E9, -432.2725964784622, -491.1535813808441, -269.03344321250916, -173.29200434684753
 1.705450832291811E9, -342.03629034757614, -492.58970296382904, -297.75587487220764, -61.753228068351746
 1.7054508322924125E9, -357.11556696891785, -516.5250626802444, -337.24921840429306, -148.63858383893967
 1.7054508322924125E9, -436.82031482458115, -489.7174597978592, -303.7397148013115, -196.50930327177048
 1.7054508323061152E9, -378.1786835193634, -489.47810620069504, -288.89979177713394, -77.78991907835007
 1.7054508323061152E9, -336.77051120996475, -514.8495875000954, -320.4944666028023, -105.79428994655609
 1.7054508323226657E9, -416.95396625995636, -502.1638468503952, -295.8410460948944, -204.64732557535172
 1.7054508323226657E9, -416.47525906562805, -488.5206918120384, -275.4959903359413, -122.54904174804688
 1.7054508323532481E9, -327.43572092056274, -505.03609001636505, -314.0319194793701, -61.9925816655159
 1.7054508323532481E9, -393.97602093219757, -520.5940738320351, -328.6324889063835, -186.69580578804016
 1.7054508323540626E9, -441.6073867678642, -496.8980677127838, -295.8410460948944, -170.41976118087769
 1.7054508323540626E9, -355.2007381916046, -503.1212612390518, -311.3990299105644, -61.9925816655159
 1.7054508323546493E9, -356.63685977458954, -518.2005378603935, -328.1537817120552, -138.82508635520935
 1.7054508323546493E9, -440.6499723792076, -492.3503493666649, -300.1494108438492, -198.18477845191956
 1.7054508323554525E9, -381.7689874768257, -487.5632774233818, -302.7823004126549, -83.29505181312561
 1.7054508323554525E9, -330.06861048936844, -509.583808362484, -331.50473207235336, -107.23041152954102
 1.7054508323664048E9, -415.99655187129974, -499.0522500872612, -304.45777559280396, -203.6899111866951
 1.7054508323664048E9, -404.2682256102562, -477.7497799396515, -285.5488414168358, -124.94257771968842
 1.705450832398515E9, -328.1537817120552, -503.360614836216, -315.2286874651909, -64.6254712343216
 1.705450832398515E9, -381.52963387966156, -508.62639397382736, -312.5957978963852, -181.66938024759293
 1.705450832398924E9, -443.04350835084915, -492.11099576950073, -285.5488414168358, -174.24941873550415
 1.705450832398924E9, -348.4988374710083, -494.2651781439781, -301.5855324268341, -60.556460082530975
 1.7054508323998177E9, -355.2007381916046, -516.5250626802444, -321.4518809914589, -147.4418158531189
 1.7054508323998177E9, -444.4796299338341, -502.6425540447235, -304.6971291899681, -207.2802151441574
 1.705450832400581E9, -387.0347666144371, -495.4619461297989, -298.71328926086426, -85.9279413819313
 1.705450832400581E9, -332.70150005817413, -514.3708803057671, -318.57963782548904, -97.17756044864655
 1.7054508324111633E9, -416.47525906562805, -503.8393220305443, -300.6281180381775, -204.1686183810234
 1.7054508324111633E9, -420.3049166202545, -485.6484486460686, -283.8733662366867, -121.11292016506195
 1.7054508324260993E9, -328.1537817120552, -501.44578605890274, -313.5532122850418, -67.7370679974556
 1.7054508324260993E9, -396.13020330667496, -517.2431234717369, -326.95701372623444, -188.6106345653534
 1.7054508324432824E9, -445.4370443224907, -504.07867562770844, -296.08039969205856, -174.72812592983246
 1.7054508324432824E9, -351.84978783130646, -504.3180292248726, -305.6545435786247, -70.13060396909714
 1.705450832443472E9, -359.74845653772354, -519.8760130405426, -321.21252739429474, -154.62242376804352
 1.705450832443472E9, -445.19769072532654, -501.44578605890274, -310.4416155219078, -213.74276226758957
 1.7054508324562116E9, -382.4870482683182, -489.47810620069504, -299.19199645519257, -89.99695253372192
 1.7054508324562116E9, -331.98343926668167, -514.1315267086029, -329.1111961007118, -106.75170433521271
 1.705450832471913E9, -417.43267345428467, -504.7967364192009, -301.82488602399826, -208.71633672714233
 1.705450832471913E9, -416.7146126627922, -495.9406533241272, -294.8836317062378, -134.51672160625458
 1.7054508324725657E9, -331.98343926668167, -509.583808362484, -319.53705221414566, -70.36995756626129
 1.7054508324725657E9, -387.27412021160126, -512.4560515284538, -316.42545545101166, -185.25968420505524
 1.7054508325191162E9, -432.7513036727905, -480.8613767027855, -293.9262173175812, -169.94105398654938
 1.7054508325191162E9, -350.41366624832153, -498.0948356986046, -293.2081565260887, -65.34353202581406
 1.7054508325196257E9, -353.52526301145554, -515.5676482915878, -315.46804106235504, -147.4418158531189
 1.7054508325196257E9, -434.9054860472679, -492.58970296382904, -293.44751012325287, -213.98211586475372
 1.705450832520445E9, -376.5032083392143, -488.0419846177101, -301.1068252325058, -91.91178131103516
 1.705450832520445E9, -334.8556824326515, -516.0463554859161, -328.1537817120552, -110.10265469551086
 1.7054508325211737E9, -416.2359054684639, -507.19027239084244, -296.55910688638687, -215.6575910449028
 1.7054508325211737E9, -411.68818712234497, -484.4516806602478, -282.1978910565376, -133.3199536204338
 1.705450832531862E9, -321.21252739429474, -498.0948356986046, -303.50036120414734, -73.72090792655945
 1.705450832531862E9, -384.16252344846725, -505.51479721069336, -310.20226192474365, -192.44029211997986
 1.7054508325325358E9, -429.1609997153282, -484.4516806602478, -288.6604381799698, -174.9674795269966
 1.7054508325325358E9, -345.3872407078743, -496.18000692129135, -299.6707036495209, -66.77965360879898
 1.7054508325464E9, -345.62659430503845, -509.583808362484, -317.6222234368324, -143.61215829849243
 1.7054508325464E9, -435.6235468387604, -494.7438853383064, -290.575266957283, -203.2112039923668
 1.7054508325621207E9, -377.46062272787094, -486.84521663188934, -297.0378140807152, -83.77375900745392
 1.7054508325621207E9, -331.50473207235336, -507.66897958517075, -320.73382019996643, -101.00721800327301
 1.7054508325625575E9, -407.8585295677185, -492.58970296382904, -294.64427810907364, -201.5357288122177
 1.7054508325625575E9, -398.5237392783165, -474.6381831765175, -283.15530544519424, -114.88972663879395
 1.7054508325762968E9, -315.46804106235504, -494.7438853383064, -306.8513115644455, -61.753228068351746
 1.7054508325762968E9, -373.6309651732445, -501.2064324617386, -318.8189914226532, -177.121661901474
 1.7054508326090777E9, -418.62944144010544, -469.8511112332344, -269.51215040683746, -158.21272772550583
 1.7054508326090777E9, -333.8982680439949, -482.05814468860626, -295.3623389005661, -49.54619461297989
 1.705450832609606E9, -338.2066327929497, -501.2064324617386, -307.56937235593796, -128.29352807998657
 1.705450832609606E9, -431.07582849264145, -488.99939900636673, -276.6927583217621, -196.50930327177048
 1.705450832610345E9, -371.4767827987671, -480.14331591129303, -289.1391453742981, -76.11444389820099
 1.705450832610345E9, -327.43572092056274, -501.44578605890274, -316.6648090481758, -96.93820685148239
 1.7054508326111405E9, -411.20947992801666, -494.7438853383064, -305.41518998146057, -194.11576730012894
 1.7054508326111405E9, -399.4811536669731, -472.24464720487595, -276.93211191892624, -109.62394750118256
 1.705450832637278E9, -369.56195402145386, -503.1212612390518, -312.83515149354935, -179.99390506744385
 1.705450832637278E9, -423.17715978622437, -480.3826695084572, -283.3946590423584, -163.95721405744553
 1.7054508326375868E9, -335.0950360298157, -486.36650943756104, -294.16557091474533, -60.556460082530975
 1.7054508326375868E9, -342.51499754190445, -505.7541508078575, -320.4944666028023, -141.45797592401505
 1.705450832651088E9, -427.96423172950745, -489.95681339502335, -296.55910688638687, -196.26994967460632
 1.705450832651088E9, -373.3916115760803, -484.69103425741196, -286.26690220832825, -82.57699102163315
 1.7054508326670604E9, -318.10093063116074, -501.44578605890274, -321.21252739429474, -100.0498036146164
 1.7054508326670604E9, -406.4224079847336, -493.54711735248566, -310.68096911907196, -199.38154643774033
 1.7054508326675916E9, -405.9437007904053, -480.62202310562134, -289.85720616579056, -119.19809138774872
 1.7054508326675916E9, -319.05834501981735, -499.5309572815895, -310.4416155219078, -61.753228068351746
 1.7054508326811004E9, -377.2212691307068, -510.30186915397644, -316.1861018538475, -176.88230830430984
 1.7054508326811004E9, -424.85263496637344, -479.9039623141289, -274.5385759472847, -161.56367808580399
 1.705450832696956E9, -335.573743224144, -486.84521663188934, -298.9526428580284, -54.81197375059128
 1.705450832696956E9, -342.99370473623276, -504.7967364192009, -318.3402842283249, -139.78250074386597
 1.7054508326975825E9, -434.9054860472679, -483.73361986875534, -281.240476667881, -193.87641370296478
 1.7054508326975825E9, -374.5883795619011, -478.94654792547226, -284.11271983385086, -74.67832231521606
 1.7054508327110784E9, -328.39313530921936, -503.5999684333801, -318.3402842283249, -92.86919569969177
 1.7054508327110784E9, -415.0391374826431, -507.4296259880066, -294.8836317062378, -197.4667176604271
 1.7054508327267897E9, -406.4224079847336, -482.2974982857704, -277.88952630758286, -118.2406769990921
 1.7054508327267897E9, -320.9731737971306, -499.77031087875366, -305.8938971757889, -66.06159281730652
 1.7054508327275038E9, -370.5193684101105, -495.70129972696304, -317.6222234368324, -180.47261226177216
 1.7054508327275038E9, -420.7836238145828, -476.7923655509949, -285.0701342225075, -160.84561729431152
 1.7054508327576337E9, -338.685339987278, -488.99939900636673, -290.575266957283, -60.31710648536682
 1.7054508327576337E9, -343.2330583333969, -506.71156519651413, -311.6383835077286, -140.50056153535843
 1.70545083275821E9, -426.28875654935837, -490.1961669921875, -293.2081565260887, -204.64732557535172
 1.70545083275821E9, -373.15225797891617, -486.36650943756104, -294.16557091474533, -81.38022303581238
 1.705450832759069E9, -330.7866712808609, -512.9347587227821, -320.9731737971306, -101.00721800327301
 1.705450832759069E9, -415.2784910798073, -506.2328580021858, -301.34617882966995, -207.51956874132156
 1.7054508327711225E9, -402.35339683294296, -476.0743047595024, -280.7617694735527, -120.8735665678978
 1.7054508327711225E9, -326.7176601290703, -500.4883716702461, -306.13325077295303, -64.38611763715744
 1.705450832786847E9, -379.6148051023483, -506.71156519651413, -312.35644429922104, -175.68554031848907
 1.705450832786847E9, -435.3841932415962, -488.7600454092026, -282.9159518480301, -161.56367808580399
 1.705450832787527E9, -352.32849502563477, -500.96707886457443, -301.34617882966995, -60.79581367969513
 1.705450832787527E9, -354.48267740011215, -518.918598651886, -323.6060633659363, -136.19219678640366
 1.7054508328015015E9, -436.82031482458115, -498.81289649009705, -308.7661403417587, -204.40797197818756
 1.7054508328015015E9, -381.7689874768257, -489.47810620069504, -284.8307806253433, -86.64600217342377
 1.7054508328173325E9, -327.91442811489105, -512.4560515284538, -307.3300187587738, -94.06596368551254
 1.7054508328173325E9, -411.68818712234497, -501.44578605890274, -293.686863720417, -203.2112039923668
 1.7054508328178067E9, -409.29465115070343, -481.3400838971138, -277.88952630758286, -116.08649462461472
 1.7054508328178067E9, -316.6648090481758, -492.3503493666649, -299.4313500523567, -55.290680944919586
 1.7054508328311336E9, -381.05092668533325, -503.360614836216, -313.79256588220596, -169.46234679222107
 1.7054508328311336E9, -431.55453568696976, -483.25491267442703, -297.0378140807152, -164.43592125177383
 1.70545083284687E9, -342.7543511390686, -488.7600454092026, -304.6971291899681, -57.92357051372528
 1.70545083284687E9, -348.4988374710083, -508.8657475709915, -317.8615770339966, -140.26120793819427
 1.705450832847484E9, -438.97449719905853, -489.47810620069504, -274.5385759472847, -198.18477845191956
 1.705450832847484E9, -376.7425619363785, -480.3826695084572, -273.3418079614639, -76.5931510925293
 1.7054508328612576E9, -326.4783065319061, -504.55738282203674, -316.42545545101166, -90.95436692237854
 1.7054508328612576E9, -410.73077273368835, -497.3767749071121, -296.798460483551, -191.2435241341591
 1.705450832876963E9, -409.0552975535393, -482.53685188293457, -277.88952630758286, -111.77812987565994
 1.705450832876963E9, -327.91442811489105, -495.70129972696304, -290.575266957283, -57.20550972223282
 1.7054508328775113E9, -388.470888197422, -512.2166979312897, -319.53705221414566, -175.92489391565323
 1.7054508328775113E9, -438.0170828104019, -492.11099576950073, -290.33591336011887, -167.30816441774368
 1.7054508329072216E9, -353.2859094142914, -499.5309572815895, -296.55910688638687, -61.03516727685928
 1.7054508329072216E9, -350.89237344264984, -512.9347587227821, -331.98343926668167, -139.30379354953766
 1.70545083290794E9, -436.82031482458115, -497.6161285042763, -309.4842011332512, -207.75892233848572
 1.70545083290794E9, -384.4018770456314, -492.58970296382904, -297.0378140807152, -86.88535577058792
 1.7054508329219184E9, -326.7176601290703, -508.62639397382736, -316.6648090481758, -95.98079246282578
 1.7054508329219184E9, -414.799783885479, -500.4883716702461, -314.7499802708626, -202.73249679803848
 1.705450832922486E9, -405.7043471932411, -482.2974982857704, -275.9746975302696, -124.70322412252426
 1.705450832922486E9, -322.64864897727966, -499.77031087875366, -317.1435162425041, -62.231935262680054
 1.7054508329373293E9, -381.2902802824974, -505.03609001636505, -310.9203227162361, -177.121661901474
 1.7054508329373293E9, -425.81004935503006, -477.98913353681564, -292.96880292892456, -158.9307885169983
 1.7054508329520795E9, -344.1904727220535, -491.39293497800827, -293.9262173175812, -58.162924110889435
 1.7054508329520795E9, -337.9672791957855, -498.0948356986046, -309.0054939389229, -136.67090398073196
 1.7054508329525025E9, -420.54427021741867, -483.9729734659195, -282.4372446537018, -196.26994967460632
 1.7054508329525025E9, -370.7587220072746, -477.031719148159, -287.463670194149, -76.5931510925293
 1.705450832967909E9, -326.4783065319061, -505.7541508078575, -321.21252739429474, -99.57109642028809
 1.705450832967909E9, -412.40624791383743, -497.3767749071121, -300.6281180381775, -201.5357288122177
 1.7054508329836488E9, -414.5604302883148, -487.0845702290535, -296.08039969205856, -128.77223527431488
 1.7054508329836488E9, -333.8982680439949, -508.62639397382736, -320.2551130056381, -73.00284713506699
 1.7054508329839752E9, -384.64123064279556, -511.9773443341255, -313.5532122850418, -184.78097701072693
 1.7054508329839752E9, -433.469364464283, -488.0419846177101, -287.22431659698486, -172.09523636102676
 1.7054508329846375E9, -347.30206948518753, -490.1961669921875, -298.23458206653595, -56.966156125068665
 1.7054508329846375E9, -360.466517329216, -516.7644162774086, -321.9305881857872, -144.56957268714905
 1.7054508329962304E9, -431.7938892841339, -489.95681339502335, -283.15530544519424, -197.9454248547554
 1.7054508329962304E9, -385.5986450314522, -492.11099576950073, -287.9423773884773, -84.25246620178223
 1.7054508330114245E9, -336.0524504184723, -515.807001888752, -320.4944666028023, -97.65626764297485
 1.7054508330114245E9, -416.7146126627922, -509.3444547653198, -300.38876444101334, -203.45055758953094
 1.7054508330271316E9, -410.25206553936005, -487.5632774233818, -291.2933277487755, -130.92641764879227
 1.7054508330271316E9, -340.36081516742706, -514.1315267086029, -310.20226192474365, -76.5931510925293
 1.7054508330274417E9, -390.6250705718994, -516.5250626802444, -325.28153854608536, -184.30226981639862
 1.7054508330274417E9, -434.9054860472679, -490.1961669921875, -296.3197532892227, -177.36101549863815
 1.7054508330410717E9, -357.354920566082, -505.51479721069336, -300.86747163534164, -74.67832231521606
 1.7054508330410717E9, -356.8762133717537, -514.1315267086029, -324.80283135175705, -149.83535182476044
 1.7054508330567777E9, -439.93191158771515, -501.44578605890274, -300.38876444101334, -203.92926478385925
 1.7054508330567777E9, -390.38571697473526, -496.8980677127838, -300.6281180381775, -93.58725649118423
 1.705450833057506E9, -341.55758315324783, -515.5676482915878, -335.573743224144, -107.70911872386932
 1.705450833057506E9, -419.10814863443375, -509.583808362484, -321.9305881857872, -206.8015079498291
 1.7054508330712264E9, -419.3475022315979, -494.2651781439781, -303.7397148013115, -138.82508635520935
 1.7054508330712264E9, -334.61632883548737, -508.14768677949905, -325.9995993375778, -75.63573670387268
 1.70545083308726E9, -389.6676561832428, -514.1315267086029, -324.32412415742874, -183.344855427742
 1.70545083308726E9, -428.92164611816406, -483.4942662715912, -290.575266957283, -171.61652916669846
 1.7054508330876002E9, -350.6530198454857, -493.7864709496498, -292.96880292892456, -67.97642159461975
 1.7054508330876002E9, -343.9511191248894, -505.03609001636505, -316.90416264533997, -139.78250074386597
 1.705450833101107E9, -434.9054860472679, -497.13742130994797, -314.5106266736984, -197.70607125759125
 1.705450833101107E9, -378.89674431085587, -481.10073029994965, -287.22431659698486, -83.29505181312561
 1.7054508331175714E9, -332.70150005817413, -510.0625155568123, -314.5106266736984, -98.13497483730316
 1.7054508331175714E9, -410.9701263308525, -501.2064324617386, -302.0642396211624, -200.81766802072525
 1.705450833118297E9, -414.32107669115067, -490.43552058935165, -282.9159518480301, -127.57546728849411
 1.705450833118297E9, -335.573743224144, -502.6425540447235, -316.42545545101166, -71.80607914924622
 1.7054508331310897E9, -384.8805842399597, -508.14768677949905, -319.2976986169815, -176.88230830430984
 1.7054508331310897E9, -432.7513036727905, -488.28133821487427, -298.4739356637001, -164.91462844610214
 1.7054508331470616E9, -347.5414230823517, -487.5632774233818, -303.02165400981903, -62.949996054172516
 1.7054508331470616E9, -354.48267740011215, -511.0199299454689, -304.6971291899681, -140.50056153535843
 1.705450833147643E9, -435.6235468387604, -497.3767749071121, -288.89979177713394, -202.73249679803848
 1.705450833147643E9, -388.2315346002579, -482.05814468860626, -293.2081565260887, -85.20988059043884
 1.705450833161075E9, -346.3446550965309, -517.9611842632294, -317.8615770339966, -101.96463239192963
 1.705450833161075E9, -418.15073424577713, -508.8657475709915, -309.0054939389229, -205.84409356117249
 1.7054508331774647E9, -414.32107669115067, -487.5632774233818, -284.352073431015, -127.0967600941658
 1.7054508331774647E9, -334.61632883548737, -498.81289649009705, -310.68096911907196, -67.49771440029144
 1.7054508331775348E9, -376.26385474205017, -500.4883716702461, -309.4842011332512, -170.18040758371353
 1.7054508331775348E9, -425.33134216070175, -478.94654792547226, -287.22431659698486, -165.39333564043045
 1.7054508331910644E9, -353.2859094142914, -495.70129972696304, -289.37849897146225, -64.14676403999329
 1.7054508331910644E9, -347.5414230823517, -499.29160368442535, -320.4944666028023, -134.99542880058289
 1.705450833206823E9, -429.8790605068207, -488.5206918120384, -286.26690220832825, -195.3125352859497
 1.705450833206823E9, -381.2902802824974, -482.53685188293457, -298.4739356637001, -85.9279413819313
 1.705450833207507E9, -339.40340077877045, -511.9773443341255, -312.5957978963852, -102.20398598909378
 1.705450833207507E9, -410.9701263308525, -501.6851396560669, -304.2184219956398, -199.14219284057617
 1.705450833221062E9, -414.5604302883148, -482.53685188293457, -290.33591336011887, -126.6180528998375
 1.705450833221062E9, -340.6001687645912, -508.62639397382736, -327.43572092056274, -76.35379749536514
 1.705450833236899E9, -381.05092668533325, -507.4296259880066, -325.28153854608536, -179.03649067878723
 1.705450833236899E9, -427.96423172950745, -484.4516806602478, -289.6178525686264, -167.786871612072
 1.705450833237536E9, -353.52526301145554, -495.70129972696304, -300.1494108438492, -77.0718582868576
 1.705450833237536E9, -358.7910421490669, -523.9450241923332, -321.4518809914589, -146.48440146446228
 1.7054508332516727E9, -439.692557990551, -501.44578605890274, -287.70302379131317, -201.0570216178894
 1.7054508332516727E9, -386.31670582294464, -492.8290565609932, -286.5062558054924, -85.20988059043884
 1.705450833267246E9, -334.13762164115906, -506.9509187936783, -315.2286874651909, -98.85303562879562
 1.705450833267246E9, -416.47525906562805, -506.47221159935, -298.4739356637001, -201.77508240938187
 1.705450833281836E9, -419.58685582876205, -491.1535813808441, -280.04370868206024, -134.51672160625458
 1.705450833281836E9, -336.5311576128006, -504.55738282203674, -308.7661403417587, -74.67832231521606
 1.70545083328251E9, -385.11993783712387, -511.25928354263306, -313.5532122850418, -179.99390506744385
 1.70545083328251E9, -431.55453568696976, -491.6322885751724, -285.78819501399994, -167.30816441774368
 1.7054508332972136E9, -352.32849502563477, -501.44578605890274, -310.4416155219078, -70.13060396909714
 1.7054508332972136E9, -359.0303957462311, -522.5089026093483, -329.58990329504013, -146.24504786729813
 1.7054508332977436E9, -433.23001086711884, -501.92449325323105, -302.7823004126549, -203.6899111866951
 1.7054508332977436E9, -382.247694671154, -490.1961669921875, -292.01138854026794, -90.47565972805023
 1.7054508333112211E9, -332.9408536553383, -507.4296259880066, -325.5208921432495, -102.20398598909378
 1.7054508333112211E9, -408.57659035921097, -501.6851396560669, -299.4313500523567, -196.03059607744217
 1.705450833326827E9, -409.29465115070343, -484.21232706308365, -293.44751012325287, -125.66063851118088
 1.705450833326827E9, -330.3079640865326, -502.88190764188766, -319.05834501981735, -68.2157751917839
 1.7054508333275113E9, -374.5883795619011, -507.4296259880066, -320.73382019996643, -176.40360110998154
 1.7054508333275113E9, -418.15073424577713, -480.14331591129303, -276.93211191892624, -165.1539820432663
 1.7054508333412247E9, -341.3182295560837, -485.6484486460686, -288.42108458280563, -61.9925816655159
 1.7054508333412247E9, -336.77051120996475, -506.9509187936783, -310.68096911907196, -137.38896477222443
 1.7054508333570936E9, -414.5604302883148, -487.80263102054596, -303.50036120414734, -196.26994967460632
 1.7054508333570936E9, -363.33876049518585, -477.031719148159, -295.60169249773026, -91.1937205195427
 1.7054508333577504E9, -330.54731768369675, -511.4986371397972, -314.98933386802673, -101.00721800327301
 1.7054508333577504E9, -399.24180006980896, -506.2328580021858, -301.34617882966995, -193.15835291147232
 1.7054508333874876E9, -397.3269712924957, -475.1168903708458, -279.3256478905678, -122.07033455371857
 1.7054508333874876E9, -327.6750745177269, -491.6322885751724, -299.4313500523567, -62.71064245700836
 1.7054508333881848E9, -372.4341971874237, -502.1638468503952, -304.93648278713226, -175.20683312416077
 1.7054508333881848E9, -421.26233100891113, -482.7762054800987, -275.25663673877716, -166.1113964319229
 1.7054508333889136E9, -354.00397020578384, -495.70129972696304, -308.2874331474304, -71.80607914924622
 1.7054508333889136E9, -354.96138459444046, -516.7644162774086, -331.50473207235336, -146.9631086587906
 1.7054508334012568E9, -432.5119500756264, -501.44578605890274, -303.2610076069832, -202.97185039520264
 1.7054508334012568E9, -382.72640186548233, -487.0845702290535, -291.53268134593964, -88.08212375640869
 1.7054508334173262E9, -342.7543511390686, -512.2166979312897, -317.8615770339966, -107.23041152954102
 1.7054508334173262E9, -411.9275407195091, -506.47221159935, -322.64864897727966, -208.71633672714233
 1.7054508334177496E9, -411.4488335251808, -488.28133821487427, -303.97906839847565, -127.81482088565826
 1.7054508334177496E9, -325.76024574041367, -501.2064324617386, -322.64864897727966, -75.63573670387268
 1.7054508334311717E9, -370.9980756044388, -505.03609001636505, -316.42545545101166, -174.24941873550415
