 Timestamp, EXG Channel 0, EXG Channel 1, EXG Channel 2, EXG Channel 3
 1.7054298525079997E9, 9.813497483730316, -78.74733346700668, -87.12470936775208, 452.85700583457947
 1.7054298525079997E9, -94.784024477005, -234.80587881803513, -190.04675614833832, 340.83952236175537
 1.7054298525226667E9, -66.77965360879898, -156.05854535102844, -128.77223527431488, 382.247694671154
 1.7054298525226667E9, 29.919199645519257, -33.27015000581741, -58.8809849023819, 471.28723281621933
 1.7054298525371296E9, -64.86482483148575, -195.07318168878555, -160.36691009998322, 372.4341971874237
 1.7054298525371296E9, -118.2406769990921, -226.90721011161804, -192.679645717144, 323.12735617160797
 1.705429852537851E9, 15.31863021850586, -55.290680944919586, -63.90741044282913, 445.915751516819
 1.705429852537851E9, -7.65931510925293, -126.37869930267334, -112.97489786148071, 414.5604302883148
 1.7054298525519152E9, -93.34790289402008, -224.0349669456482, -191.00417053699493, 315.46804106235504
 1.7054298525519152E9, -16.276044607162476, -86.64600217342377, -87.84277015924454, 413.84236949682236
 1.7054298525671995E9, 22.49923813343048, -68.2157751917839, -76.83250468969345, 459.5589065551758
 1.7054298525671995E9, -96.93820685148239, -236.0026468038559, -195.55188888311386, 338.92469358444214
 1.7054298525678587E9, -71.32737195491791, -159.64884930849075, -139.0644399523735, 359.74845653772354
 1.7054298525678587E9, 27.525663673877716, -50.98231619596481, -73.24220073223114, 446.15510511398315
 1.7054298525817137E9, -67.25836080312729, -207.75892233848572, -182.62679463624954, 333.8982680439949
 1.7054298525817137E9, -105.79428994655609, -221.16272377967834, -178.31842988729477, 323.12735617160797
 1.7054298525972714E9, 16.51539820432663, -56.2480953335762, -55.290680944919586, 468.4149896502495
 1.7054298525972714E9, -24.89277410507202, -141.93668311834335, -128.29352807998657, 404.50757920742035
 1.7054298525980213E9, -112.97489786148071, -238.87488996982574, -193.15835291147232, 319.2976986169815
 1.7054298525980213E9, -12.44638705253601, -83.05569821596146, -89.03953814506531, 421.9803918004036
 1.705429852627849E9, 22.259884536266327, -74.91767591238022, -82.57699102163315, 444.4796299338341
 1.705429852627849E9, -101.96463239192963, -247.4916194677353, -200.0996072292328, 313.5532122850418
 1.7054298526285694E9, -54.572620153427124, -143.13345110416412, -128.29352807998657, 380.57221949100494
 1.7054298526285694E9, 37.81786835193634, -43.80170828104019, -55.05132734775543, 476.31365835666656
 1.7054298526294916E9, -64.6254712343216, -200.0996072292328, -173.29200434684753, 357.8336277604103
 1.7054298526294916E9, -97.89562124013901, -209.67375111579895, -179.27584427595139, 324.80283135175705
 1.7054298526584415E9, 12.44638705253601, -59.359692096710205, -65.1041784286499, 447.5912266969681
 1.7054298526584415E9, -15.557983815670013, -137.62831836938858, -132.60189282894135, 398.5237392783165
 1.7054298526588104E9, -104.59752196073532, -236.4813539981842, -201.0570216178894, 301.5855324268341
 1.7054298526588104E9, -19.38764137029648, -89.27889174222946, -83.77375900745392, 432.5119500756264
 1.705429852659335E9, 7.65931510925293, -82.8163446187973, -84.01311260461807, 449.5060554742813
 1.705429852659335E9, -99.09238922595978, -233.13040363788605, -202.97185039520264, 318.57963782548904
 1.705429852671495E9, -58.40227770805359, -151.51082700490952, -131.16577124595642, 379.13609790802
 1.705429852671495E9, 38.77528274059296, -42.12623310089111, -58.162924110889435, 458.362138569355
 1.7054298526871767E9, -52.65779137611389, -191.96158492565155, -166.59010362625122, 359.26974934339523
 1.7054298526871767E9, -88.32147735357285, -202.25378960371017, -163.71786046028137, 342.7543511390686
 1.7054298526878407E9, 24.89277410507202, -40.21140432357788, -53.375852167606354, 456.9260169863701
 1.7054298526878407E9, -12.207033455371857, -135.71348959207535, -119.67679858207703, 400.91727524995804
 1.7054298527015395E9, -106.03364354372025, -234.32717162370682, -190.52546334266663, 322.8880025744438
 1.7054298527015395E9, -1.4361215829849243, -77.0718582868576, -72.28478634357452, 439.692557990551
 1.7054298527171843E9, 27.76501727104187, -72.04543274641037, -75.15702950954437, 456.2079561948776
 1.7054298527171843E9, -90.47565972805023, -226.90721011161804, -200.33896082639694, 321.21252739429474
 1.7054298527180552E9, -56.966156125068665, -145.2876334786415, -125.66063851118088, 381.2902802824974
 1.7054298527180552E9, 33.74885720014572, -42.36558669805527, -51.46102339029312, 472.24464720487595
 1.7054298527314737E9, -57.20550972223282, -194.11576730012894, -162.76044607162476, 362.86005330085754
 1.7054298527314737E9, -90.71501332521439, -206.8015079498291, -160.60626369714737, 336.5311576128006
 1.7054298527470696E9, 25.610834896564484, -43.80170828104019, -61.753228068351746, 439.2138507962227
 1.7054298527470696E9, -1.6754751801490784, -129.01158887147903, -128.05417448282242, 394.69408172369003
 1.7054298527789063E9, -107.23041152954102, -245.3374370932579, -199.86025363206863, 319.53705221414566
 1.7054298527789063E9, -10.531558275222778, -87.36406296491623, -94.06596368551254, 414.5604302883148
 1.7054298527793033E9, 12.207033455371857, -84.01311260461807, -85.449234187603, 443.7615691423416
 1.7054298527793033E9, -100.28915721178055, -248.4490338563919, -204.1686183810234, 310.4416155219078
 1.7054298527800188E9, -64.86482483148575, -166.35075002908707, -143.85151189565659, 348.73819106817245
 1.7054298527800188E9, 27.046956479549408, -54.572620153427124, -68.2157751917839, 453.57506662607193
 1.705429852780764E9, -58.64163130521774, -196.98801046609879, -168.2655788064003, 364.5355284810066
 1.705429852780764E9, -91.91178131103516, -205.84409356117249, -173.77071154117584, 337.0098648071289
 1.705429852791702E9, 17.472812592983246, -55.53003454208374, -63.90741044282913, 454.2931274175644
 1.705429852791702E9, -24.17471331357956, -146.00569427013397, -129.2509424686432, 398.0450320839882
 1.7054298528073244E9, -113.45360505580902, -252.51804500818253, -201.29637521505356, 313.79256588220596
 1.7054298528073244E9, -26.5682492852211, -101.96463239192963, -98.13497483730316, 403.7895184159279
 1.7054298528080263E9, 24.89277410507202, -88.32147735357285, -92.15113490819931, 430.59712129831314
 1.7054298528080263E9, -85.449234187603, -233.13040363788605, -208.71633672714233, 308.7661403417587
 1.705429852821478E9, -58.8809849023819, -154.62242376804352, -129.2509424686432, 362.86005330085754
 1.705429852821478E9, 29.679846048355103, -51.22166979312897, -57.20550972223282, 462.6705033183098
 1.7054298528371313E9, -63.66805684566498, -207.99827593564987, -174.9674795269966, 354.243323802948
 1.7054298528371313E9, -100.0498036146164, -215.41823744773865, -186.21709859371185, 314.27127307653427
 1.705429852837822E9, 10.770911872386932, -63.18934965133667, -67.49771440029144, 445.67639791965485
 1.705429852837822E9, -18.90893417596817, -138.82508635520935, -131.16577124595642, 401.87468963861465
 1.7054298528514574E9, -105.79428994655609, -241.50777953863144, -202.01443600654602, 312.83515149354935
 1.7054298528514574E9, -14.121862232685089, -94.54467087984085, -96.45949965715408, 408.8159439563751
 1.7054298528671165E9, 19.148287773132324, -80.18345504999161, -84.97052699327469, 433.9480716586113
 1.7054298528671165E9, -97.89562124013901, -241.02907234430313, -195.07318168878555, 324.0847705602646
 1.7054298528678114E9, -54.093912959098816, -141.6973295211792, -128.53288167715073, 367.40777164697647
 1.7054298528678114E9, 39.97205072641373, -48.82813382148743, -51.46102339029312, 461.9524425268173
 1.7054298528814485E9, -52.41843777894974, -194.11576730012894, -165.1539820432663, 352.32849502563477
 1.7054298528814485E9, -77.78991907835007, -193.63706010580063, -169.46234679222107, 332.70150005817413
 1.705429852912858E9, 22.97794532775879, -44.2804154753685, -60.07775288820267, 448.78799468278885
 1.705429852912858E9, -22.259884536266327, -144.09086549282074, -131.40512484312057, 396.60891050100327
 1.7054298529135737E9, -112.73554426431656, -247.25226587057114, -202.01443600654602, 300.6281180381775
 1.7054298529135737E9, -18.430226981639862, -92.15113490819931, -85.9279413819313, 428.2035853266716
 1.705429852914294E9, 14.121862232685089, -87.84277015924454, -96.22014605998993, 440.41061878204346
 1.705429852914294E9, -84.49181979894638, -234.80587881803513, -195.79124248027802, 324.5634777545929
 1.7054298529271803E9, -52.65779137611389, -147.4418158531189, -125.89999210834503, 375.0670867562294
 1.7054298529271803E9, 40.69011151790619, -38.5359291434288, -60.79581367969513, 457.4047241806984
 1.7054298529278712E9, -57.20550972223282, -193.39770650863647, -166.1113964319229, 349.69560545682907
 1.7054298529278712E9, -86.40664857625961, -202.97185039520264, -166.1113964319229, 338.685339987278
 1.705429852941704E9, 32.07338201999664, -41.647525906562805, -44.99847626686096, 460.5163209438324
 1.705429852941704E9, -12.925094246864319, -133.55930721759796, -124.22451692819595, 393.97602093219757
 1.705429852957173E9, -101.48592519760132, -237.19941478967667, -189.56804895401, 319.2976986169815
 1.705429852957173E9, -13.403801441192627, -92.62984210252762, -79.22604066133499, 424.85263496637344
 1.7054298529579303E9, 18.90893417596817, -79.46539425849915, -82.8163446187973, 439.2138507962227
 1.7054298529579303E9, -97.17756044864655, -243.42260831594467, -200.33896082639694, 319.2976986169815
 1.7054298529721065E9, -79.22604066133499, -175.44618672132492, -144.56957268714905, 356.63685977458954
 1.7054298529721065E9, 48.110073029994965, -39.49334353208542, -61.753228068351746, 454.2931274175644
 1.705429852987245E9, -50.0249018073082, -193.15835291147232, -160.12755650281906, 354.96138459444046
 1.705429852987245E9, -75.87509030103683, -203.2112039923668, -165.1539820432663, 323.3667097687721
 1.705429852987998E9, 30.397906839847565, -41.647525906562805, -52.41843777894974, 459.79826015233994
 1.705429852987998E9, -11.24961906671524, -139.30379354953766, -122.78839534521103, 398.28438568115234
 1.7054298530018733E9, -108.42717951536179, -242.2258403301239, -203.6899111866951, 306.61195796728134
 1.7054298530018733E9, -13.643155038356781, -90.71501332521439, -90.23630613088608, 410.4914191365242
 1.7054298530173059E9, 20.58440935611725, -83.29505181312561, -85.9279413819313, 433.9480716586113
 1.7054298530173059E9, -89.03953814506531, -237.67812198400497, -203.2112039923668, 309.9629083275795
 1.7054298530179348E9, -54.33326655626297, -159.4094957113266, -147.4418158531189, 342.99370473623276
 1.7054298530179348E9, 25.610834896564484, -56.487448930740356, -77.31121188402176, 427.7248781323433
 1.705429853031479E9, -59.83839929103851, -199.38154643774033, -178.79713708162308, 346.58400869369507
 1.705429853031479E9, -91.1937205195427, -210.3918119072914, -179.7545514702797, 316.1861018538475
 1.7054298530473318E9, 26.5682492852211, -46.19524425268173, -58.8809849023819, 437.77772921323776
 1.7054298530473318E9, -11.967679858207703, -144.09086549282074, -135.4741359949112, 383.9231698513031
 1.705429853047874E9, -103.87946116924286, -240.07165795564651, -209.67375111579895, 285.30948781967163
 1.705429853047874E9, -3.3509503602981567, -83.29505181312561, -101.48592519760132, 406.4224079847336
 1.705429853061462E9, 22.020530939102173, -85.68858778476715, -93.58725649118423, 429.1609997153282
 1.705429853061462E9, -84.25246620178223, -238.39618277549744, -205.60473996400833, 303.97906839847565
 1.705429853077426E9, -46.67395144701004, -142.89409750699997, -131.16577124595642, 369.08324682712555
 1.705429853077426E9, 46.434597849845886, -44.041061878204346, -68.69448238611221, 452.138945043087
 1.7054298530780933E9, -46.434597849845886, -198.18477845191956, -176.40360110998154, 343.9511191248894
 1.7054298530780933E9, -79.22604066133499, -194.59447449445724, -175.92489391565323, 317.1435162425041
 1.7054298530914724E9, 37.33916115760803, -41.88687950372696, -67.7370679974556, 422.69845259189606
 1.7054298530914724E9, -18.669580578804016, -149.11729103326797, -131.88383203744888, 391.1037777662277
 1.7054298531071136E9, -100.0498036146164, -235.76329320669174, -192.679645717144, 310.4416155219078
 1.7054298531071136E9, -14.839923024177551, -100.0498036146164, -99.09238922595978, 402.35339683294296
 1.7054298531078484E9, 21.78117734193802, -85.68858778476715, -95.98079246282578, 426.28875654935837
 1.7054298531078484E9, -90.71501332521439, -240.55036514997482, -210.87051910161972, 304.93648278713226
 1.705429853121558E9, -62.231935262680054, -155.57983815670013, -132.3625392317772, 359.0303957462311
 1.705429853121558E9, 25.850188493728638, -62.949996054172516, -76.35379749536514, 438.4957900047302
 1.7054298531371553E9, -60.31710648536682, -218.05112701654434, -207.51956874132156, 304.93648278713226
 1.7054298531371553E9, -65.1041784286499, -189.56804895401, -180.47261226177216, 309.0054939389229
 1.7054298531378565E9, 59.83839929103851, -17.233458995819092, -43.56235468387604, 450.2241162657738
 1.7054298531378565E9, 18.90893417596817, -111.53877627849579, -120.8735665678978, 393.49731373786926
 1.7054298531514416E9, -61.753228068351746, -214.93953025341034, -192.91899931430817, 295.12298530340195
 1.7054298531514416E9, 43.32300108671188, -54.81197375059128, -70.13060396909714, 405.2256399989128
 1.705429853167162E9, 80.42280864715576, -48.110073029994965, -71.32737195491791, 428.44293892383575
 1.705429853167162E9, -33.74885720014572, -199.86025363206863, -190.76481693983078, 298.4739356637001
 1.7054298531678631E9, 18.190873384475708, -97.4169140458107, -105.31558275222778, 364.0568212866783
 1.7054298531678631E9, 111.06006908416748, 0.9574143886566162, -42.36558669805527, 443.2828619480133
 1.705429853181441E9, 21.30247014760971, -145.04827988147736, -146.72375506162643, 329.350549697876
 1.705429853181441E9, -20.345055758953094, -160.60626369714737, -154.38307017087936, 309.0054939389229
 1.705429853197109E9, 89.03953814506531, -14.121862232685089, -33.03079640865326, 440.1712651848793
 1.705429853197109E9, 45.237829864025116, -108.9058867096901, -116.80455541610718, 368.8438932299614
 1.7054298531978483E9, -52.41843777894974, -213.98211586475372, -193.87641370296478, 285.5488414168358
 1.7054298531978483E9, 38.057221949100494, -54.33326655626297, -75.39638310670853, 403.3108112215996
 1.705429853211604E9, 71.08801835775375, -55.53003454208374, -82.57699102163315, 418.3900878429413
 1.705429853211604E9, -51.93973058462143, -223.79561334848404, -194.8338280916214, 297.0378140807152
 1.7054298532271473E9, -9.095436692237854, -125.18193131685257, -125.42128491401672, 348.9775446653366
 1.7054298532271473E9, 80.66216224431992, -23.456652522087097, -62.71064245700836, 436.82031482458115
 1.705429853227846E9, -23.456652522087097, -189.56804895401, -175.20683312416077, 327.91442811489105
 1.705429853227846E9, -44.2804154753685, -181.43002665042877, -160.60626369714737, 314.7499802708626
 1.7054298532417405E9, 65.34353202581406, -29.201138854026794, -60.31710648536682, 422.4590989947319
 1.7054298532417405E9, 23.935359716415405, -124.70322412252426, -127.57546728849411, 375.5457939505577
 1.7054298532572072E9, -70.60931116342545, -222.83819895982742, -200.81766802072525, 287.9423773884773
 1.7054298532572072E9, 18.190873384475708, -73.72090792655945, -88.560830950737, 390.86442416906357
 1.7054298532578373E9, 57.92357051372528, -66.54030001163483, -86.64600217342377, 418.8687950372696
 1.7054298532578373E9, -63.66805684566498, -232.8910500407219, -203.2112039923668, 296.55910688638687
 1.7054298532878916E9, -22.97794532775879, -135.4741359949112, -128.77223527431488, 345.14788711071014
 1.7054298532878916E9, 67.7370679974556, -36.860453963279724, -61.51387447118759, 435.86290043592453
 1.7054298532885773E9, -33.27015000581741, -193.87641370296478, -173.29200434684753, 326.4783065319061
 1.7054298532885773E9, -59.12033849954605, -191.2435241341591, -170.41976118087769, 310.4416155219078
 1.7054298532893283E9, 53.85455936193466, -40.450757920742035, -60.79581367969513, 419.10814863443375
 1.7054298532893283E9, 11.967679858207703, -134.75607520341873, -140.02185434103012, 366.689710855484
 1.7054298533179705E9, -83.29505181312561, -237.43876838684082, -195.55188888311386, 295.8410460948944
 1.7054298533179705E9, 15.31863021850586, -75.39638310670853, -84.73117339611053, 402.83210402727127
 1.705429853318635E9, 45.237829864025116, -74.91767591238022, -93.82661008834839, 419.8262094259262
 1.705429853318635E9, -63.90741044282913, -228.34333169460297, -200.5783144235611, 299.910057246685
 1.7054298533196592E9, -33.74885720014572, -149.11729103326797, -150.79276621341705, 326.238952934742
 1.7054298533196592E9, 50.0249018073082, -56.00874173641205, -64.14676403999329, 436.34160763025284
 1.7054298533315032E9, -42.12623310089111, -203.45055758953094, -180.95131945610046, 336.0524504184723
 1.7054298533315032E9, -70.13060396909714, -193.39770650863647, -177.83972269296646, 312.5957978963852
 1.705429853347236E9, 47.63136583566666, -41.88687950372696, -58.64163130521774, 437.29902201890945
 1.705429853347236E9, 3.829657554626465, -136.67090398073196, -139.30379354953766, 377.6999763250351
 1.7054298533478875E9, -78.02927267551422, -226.6678565144539, -199.14219284057617, 289.6178525686264
 1.7054298533478875E9, 36.14239317178726, -66.54030001163483, -51.46102339029312, 395.17278891801834
 1.7054298533617043E9, 42.36558669805527, -75.15702950954437, -92.15113490819931, 415.2784910798073
 1.7054298533617043E9, -73.9602615237236, -241.02907234430313, -210.15245831012726, 295.3623389005661
 1.7054298533771696E9, -39.01463633775711, -156.2978989481926, -127.57546728849411, 359.26974934339523
 1.7054298533771696E9, 53.85455936193466, -44.75912266969681, -63.66805684566498, 446.3944587111473
 1.7054298533779573E9, -39.01463633775711, -199.38154643774033, -196.50930327177048, 315.94674825668335
 1.7054298533779573E9, -61.51387447118759, -191.2435241341591, -175.20683312416077, 311.3990299105644
 1.7054298533916411E9, 45.95589065551758, -37.81786835193634, -50.503609001636505, 451.89959144592285
 1.7054298533916411E9, -10.05285108089447, -147.68116945028305, -141.45797592401505, 369.801307618618
 1.7054298534071376E9, -97.4169140458107, -237.67812198400497, -216.37565183639526, 277.1714655160904
 1.7054298534071376E9, -1.6754751801490784, -92.15113490819931, -106.51235073804855, 380.8115730881691
 1.7054298534078937E9, 25.850188493728638, -97.89562124013901, -111.29942268133163, 380.8115730881691
 1.7054298534078937E9, -87.60341656208038, -247.4916194677353, -216.85435903072357, 292.49009573459625
 1.7054298534214823E9, -37.09980756044388, -147.68116945028305, -134.03801441192627, 358.3123349547386
 1.7054298534214823E9, 63.18934965133667, -36.860453963279724, -63.90741044282913, 450.2241162657738
 1.7054298534376633E9, -33.50950360298157, -183.10550183057785, -171.3771755695343, 340.36081516742706
 1.7054298534376633E9, -65.34353202581406, -193.15835291147232, -171.8558827638626, 313.0745050907135
 1.7054298534381135E9, 46.67395144701004, -46.67395144701004, -67.25836080312729, 423.8952205777168
 1.7054298534381135E9, -4.787071943283081, -142.89409750699997, -144.09086549282074, 351.37108063697815
 1.7054298534678419E9, -78.02927267551422, -232.65169644355774, -201.0570216178894, 290.0965597629547
 1.7054298534678419E9, 9.813497483730316, -79.7047478556633, -75.87509030103683, 419.58685582876205
 1.7054298534685657E9, 37.09980756044388, -80.66216224431992, -93.10854929685593, 422.4590989947319
 1.7054298534685657E9, -72.76349353790283, -229.54009968042374, -202.01443600654602, 292.49009573459625
 1.705429853469336E9, -30.876614034175873, -133.08060002326965, -139.5431471467018, 339.40340077877045
 1.705429853469336E9, 52.897144973278046, -49.54619461297989, -66.06159281730652, 455.48989540338516
 1.7054298534818883E9, -42.844293892383575, -202.25378960371017, -173.05265074968338, 345.8659479022026
 1.7054298534818883E9, -68.69448238611221, -200.0996072292328, -174.4887723326683, 320.73382019996643
 1.7054298534964292E9, 39.01463633775711, -45.237829864025116, -61.51387447118759, 437.29902201890945
 1.7054298534964292E9, -1.9148287773132324, -140.02185434103012, -133.55930721759796, 383.68381625413895
 1.7054298535121396E9, 7.65931510925293, -75.15702950954437, -87.60341656208038, 406.4224079847336
 1.7054298535121396E9, 40.69011151790619, -69.41254317760468, -100.76786440610886, 413.1243087053299
 1.705429853512849E9, -74.43896871805191, -239.1142435669899, -207.04086154699326, 294.16557091474533
 1.705429853512849E9, -34.22756439447403, -134.51672160625458, -126.13934570550919, 367.1684180498123
 1.7054298535264409E9, 51.93973058462143, -31.83402842283249, -59.12033849954605, 448.30928748846054
 1.7054298535264409E9, -51.93973058462143, -205.12603276968002, -177.83972269296646, 330.7866712808609
 1.7054298535421948E9, -80.66216224431992, -201.77508240938187, -180.7119658589363, 309.72355473041534
 1.7054298535421948E9, 33.50950360298157, -47.87071943283081, -64.6254712343216, 430.357767701149
 1.7054298535429027E9, -2.6328895688056946, -138.5857327580452, -135.9528431892395, 376.26385474205017
 1.7054298535429027E9, -80.90151584148407, -224.5136741399765, -190.28610974550247, 301.5855324268341
 1.7054298535728595E9, 17.7121661901474, -61.03516727685928, -73.72090792655945, 424.134574174881
 1.7054298535728595E9, 33.74885720014572, -76.35379749536514, -95.02337807416916, 427.48552453517914
 1.7054298535735917E9, -72.76349353790283, -235.5239396095276, -194.11576730012894, 313.0745050907135
 1.7054298535735917E9, -27.76501727104187, -130.44771045446396, -114.17166584730148, 383.20510905981064
 1.705429853574314E9, 61.9925816655159, -25.850188493728638, -47.15265864133835, 465.54274648427963
 1.705429853574314E9, -37.81786835193634, -187.41386657953262, -172.57394355535507, 332.46214646101
 1.7054298535867567E9, -74.91767591238022, -190.52546334266663, -168.7442860007286, 323.84541696310043
 1.7054298535867567E9, 40.92946511507034, -36.14239317178726, -63.66805684566498, 400.1992144584656
 1.7054298536024635E9, -5.026425540447235, -148.63858383893967, -130.92641764879227, 405.7043471932411
 1.7054298536024635E9, -87.60341656208038, -231.45492845773697, -192.44029211997986, 319.53705221414566
 1.705429853603057E9, 1.9148287773132324, -80.18345504999161, -83.77375900745392, 417.911380648613
 1.705429853603057E9, 44.519769072532654, -69.41254317760468, -87.60341656208038, 429.8790605068207
 1.705429853616545E9, -79.22604066133499, -238.39618277549744, -201.29637521505356, 302.30359321832657
 1.705429853616545E9, -37.09980756044388, -132.12318563461304, -125.66063851118088, 366.689710855484
 1.705429853632207E9, 47.3920122385025, -50.74296259880066, -67.97642159461975, 438.0170828104019
 1.705429853632207E9, -44.75912266969681, -191.00417053699493, -173.5313579440117, 348.4988374710083
 1.7054298536328757E9, -63.90741044282913, -185.25968420505524, -169.46234679222107, 334.8556824326515
 1.7054298536328757E9, 39.97205072641373, -42.60494029521942, -53.85455936193466, 454.2931274175644
 1.7054298536465476E9, -8.138022303581238, -139.5431471467018, -129.01158887147903, 387.75282740592957
 1.7054298536465476E9, -91.43307411670685, -233.13040363788605, -202.49314320087433, 284.59142702817917
 1.7054298536622148E9, 4.787071943283081, -80.66216224431992, -89.27889174222946, 395.4121425151825
 1.7054298536622148E9, 25.37148129940033, -93.10854929685593, -84.73117339611053, 439.692557990551
 1.70542985366297E9, -72.52413994073868, -223.79561334848404, -192.44029211997986, 322.8880025744438
 1.70542985366297E9, -29.44049245119095, -127.33611369132996, -120.15550577640533, 374.34902596473694
 1.7054298536766636E9, 50.503609001636505, -38.29657554626465, -57.44486331939697, 453.0963594317436
 1.7054298536766636E9, -44.75912266969681, -197.70607125759125, -168.50493240356445, 340.1214615702629
 1.705429853692551E9, -76.11444389820099, -197.22736406326294, -167.06881082057953, 320.4944666028023
 1.705429853692551E9, 39.253989934921265, -40.92946511507034, -56.72680252790451, 450.4634698629379
 1.7054298536929007E9, -11.488972663879395, -150.0747054219246, -136.67090398073196, 382.00834107398987
 1.7054298536929007E9, -87.60341656208038, -219.2478950023651, -191.00417053699493, 310.68096911907196
 1.7054298537067E9, 19.148287773132324, -67.49771440029144, -84.73117339611053, 416.95396625995636
 1.7054298537067E9, 39.49334353208542, -84.25246620178223, -90.47565972805023, 428.2035853266716
 1.7054298537221425E9, -71.32737195491791, -233.13040363788605, -200.0996072292328, 306.8513115644455
 1.7054298537221425E9, -37.33916115760803, -137.86767196655273, -122.54904174804688, 373.6309651732445
 1.705429853722876E9, 69.17318958044052, -27.286310076713562, -45.237829864025116, 468.8936968445778
 1.705429853722876E9, -1.4361215829849243, -161.56367808580399, -146.24504786729813, 372.19484359025955
 1.7054298537367585E9, -35.663685977458954, -168.7442860007286, -147.9205230474472, 353.7646166086197
 1.7054298537367585E9, 107.23041152954102, 15.31863021850586, -22.97794532775879, 482.7762054800987
 1.7054298537521412E9, 86.64600217342377, -58.64163130521774, -84.73117339611053, 432.2725964784622
 1.7054298537521412E9, 10.292204678058624, -141.45797592401505, -133.08060002326965, 367.40777164697647
 1.7054298537528844E9, 131.64447844028473, 29.679846048355103, -4.308364748954773, 486.84521663188934
 1.7054298537528844E9, 175.92489391565323, 49.06748741865158, -3.1115967631340027, 498.81289649009705
 1.7054298537664645E9, 65.58288562297821, -94.3053172826767, -101.48592519760132, 390.1463633775711
 1.7054298537664645E9, 135.23478239774704, 16.994105398654938, 1.9148287773132324, 477.031719148159
 1.7054298537823076E9, 222.12013816833496, 112.97489786148071, 52.65779137611389, 549.0771518945694
 1.7054298537823076E9, 135.71348959207535, -28.722431659698486, -46.434597849845886, 447.5912266969681
 1.7054298537829232E9, 113.21425145864487, -21.541823744773865, -33.03079640865326, 451.89959144592285
 1.7054298537829232E9, 215.89694464206696, 123.9851633310318, 54.572620153427124, 543.5720191597939
 1.7054298537965095E9, 175.20683312416077, 28.96178525686264, -13.403801441192627, 487.32392382621765
 1.7054298537965095E9, 83.53440541028976, -70.36995756626129, -85.68858778476715, 380.8115730881691
 1.705429853812236E9, 165.6326892375946, 74.67832231521606, 19.38764137029648, 507.19027239084244
 1.705429853812236E9, 170.41976118087769, 42.60494029521942, -1.1967679858207703, 522.03019541502
 1.7054298538130314E9, 45.716537058353424, -116.80455541610718, -113.21425145864487, 392.06119215488434
 1.7054298538130314E9, 77.55056548118591, -23.69600611925125, -54.093912959098816, 436.1022540330887
 1.7054298538265264E9, 139.5431471467018, 38.77528274059296, -6.9412543177604675, 505.03609001636505
 1.7054298538265264E9, 26.08954209089279, -128.77223527431488, -123.02774894237518, 388.7102417945862
 1.7054298538421552E9, -10.770911872386932, -131.40512484312057, -123.9851633310318, 352.5678486227989
 1.7054298538421552E9, 98.61368203163147, 21.541823744773865, -24.653420507907867, 473.68076878786087
 1.7054298538428967E9, 34.466917991638184, -95.74143886566162, -118.00132340192795, 397.5663248896599
 1.7054298538428967E9, -61.03516727685928, -196.03059607744217, -177.36101549863815, 308.04807955026627
 1.7054298538730807E9, 24.89277410507202, -50.74296259880066, -74.43896871805191, 420.54427021741867
 1.7054298538730807E9, 38.77528274059296, -75.39638310670853, -88.08212375640869, 437.29902201890945
 1.7054298538737597E9, -88.80018454790115, -235.04523241519928, -202.25378960371017, 299.6707036495209
 1.7054298538737597E9, -52.41843777894974, -147.20246225595474, -127.81482088565826, 365.97165006399155
 1.7054298538746061E9, 35.184978783130646, -50.98231619596481, -84.01311260461807, 434.9054860472679
 1.7054298538746061E9, -64.38611763715744, -215.41823744773865, -192.679645717144, 320.2551130056381
 1.7054298538864546E9, -92.15113490819931, -203.2112039923668, -174.72812592983246, 319.7764058113098
 1.7054298538864546E9, 13.643155038356781, -63.66805684566498, -68.2157751917839, 438.7351436018944
 1.7054298539022045E9, -34.70627158880234, -167.06881082057953, -154.86177736520767, 371.9554899930954
 1.7054298539022045E9, -114.65037304162979, -248.92774105072021, -208.47698312997818, 288.89979177713394
 1.7054298539028852E9, -20.823762953281403, -103.1614003777504, -89.51824533939362, 409.0552975535393
 1.7054298539028852E9, 0.23935359716415405, -109.14524030685425, -107.94847232103348, 418.62944144010544
 1.7054298539166512E9, -118.2406769990921, -268.3153824210167, -220.20530939102173, 289.1391453742981
 1.7054298539166512E9, -80.66216224431992, -167.54751801490784, -149.35664463043213, 334.8556824326515
 1.7054298539321923E9, 0.9574143886566162, -89.27889174222946, -98.13497483730316, 422.21974539756775
 1.7054298539321923E9, -93.58725649118423, -233.60911083221436, -196.26994967460632, 318.57963782548904
 1.7054298539328792E9, -112.73554426431656, -224.5136741399765, -189.32869535684586, 301.5855324268341
 1.7054298539328792E9, -1.9148287773132324, -83.29505181312561, -82.8163446187973, 421.022977411747
 1.705429853946699E9, -48.82813382148743, -190.28610974550247, -170.65911477804184, 347.30206948518753
 1.705429853946699E9, -133.08060002326965, -269.99085760116577, -220.9233701825142, 278.36823350191116
 1.7054298539622533E9, -35.663685977458954, -107.94847232103348, -108.18782591819763, 389.90700978040695
 1.7054298539622533E9, -26.08954209089279, -140.97926872968674, -121.11292016506195, 392.3005457520485
 1.7054298539629917E9, -136.19219678640366, -284.352073431015, -237.19941478967667, 278.36823350191116
 1.7054298539629917E9, -79.46539425849915, -172.09523636102676, -147.4418158531189, 335.0950360298157
 1.7054298539767208E9, 2.3935359716415405, -84.97052699327469, -87.12470936775208, 429.8790605068207
 1.7054298539767208E9, -92.62984210252762, -242.46519392728806, -207.04086154699326, 312.83515149354935
 1.705429853992178E9, -113.93231225013733, -230.2581604719162, -193.39770650863647, 295.8410460948944
 1.705429853992178E9, -3.1115967631340027, -73.24220073223114, -77.0718582868576, 421.5016846060753
 1.7054298539929037E9, -50.98231619596481, -172.09523636102676, -159.17014211416245, 368.12583243846893
 1.7054298539929037E9, -136.4315503835678, -268.3153824210167, -215.89694464206696, 284.352073431015
 1.7054298540064852E9, -41.40817230939865, -117.04390901327133, -111.77812987565994, 385.83799862861633
 1.7054298540064852E9, -20.58440935611725, -132.3625392317772, -126.85740649700165, 390.1463633775711
 1.705429854022467E9, -134.75607520341873, -285.30948781967163, -240.31101155281067, 264.0070176720619
 1.705429854022467E9, -75.63573670387268, -157.73402053117752, -148.15987664461136, 356.63685977458954
 1.705429854023E9, 6.223193526268005, -78.50797986984253, -90.71501332521439, 436.1022540330887
 1.705429854023E9, -105.79428994655609, -252.03933781385422, -208.71633672714233, 316.1861018538475
 1.705429854036455E9, -119.19809138774872, -232.41234284639359, -190.52546334266663, 304.6971291899681
 1.705429854036455E9, -5.026425540447235, -83.29505181312561, -80.18345504999161, 422.4590989947319
 1.7054298540523903E9, -46.19524425268173, -179.7545514702797, -158.45208132266998, 366.45035725831985
 1.7054298540523903E9, -122.78839534521103, -248.68838745355606, -212.78534787893295, 278.6075870990753
 1.7054298540531487E9, -28.243724465370178, -101.24657160043716, -107.70911872386932, 390.1463633775711
 1.7054298540531487E9, -2.8722431659698486, -118.48003059625626, -117.52261620759964, 405.46499359607697
 1.705429854066511E9, -117.52261620759964, -272.8631007671356, -222.12013816833496, 279.56500148773193
 1.705429854066511E9, -75.15702950954437, -171.13782197237015, -146.24504786729813, 356.3975061774254
 1.7054298540821705E9, 17.472812592983246, -80.42280864715576, -76.83250468969345, 439.93191158771515
 1.7054298540821705E9, -93.82661008834839, -241.7471331357956, -206.56215435266495, 304.93648278713226
 1.7054298540829172E9, -107.46976512670517, -217.57241982221603, -188.84998816251755, 309.4842011332512
 1.7054298540829172E9, 5.505132734775543, -71.08801835775375, -78.50797986984253, 433.23001086711884
 1.7054298540965536E9, -43.80170828104019, -175.44618672132492, -164.19656765460968, 352.0891414284706
 1.7054298540965536E9, -119.67679858207703, -250.6032162308693, -211.82793349027634, 288.42108458280563
 1.7054298541122525E9, -18.90893417596817, -101.48592519760132, -107.46976512670517, 387.9921810030937
 1.7054298541122525E9, -6.7019007205963135, -122.30968815088272, -112.0174834728241, 413.1243087053299
 1.7054298541128938E9, -120.63421297073364, -271.905686378479, -229.06139248609543, 292.01138854026794
 1.7054298541128938E9, -68.2157751917839, -159.64884930849075, -142.89409750699997, 356.3975061774254
 1.7054298541264985E9, 18.669580578804016, -72.52413994073868, -86.88535577058792, 432.9906572699547
 1.7054298541264985E9, -91.91178131103516, -234.08781802654266, -196.98801046609879, 319.53705221414566
 1.7054298541421957E9, -100.0498036146164, -213.0247014760971, -179.7545514702797, 321.9305881857872
 1.7054298541421957E9, 11.010265469551086, -67.7370679974556, -74.43896871805191, 429.8790605068207
 1.7054298541429288E9, -37.33916115760803, -175.92489391565323, -152.94694858789444, 368.60453963279724
 1.7054298541429288E9, -115.36843383312225, -246.29485148191452, -209.9131047129631, 295.3623389005661
 1.7054298541567163E9, -20.58440935611725, -98.37432843446732, -97.89562124013901, 404.2682256102562
 1.7054298541567163E9, -3.1115967631340027, -114.17166584730148, -123.26710253953934, 397.5663248896599
 1.705429854172184E9, -117.04390901327133, -264.2463712692261, -227.6252709031105, 282.4372446537018
 1.705429854172184E9, -71.08801835775375, -163.71786046028137, -155.10113096237183, 347.78077667951584
 1.7054298541728957E9, 13.882508635520935, -80.66216224431992, -96.69885325431824, 424.134574174881
 1.7054298541728957E9, -97.65626764297485, -252.51804500818253, -210.87051910161972, 313.79256588220596
 1.7054298541866937E9, -120.63421297073364, -238.87488996982574, -199.86025363206863, 293.686863720417
 1.7054298541866937E9, 3.1115967631340027, -78.50797986984253, -87.12470936775208, 419.58685582876205
 1.70542985420219E9, -44.99847626686096, -177.6003690958023, -164.675274848938, 358.7910421490669
 1.70542985420219E9, -119.43744498491287, -251.0819234251976, -200.5783144235611, 308.7661403417587
 1.7054298542029045E9, -26.5682492852211, -101.96463239192963, -99.09238922595978, 409.29465115070343
 1.7054298542029045E9, -4.308364748954773, -111.29942268133163, -117.7619698047638, 404.50757920742035
 1.7054298542165225E9, -106.2729971408844, -246.53420507907867, -210.63116550445557, 301.5855324268341
 1.7054298542165225E9, -68.2157751917839, -151.0321198105812, -140.50056153535843, 358.07298135757446
 1.7054298542321467E9, 21.541823744773865, -67.25836080312729, -79.94410145282745, 438.7351436018944
 1.7054298542321467E9, -82.09828382730484, -231.69428205490112, -193.15835291147232, 324.0847705602646
 1.7054298542328677E9, -92.15113490819931, -206.8015079498291, -173.77071154117584, 320.9731737971306
 1.7054298542328677E9, 19.626994967460632, -55.05132734775543, -62.949996054172516, 438.25643640756607
 1.705429854246484E9, -34.466917991638184, -161.56367808580399, -157.2553133368492, 373.3916115760803
 1.705429854246484E9, -105.31558275222778, -241.98648673295975, -204.88667917251587, 297.27716767787933
 1.7054298542621691E9, -12.685740649700165, -92.86919569969177, -95.26273167133331, 405.2256399989128
 1.7054298542621691E9, -4.069011151790619, -115.60778743028641, -115.1290802359581, 406.1830543875694
 1.7054298542629004E9, -115.60778743028641, -259.9380065202713, -214.93953025341034, 293.44751012325287
 1.7054298542629004E9, -57.68421691656113, -150.31405901908875, -132.8412464261055, 355.9187989830971
 1.7054298542766578E9, 30.15855324268341, -65.34353202581406, -69.17318958044052, 450.2241162657738
 1.7054298542766578E9, -69.41254317760468, -213.74276226758957, -187.65322017669678, 322.8880025744438
 1.7054298542924545E9, -87.36406296491623, -205.84409356117249, -165.39333564043045, 331.7440856695175
 1.7054298542924545E9, 22.020530939102173, -56.2480953335762, -61.753228068351746, 449.74540907144547
 1.7054298542929132E9, -29.44049245119095, -155.8191917538643, -134.03801441192627, 388.94959539175034
 1.7054298542929132E9, -108.66653311252594, -238.15682917833328, -201.0570216178894, 302.0642396211624
 1.7054298543064861E9, -13.882508635520935, -91.1937205195427, -89.51824533939362, 408.57659035921097
 1.7054298543064861E9, 8.377375900745392, -107.70911872386932, -98.85303562879562, 418.3900878429413
 1.7054298543224041E9, -103.40075397491455, -252.27869141101837, -209.67375111579895, 300.6281180381775
 1.7054298543224041E9, -51.700376987457275, -140.97926872968674, -136.91025757789612, 361.9026389122009
 1.7054298543228936E9, 23.217298924922943, -53.61520576477051, -86.88535577058792, 416.7146126627922
 1.7054298543228936E9, -84.01311260461807, -237.19941478967667, -198.4241320490837, 321.4518809914589
 1.7054298543365324E9, -91.43307411670685, -204.1686183810234, -174.9674795269966, 330.06861048936844
 1.7054298543365324E9, 27.286310076713562, -48.58878022432327, -53.85455936193466, 455.250541806221
 1.7054298543521607E9, -27.76501727104187, -168.02622520923615, -151.51082700490952, 369.56195402145386
 1.7054298543521607E9, -106.75170433521271, -236.4813539981842, -205.60473996400833, 297.9952284693718
 1.7054298543528676E9, -9.095436692237854, -87.60341656208038, -80.66216224431992, 415.51784467697144
 1.7054298543528676E9, 1.1967679858207703, -115.36843383312225, -104.83687555789948, 420.3049166202545
 1.7054298543667133E9, -100.5285108089447, -243.18325471878052, -206.56215435266495, 292.96880292892456
 1.7054298543667133E9, -50.0249018073082, -146.00569427013397, -122.78839534521103, 374.5883795619011
 1.7054298543822143E9, 17.233458995819092, -72.04543274641037, -72.52413994073868, 455.48989540338516
 1.7054298543822143E9, -85.20988059043884, -223.79561334848404, -200.0996072292328, 325.76024574041367
 1.7054298543971329E9, -85.449234187603, -194.11576730012894, -176.40360110998154, 320.73382019996643
 1.7054298543971329E9, 19.626994967460632, -54.33326655626297, -74.43896871805191, 437.0596684217453
 1.705429854397914E9, -33.74885720014572, -172.57394355535507, -152.94694858789444, 365.49294286966324
 1.705429854397914E9, -98.61368203163147, -236.0026468038559, -197.4667176604271, 287.22431659698486
 1.705429854427868E9, -12.207033455371857, -94.3053172826767, -92.86919569969177, 413.1243087053299
 1.705429854427868E9, 8.138022303581238, -107.23041152954102, -98.85303562879562, 432.7513036727905
 1.7054298544286327E9, -104.59752196073532, -247.73097306489944, -207.75892233848572, 302.5429468154907
 1.7054298544286327E9, -59.59904569387436, -153.6650093793869, -135.23478239774704, 365.97165006399155
 1.705429854429376E9, 17.472812592983246, -76.5931510925293, -91.43307411670685, 431.7938892841339
 1.705429854429376E9, -82.57699102163315, -222.83819895982742, -193.63706010580063, 320.73382019996643
 1.7054298544426105E9, -87.84277015924454, -210.15245831012726, -175.92489391565323, 324.80283135175705
 1.7054298544426105E9, 32.55208921432495, -48.110073029994965, -60.07775288820267, 456.68666338920593
 1.7054298544429808E9, -27.525663673877716, -161.56367808580399, -156.53725254535675, 365.2535892724991
 1.7054298544429808E9, -102.20398598909378, -237.67812198400497, -188.13192737102509, 304.2184219956398
 1.70542985445647E9, -7.898668706417084, -83.29505181312561, -87.12470936775208, 416.2359054684639
 1.70542985445647E9, 15.31863021850586, -98.13497483730316, -100.0498036146164, 426.28875654935837
 1.7054298544722097E9, -84.49181979894638, -225.23173493146896, -195.55188888311386, 316.90416264533997
 1.7054298544722097E9, -43.32300108671188, -134.03801441192627, -124.94257771968842, 376.26385474205017
 1.7054298544729173E9, 36.381746768951416, -64.86482483148575, -71.08801835775375, 452.85700583457947
 1.7054298544729173E9, -59.59904569387436, -212.5459942817688, -183.8235626220703, 336.77051120996475
 1.7054298544868617E9, -78.74733346700668, -197.4667176604271, -170.41976118087769, 320.2551130056381
 1.7054298544868617E9, 35.184978783130646, -45.716537058353424, -56.966156125068665, 448.30928748846054
 1.7054298545014932E9, -26.08954209089279, -159.4094957113266, -144.56957268714905, 380.3328658938408
 1.7054298545014932E9, -109.3845939040184, -241.98648673295975, -200.33896082639694, 299.19199645519257
 1.7054298545171876E9, 15.557983815670013, -100.76786440610886, -100.28915721178055, 427.48552453517914
 1.7054298545171876E9, -95.98079246282578, -248.92774105072021, -205.84409356117249, 301.82488602399826
 1.705429854517903E9, -42.36558669805527, -140.02185434103012, -134.27736800909042, 359.74845653772354
 1.705429854517903E9, 28.004370868206024, -68.45512878894806, -64.38611763715744, 456.9260169863701
 1.7054298545318692E9, -72.52413994073868, -218.05112701654434, -182.14808744192123, 337.72792559862137
 1.7054298545318692E9, -82.09828382730484, -191.2435241341591, -170.898468375206, 324.80283135175705
 1.7054298545471747E9, 29.679846048355103, -50.0249018073082, -61.9925816655159, 444.9583371281624
 1.7054298545471747E9, -26.08954209089279, -151.75018060207367, -148.15987664461136, 375.0670867562294
 1.7054298545479145E9, -86.88535577058792, -224.0349669456482, -176.40360110998154, 330.06861048936844
 1.7054298545479145E9, 0.7180607914924622, -81.14086943864822, -84.25246620178223, 418.62944144010544
 1.7054298545615077E9, 21.541823744773865, -89.75759893655777, -99.81045001745224, 420.54427021741867
 1.7054298545615077E9, -96.22014605998993, -239.83230435848236, -193.63706010580063, 313.31385868787766
 1.7054298545773673E9, -36.860453963279724, -123.50645613670349, -110.10265469551086, 384.64123064279556
 1.7054298545773673E9, 48.110073029994965, -40.69011151790619, -56.00874173641205, 461.23438173532486
 1.7054298545779097E9, -52.897144973278046, -196.74865686893463, -172.33458995819092, 346.10530149936676
 1.7054298545779097E9, -70.36995756626129, -186.21709859371185, -162.28173887729645, 338.2066327929497
 1.7054298545915205E9, 49.306841015815735, -35.90303957462311, -53.61520576477051, 451.89959144592285
 1.7054298545915205E9, -18.190873384475708, -154.86177736520767, -147.4418158531189, 370.9980756044388
 1.705429854607567E9, -101.72527879476547, -236.9600611925125, -198.66348564624786, 304.45777559280396
 1.705429854607567E9, -7.65931510925293, -85.449234187603, -85.449234187603, 416.2359054684639
 1.705429854608128E9, 9.334790289402008, -98.61368203163147, -111.77812987565994, 408.3372367620468
 1.705429854608128E9, -97.4169140458107, -244.8587298989296, -199.62090003490448, 306.13325077295303
 1.70542985462149E9, -34.94562518596649, -131.40512484312057, -125.89999210834503, 373.3916115760803
 1.70542985462149E9, 40.69011151790619, -58.8809849023819, -75.63573670387268, 446.63381230831146
 1.705429854637226E9, -63.428703248500824, -213.74276226758957, -196.98801046609879, 320.2551130056381
 1.705429854637226E9, -63.90741044282913, -171.3771755695343, -150.31405901908875, 343.9511191248894
 1.7054298546378963E9, 34.70627158880234, -51.700376987457275, -50.98231619596481, 455.48989540338516
 1.7054298546378963E9, -22.97794532775879, -158.9307885169983, -143.37280470132828, 386.79541301727295
 1.7054298546520889E9, -92.62984210252762, -226.18914932012558, -190.04675614833832, 309.9629083275795
 1.7054298546520889E9, 15.557983815670013, -63.90741044282913, -75.87509030103683, 420.54427021741867
 1.7054298546671689E9, 23.456652522087097, -90.71501332521439, -92.86919569969177, 433.23001086711884
 1.7054298546671689E9, -101.72527879476547, -254.91158097982407, -203.92926478385925, 310.4416155219078
 1.7054298546678777E9, -39.253989934921265, -129.01158887147903, -116.32584822177887, 386.79541301727295
 1.7054298546678777E9, 48.34942662715912, -42.844293892383575, -59.359692096710205, 463.1492105126381
 1.7054298546815436E9, -69.17318958044052, -208.9556903243065, -185.9777449965477, 327.43572092056274
 1.7054298546815436E9, -83.53440541028976, -196.50930327177048, -170.898468375206, 325.5208921432495
 1.7054298546971707E9, 38.77528274059296, -48.110073029994965, -66.30094641447067, 428.92164611816406
 1.7054298546971707E9, -19.626994967460632, -162.76044607162476, -152.46824139356613, 364.5355284810066
 1.705429854697886E9, -107.94847232103348, -237.19941478967667, -210.87051910161972, 294.4049245119095
 1.705429854697886E9, 0.0, -74.91767591238022, -74.19961512088776, 428.2035853266716
 1.7054298547115364E9, 12.207033455371857, -107.46976512670517, -95.98079246282578, 423.8952205777168
 1.7054298547115364E9, -91.1937205195427, -243.66196191310883, -204.88667917251587, 303.97906839847565
 1.7054298547271628E9, -35.663685977458954, -124.46387052536011, -125.42128491401672, 374.34902596473694
 1.7054298547271628E9, 40.92946511507034, -53.61520576477051, -73.9602615237236, 446.3944587111473
 1.7054298547278852E9, -64.14676403999329, -208.9556903243065, -187.41386657953262, 328.87184250354767
 1.7054298547278852E9, -73.00284713506699, -185.4990378022194, -161.80303168296814, 332.9408536553383
 1.7054298547415824E9, 35.90303957462311, -39.253989934921265, -61.27452087402344, 441.6073867678642
 1.7054298547415824E9, -25.132127702236176, -157.73402053117752, -155.34048455953598, 373.3916115760803
 1.7054298547571673E9, -97.65626764297485, -233.60911083221436, -194.11576730012894, 313.0745050907135
 1.7054298547571673E9, 8.616729497909546, -72.04543274641037, -84.25246620178223, 425.0919885635376
 1.7054298547578695E9, 3.1115967631340027, -112.0174834728241, -118.48003059625626, 407.61917597055435
 1.7054298547578695E9, -100.28915721178055, -244.61937630176544, -213.98211586475372, 292.7294493317604
 1.7054298547714925E9, -45.95589065551758, -137.14961117506027, -127.57546728849411, 369.56195402145386
 1.7054298547714925E9, 34.22756439447403, -59.59904569387436, -67.01900720596313, 445.19769072532654
 1.7054298547874737E9, -67.01900720596313, -219.00854140520096, -196.03059607744217, 322.4092953801155
 1.7054298547874737E9, -84.01311260461807, -198.18477845191956, -178.31842988729477, 314.0319194793701
 1.7054298547880003E9, 32.3127356171608, -49.78554821014404, -69.17318958044052, 435.14483964443207
 1.7054298547880003E9, -18.669580578804016, -144.09086549282074, -151.0321198105812, 379.3754515051842
 1.7054298548014925E9, -101.24657160043716, -239.35359716415405, -207.99827593564987, 296.08039969205856
 1.7054298548014925E9, -4.547718346118927, -89.03953814506531, -79.94410145282745, 417.43267345428467
 1.7054298548172033E9, 14.121862232685089, -102.20398598909378, -103.1614003777504, 409.5340047478676
 1.7054298548172033E9, -89.75759893655777, -236.0026468038559, -211.10987269878387, 294.64427810907364
 1.7054298548178759E9, -28.96178525686264, -124.46387052536011, -119.19809138774872, 380.57221949100494
 1.7054298548178759E9, 45.237829864025116, -60.556460082530975, -62.949996054172516, 454.2931274175644
 1.7054298548316908E9, -58.162924110889435, -207.75892233848572, -171.8558827638626, 340.36081516742706
 1.7054298548316908E9, -70.13060396909714, -181.43002665042877, -159.4094957113266, 337.4885720014572
 1.7054298548471804E9, 42.12623310089111, -44.2804154753685, -54.33326655626297, 456.4473097920418
 1.7054298548471804E9, -12.44638705253601, -152.70759499073029, -138.34637916088104, 378.41803711652756
 1.705429854848096E9, -100.5285108089447, -235.28458601236343, -193.15835291147232, 309.4842011332512
 1.705429854848096E9, 7.419961512088776, -69.65189677476883, -83.05569821596146, 418.8687950372696
 1.7054298548615139E9, 12.925094246864319, -100.76786440610886, -93.10854929685593, 430.357767701149
 1.7054298548615139E9, -99.09238922595978, -243.18325471878052, -200.0996072292328, 311.87773710489273
 1.7054298548772192E9, -36.14239317178726, -126.6180528998375, -116.32584822177887, 379.3754515051842
 1.7054298548772192E9, 39.73269712924957, -53.61520576477051, -75.15702950954437, 441.6073867678642
 1.7054298548778856E9, -70.60931116342545, -215.6575910449028, -187.65322017669678, 331.2653784751892
 1.7054298548778856E9, -80.66216224431992, -194.11576730012894, -168.7442860007286, 326.4783065319061
 1.7054298548915193E9, 34.94562518596649, -42.60494029521942, -67.7370679974556, 446.3944587111473
 1.7054298548915193E9, -30.15855324268341, -166.59010362625122, -151.98953419923782, 370.9980756044388
 1.7054298549074361E9, -102.68269318342209, -235.04523241519928, -188.13192737102509, 315.46804106235504
 1.7054298549074361E9, 9.095436692237854, -68.45512878894806, -71.56672555208206, 432.9906572699547
 1.7054298549079387E9, 17.7121661901474, -84.97052699327469, -101.96463239192963, 421.74103820323944
 1.7054298549079387E9, -97.17756044864655, -236.4813539981842, -205.12603276968002, 308.04807955026627
 1.705429854921487E9, -25.37148129940033, -118.95873779058456, -109.3845939040184, 387.5134738087654
 1.705429854921487E9, 44.2804154753685, -53.85455936193466, -65.34353202581406, 459.0801993608475
 1.7054298549372168E9, -63.90741044282913, -213.98211586475372, -185.25968420505524, 337.0098648071289
 1.7054298549372168E9, -73.72090792655945, -176.88230830430984, -151.98953419923782, 348.4988374710083
 1.705429854937919E9, 31.594674825668335, -40.450757920742035, -49.78554821014404, 463.6279177069664
 1.705429854937919E9, -32.07338201999664, -160.84561729431152, -148.63858383893967, 378.6573907136917
 1.705429854951782E9, -106.2729971408844, -242.94390112161636, -198.4241320490837, 303.97906839847565
 1.705429854951782E9, -10.05285108089447, -89.27889174222946, -89.99695253372192, 409.0552975535393
 1.7054298549829516E9, 5.265779137611389, -106.03364354372025, -115.1290802359581, 408.8159439563751
 1.7054298549829516E9, -106.51235073804855, -260.8954209089279, -219.2478950023651, 287.9423773884773
 1.7054298549836304E9, -56.00874173641205, -143.85151189565659, -135.23478239774704, 373.6309651732445
 1.7054298549836304E9, 36.381746768951416, -52.17908418178558, -63.428703248500824, 458.8408457636833
 1.7054298549843504E9, -63.428703248500824, -203.92926478385925, -183.10550183057785, 334.13762164115906
 1.7054298549843504E9, -71.32737195491791, -182.8661482334137, -149.35664463043213, 354.00397020578384
 1.705429854997193E9, 43.80170828104019, -24.17471331357956, -42.12623310089111, 471.5265864133835
 1.705429854997193E9, -21.30247014760971, -158.21272772550583, -136.67090398073196, 379.6148051023483
 1.705429854997955E9, -92.62984210252762, -226.18914932012558, -186.21709859371185, 305.41518998146057
 1.705429854997955E9, 15.557983815670013, -56.72680252790451, -69.41254317760468, 429.6397069096565
 1.7054298550114937E9, 29.44049245119095, -87.12470936775208, -88.560830950737, 433.9480716586113
 1.7054298550114937E9, -84.49181979894638, -227.38591730594635, -202.97185039520264, 307.56937235593796
 1.7054298550272112E9, -34.22756439447403, -125.89999210834503, -113.45360505580902, 379.3754515051842
 1.7054298550272112E9, 48.82813382148743, -50.503609001636505, -60.07775288820267, 464.585332095623
 1.7054298550279355E9, -62.949996054172516, -214.22146946191788, -185.4990378022194, 332.9408536553383
 1.7054298550279355E9, -70.60931116342545, -175.44618672132492, -157.01595973968506, 334.61632883548737
 1.7054298550418303E9, 42.36558669805527, -34.22756439447403, -57.20550972223282, 445.67639791965485
 1.7054298550418303E9, -22.259884536266327, -157.01595973968506, -147.20246225595474, 372.4341971874237
 1.705429855057208E9, -101.00721800327301, -238.39618277549744, -193.87641370296478, 305.8938971757889
 1.705429855057208E9, 11.24961906671524, -67.7370679974556, -72.76349353790283, 433.469364464283
 1.7054298550579708E9, 26.08954209089279, -87.84277015924454, -93.34790289402008, 433.23001086711884
 1.7054298550579708E9, -87.12470936775208, -235.5239396095276, -194.11576730012894, 316.42545545101166
 1.7054298550714998E9, -28.96178525686264, -119.19809138774872, -110.82071548700333, 387.0347666144371
 1.7054298550714998E9, 41.1688187122345, -44.519769072532654, -69.89125037193298, 446.63381230831146
 1.7054298550874112E9, -60.79581367969513, -209.67375111579895, -186.456452190876, 330.3079640865326
 1.7054298550874112E9, -69.89125037193298, -187.89257377386093, -159.8882029056549, 329.350549697876
 1.7054298550880723E9, 42.60494029521942, -39.01463633775711, -49.06748741865158, 453.0963594317436
 1.7054298550880723E9, -23.217298924922943, -162.28173887729645, -141.93668311834335, 381.52963387966156
 1.7054298551016245E9, -106.03364354372025, -243.18325471878052, -194.8338280916214, 319.05834501981735
 1.7054298551016245E9, 3.3509503602981567, -78.26862627267838, -83.29505181312561, 425.81004935503006
 1.7054298551171756E9, 9.334790289402008, -111.77812987565994, -104.59752196073532, 416.7146126627922
 1.7054298551171756E9, -101.72527879476547, -246.29485148191452, -203.92926478385925, 304.93648278713226
 1.705429855117898E9, -35.184978783130646, -123.50645613670349, -119.67679858207703, 383.4444626569748
 1.705429855117898E9, 35.4243323802948, -61.753228068351746, -82.09828382730484, 443.52221554517746
 1.7054298551318161E9, -79.94410145282745, -235.04523241519928, -197.4667176604271, 319.7764058113098
 1.7054298551318161E9, -77.31121188402176, -193.39770650863647, -160.36691009998322, 339.6427543759346
 1.7054298551471968E9, 37.33916115760803, -43.08364748954773, -65.58288562297821, 446.15510511398315
 1.7054298551471968E9, -21.541823744773865, -164.91462844610214, -151.98953419923782, 366.45035725831985
 1.7054298551480083E9, -95.50208526849747, -227.1465637087822, -192.44029211997986, 304.6971291899681
 1.7054298551480083E9, -3.3509503602981567, -82.57699102163315, -82.337637424469, 422.69845259189606
 1.705429855161538E9, 26.328895688056946, -87.60341656208038, -95.98079246282578, 431.55453568696976
 1.705429855161538E9, -90.47565972805023, -243.90131551027298, -211.10987269878387, 305.41518998146057
 1.7054298551771944E9, -30.397906839847565, -123.50645613670349, -109.3845939040184, 386.5560594201088
 1.7054298551771944E9, 38.5359291434288, -62.47128885984421, -67.01900720596313, 449.5060554742813
 1.7054298551779284E9, -83.77375900745392, -235.28458601236343, -206.8015079498291, 309.4842011332512
 1.7054298551779284E9, -74.19961512088776, -195.07318168878555, -163.23915326595306, 327.91442811489105
 1.7054298551914756E9, 34.70627158880234, -50.98231619596481, -63.66805684566498, 443.2828619480133
 1.7054298551914756E9, -5.744486331939697, -151.51082700490952, -148.87793743610382, 377.93932992219925
 1.7054298552072327E9, -89.27889174222946, -226.6678565144539, -196.26994967460632, 299.19199645519257
 1.7054298552072327E9, 20.10570216178894, -64.14676403999329, -70.36995756626129, 429.6397069096565
 1.7054298552080095E9, 18.669580578804016, -97.65626764297485, -100.28915721178055, 422.9378061890602
 1.7054298552080095E9, -89.03953814506531, -240.31101155281067, -200.81766802072525, 309.24484753608704
 1.705429855221557E9, -21.30247014760971, -109.3845939040184, -107.23041152954102, 387.0347666144371
 1.705429855221557E9, 45.95589065551758, -54.33326655626297, -72.76349353790283, 445.4370443224907
 1.70542985523745E9, -62.231935262680054, -214.93953025341034, -190.04675614833832, 326.238952934742
 1.70542985523745E9, -71.80607914924622, -190.52546334266663, -168.02622520923615, 326.95701372623444
 1.7054298552380388E9, 43.80170828104019, -34.466917991638184, -54.093912959098816, 445.4370443224907
 1.7054298552380388E9, -12.44638705253601, -152.94694858789444, -156.7766061425209, 359.9878101348877
 1.7054298552515094E9, -95.74143886566162, -235.76329320669174, -195.55188888311386, 306.61195796728134
 1.7054298552515094E9, 14.121862232685089, -66.54030001163483, -76.83250468969345, 425.81004935503006
 1.7054298552673068E9, 16.276044607162476, -101.96463239192963, -114.17166584730148, 405.46499359607697
 1.7054298552673068E9, -92.62984210252762, -241.7471331357956, -215.89694464206696, 290.0965597629547
 1.705429855268026E9, -28.722431659698486, -124.70322412252426, -123.74580973386765, 369.56195402145386
 1.705429855268026E9, 36.62110036611557, -60.79581367969513, -76.5931510925293, 442.804154753685
 1.7054298552816267E9, -65.34353202581406, -216.1362982392311, -187.65322017669678, 328.39313530921936
 1.7054298552816267E9, -63.90741044282913, -178.79713708162308, -156.53725254535675, 325.9995993375778
 1.7054298552971816E9, 47.87071943283081, -32.07338201999664, -54.81197375059128, 443.2828619480133
 1.7054298552971816E9, -16.51539820432663, -151.75018060207367, -148.3992302417755, 373.6309651732445
 1.7054298552979429E9, -93.10854929685593, -229.7794532775879, -198.90283924341202, 302.30359321832657
 1.7054298552979429E9, 4.787071943283081, -71.56672555208206, -85.20988059043884, 410.73077273368835
 1.705429855311533E9, 12.207033455371857, -108.42717951536179, -113.69295865297318, 406.66176158189774
 1.705429855311533E9, -102.44333958625793, -251.5606306195259, -217.57241982221603, 291.7720349431038
 1.7054298553274052E9, -29.201138854026794, -117.52261620759964, -120.15550577640533, 373.6309651732445
 1.7054298553274052E9, 44.75912266969681, -53.85455936193466, -79.46539425849915, 438.4957900047302
 1.7054298553280132E9, -67.49771440029144, -215.6575910449028, -195.3125352859497, 321.9305881857872
 1.7054298553280132E9, -67.49771440029144, -180.7119658589363, -164.91462844610214, 322.8880025744438
 1.7054298553417215E9, 31.115967631340027, -50.98231619596481, -67.01900720596313, 448.0699338912964
 1.7054298553417215E9, -26.328895688056946, -164.91462844610214, -156.7766061425209, 367.1684180498123
 1.705429855357191E9, -96.22014605998993, -229.54009968042374, -197.9454248547554, 295.8410460948944
 1.705429855357191E9, 11.967679858207703, -70.8486647605896, -90.71501332521439, 410.0127119421959
 1.7054298553579721E9, 12.685740649700165, -103.1614003777504, -124.94257771968842, 395.65149611234665
 1.7054298553579721E9, -105.79428994655609, -251.32127702236176, -219.00854140520096, 293.686863720417
 1.705429855372114E9, -36.381746768951416, -135.23478239774704, -128.29352807998657, 370.7587220072746
 1.705429855372114E9, 32.3127356171608, -64.14676403999329, -90.47565972805023, 432.5119500756264
 1.7054298553871768E9, -67.97642159461975, -232.65169644355774, -203.92926478385925, 313.79256588220596
 1.7054298553871768E9, -79.46539425849915, -194.11576730012894, -177.6003690958023, 317.6222234368324
 1.7054298553878908E9, 32.791442811489105, -51.46102339029312, -81.14086943864822, 419.3475022315979
 1.7054298553878908E9, -27.046956479549408, -168.98363959789276, -157.49466693401337, 358.07298135757446
 1.7054298554017115E9, -91.672427713871, -223.79561334848404, -201.0570216178894, 293.9262173175812
 1.7054298554017115E9, 15.31863021850586, -56.966156125068665, -77.0718582868576, 423.17715978622437
 1.7054298554171743E9, 4.308364748954773, -113.21425145864487, -112.97489786148071, 408.3372367620468
 1.7054298554171743E9, -99.57109642028809, -249.40644824504852, -206.08344715833664, 301.34617882966995
 1.7054298554178963E9, -33.50950360298157, -128.53288167715073, -122.07033455371857, 375.78514754772186
 1.7054298554178963E9, 43.32300108671188, -52.897144973278046, -79.22604066133499, 440.88932597637177
 1.705429855431491E9, -63.66805684566498, -216.37565183639526, -198.4241320490837, 313.79256588220596
 1.705429855431491E9, -71.80607914924622, -184.78097701072693, -160.60626369714737, 332.46214646101
 1.705429855447323E9, 42.844293892383575, -38.29657554626465, -57.20550972223282, 442.56480115652084
 1.705429855447323E9, -25.37148129940033, -164.19656765460968, -155.57983815670013, 364.0568212866783
 1.7054298554479127E9, -94.3053172826767, -233.60911083221436, -194.3551208972931, 306.8513115644455
 1.7054298554479127E9, 18.669580578804016, -61.27452087402344, -77.78991907835007, 420.06556302309036
 1.7054298554616935E9, 21.30247014760971, -92.86919569969177, -105.55493634939194, 414.0817230939865
 1.7054298554616935E9, -89.75759893655777, -236.9600611925125, -209.4343975186348, 295.3623389005661
 1.7054298554771707E9, -31.83402842283249, -125.18193131685257, -118.00132340192795, 379.13609790802
 1.7054298554771707E9, 46.19524425268173, -50.74296259880066, -70.13060396909714, 442.56480115652084
 1.7054298554779437E9, -73.72090792655945, -232.41234284639359, -200.0996072292328, 313.31385868787766
 1.7054298554779437E9, -72.28478634357452, -188.6106345653534, -171.3771755695343, 317.1435162425041
 1.7054298554918604E9, 48.82813382148743, -41.647525906562805, -68.2157751917839, 438.25643640756607
 1.7054298554918604E9, -23.69600611925125, -173.29200434684753, -156.2978989481926, 374.34902596473694
 1.705429855506543E9, -101.48592519760132, -227.38591730594635, -206.08344715833664, 297.27716767787933
 1.705429855506543E9, 10.292204678058624, -66.77965360879898, -75.63573670387268, 424.6132813692093
 1.7054298555225136E9, -102.20398598909378, -241.98648673295975, -219.72660219669342, 287.9423773884773
 1.7054298555225136E9, -33.27015000581741, -126.13934570550919, -119.43744498491287, 375.30644035339355
 1.705429855522914E9, 43.08364748954773, -54.572620153427124, -75.87509030103683, 443.04350835084915
 1.705429855522914E9, -64.14676403999329, -219.96595579385757, -194.11576730012894, 323.12735617160797
 1.705429855536522E9, -66.77965360879898, -180.7119658589363, -163.23915326595306, 331.50473207235336
 1.705429855536522E9, 50.98231619596481, -31.594674825668335, -55.53003454208374, 458.362138569355
 1.705429855552199E9, -21.541823744773865, -165.1539820432663, -146.9631086587906, 374.1096723675728
 1.705429855552199E9, -95.98079246282578, -228.34333169460297, -194.3551208972931, 307.3300187587738
 1.7054298555528855E9, 14.600569427013397, -64.14676403999329, -84.01311260461807, 417.43267345428467
 1.7054298555528855E9, 19.148287773132324, -94.784024477005, -114.88972663879395, 406.9011151790619
 1.7054298555664897E9, -85.20988059043884, -238.39618277549744, -203.6899111866951, 300.86747163534164
 1.7054298555664897E9, -27.76501727104187, -127.0967600941658, -118.2406769990921, 378.6573907136917
 1.705429855582396E9, 41.88687950372696, -57.20550972223282, -76.5931510925293, 441.8467403650284
 1.705429855582396E9, -67.97642159461975, -222.83819895982742, -198.4241320490837, 321.9305881857872
 1.705429855582916E9, -65.34353202581406, -180.233258664608, -152.22888779640198, 345.14788711071014
 1.705429855582916E9, 46.67395144701004, -40.21140432357788, -56.00874173641205, 452.138945043087
 1.7054298555964875E9, -31.35532122850418, -169.46234679222107, -159.17014211416245, 367.6471252441406
 1.7054298555964875E9, -95.50208526849747, -228.82203888893127, -195.79124248027802, 301.34617882966995
 1.7054298556121616E9, 28.722431659698486, -50.74296259880066, -69.89125037193298, 429.40035331249237
 1.7054298556121616E9, 18.190873384475708, -96.69885325431824, -104.35816836357117, 421.9803918004036
 1.7054298556128917E9, -97.17756044864655, -238.15682917833328, -203.92926478385925, 304.93648278713226
 1.7054298556128917E9, -18.190873384475708, -101.24657160043716, -98.13497483730316, 400.91727524995804
 1.7054298556266136E9, 54.093912959098816, -46.19524425268173, -54.81197375059128, 470.56917202472687
 1.7054298556266136E9, -57.92357051372528, -208.71633672714233, -182.62679463624954, 343.47241193056107
 1.705429855642176E9, -61.27452087402344, -170.898468375206, -147.68116945028305, 353.0465558171272
 1.705429855642176E9, 52.65779137611389, -26.5682492852211, -51.93973058462143, 455.96860259771347
 1.7054298556428883E9, -33.74885720014572, -172.33458995819092, -152.70759499073029, 354.00397020578384
 1.7054298556428883E9, -91.672427713871, -212.30664068460464, -181.19067305326462, 328.39313530921936
 1.7054298556568236E9, 14.839923024177551, -60.31710648536682, -74.19961512088776, 434.66613245010376
 1.7054298556568236E9, 12.925094246864319, -111.06006908416748, -110.10265469551086, 423.17715978622437
 1.7054298556724992E9, -99.09238922595978, -246.29485148191452, -208.71633672714233, 304.45777559280396
 1.7054298556724992E9, -30.876614034175873, -123.02774894237518, -115.36843383312225, 382.00834107398987
 1.7054298556729944E9, 47.3920122385025, -50.503609001636505, -64.86482483148575, 449.5060554742813
 1.7054298556729944E9, -60.07775288820267, -215.41823744773865, -183.10550183057785, 325.0421849489212
 1.7054298556869154E9, -51.22166979312897, -163.71786046028137, -141.93668311834335, 353.52526301145554
 1.7054298556869154E9, 64.6254712343216, -20.823762953281403, -37.578514754772186, 476.31365835666656
 1.70542985570219E9, -5.505132734775543, -141.2186223268509, -129.7296496629715, 395.4121425151825
 1.70542985570219E9, -74.19961512088776, -204.88667917251587, -170.898468375206, 331.02602487802505
 1.7054298557029772E9, 22.49923813343048, -65.1041784286499, -63.66805684566498, 443.2828619480133
 1.7054298557029772E9, 26.807602882385254, -92.39048850536346, -89.99695253372192, 435.3841932415962
 1.70542985571649E9, -79.94410145282745, -230.49751406908035, -184.30226981639862, 328.6324889063835
 1.70542985571649E9, -25.37148129940033, -104.83687555789948, -104.59752196073532, 392.53989934921265
 1.7054298557321544E9, 48.110073029994965, -46.434597849845886, -64.86482483148575, 447.83058029413223
 1.7054298557321544E9, -62.231935262680054, -199.86025363206863, -187.41386657953262, 324.32412415742874
 1.7054298557328713E9, -57.92357051372528, -162.5210924744606, -146.72375506162643, 359.5091029405594
 1.7054298557328713E9, 50.503609001636505, -25.850188493728638, -39.73269712924957, 481.3400838971138
 1.7054298557465577E9, -21.541823744773865, -159.17014211416245, -135.9528431892395, 388.7102417945862
 1.7054298557465577E9, -78.26862627267838, -201.77508240938187, -168.50493240356445, 336.5311576128006
 1.7054298557621636E9, 26.328895688056946, -54.33326655626297, -60.79581367969513, 447.11251950263977
 1.7054298557621636E9, 16.994105398654938, -101.00721800327301, -107.70911872386932, 418.3900878429413
 1.7054298557629364E9, -89.51824533939362, -238.15682917833328, -191.00417053699493, 314.0319194793701
 1.7054298557629364E9, -15.797337412834167, -106.51235073804855, -96.22014605998993, 400.91727524995804
 1.7054298557928681E9, 58.162924110889435, -33.27015000581741, -59.59904569387436, 461.71308892965317
 1.7054298557928681E9, -56.487448930740356, -204.40797197818756, -178.07907629013062, 341.0788759589195
 1.705429855793589E9, -65.58288562297821, -178.55778348445892, -154.1437165737152, 342.99370473623276
 1.705429855793589E9, 38.5359291434288, -43.80170828104019, -50.503609001636505, 464.82468569278717
 1.7054298557943556E9, -36.381746768951416, -177.121661901474, -153.1863021850586, 372.4341971874237
 1.7054298557943556E9, -101.96463239192963, -236.4813539981842, -194.3551208972931, 313.79256588220596
 1.705429855806537E9, 13.643155038356781, -58.8809849023819, -65.82223922014236, 438.7351436018944
 1.705429855806537E9, 16.03669100999832, -98.13497483730316, -107.94847232103348, 413.1243087053299
 1.7054298558221903E9, -96.22014605998993, -238.15682917833328, -208.71633672714233, 300.1494108438492
 1.7054298558221903E9, -26.328895688056946, -120.63421297073364, -98.37432843446732, 405.7043471932411
 1.7054298558229148E9, 40.69011151790619, -54.81197375059128, -59.83839929103851, 460.0376137495041
 1.7054298558229148E9, -54.33326655626297, -199.38154643774033, -167.54751801490784, 351.84978783130646
 1.7054298558365269E9, -49.78554821014404, -161.56367808580399, -136.19219678640366, 365.97165006399155
 1.7054298558365269E9, 46.67395144701004, -32.791442811489105, -50.74296259880066, 467.2182216644287
 1.7054298558523798E9, -23.69600611925125, -158.69143491983414, -153.42565578222275, 369.08324682712555
 1.7054298558523798E9, -87.36406296491623, -218.2904806137085, -192.2009385228157, 307.09066516160965
 1.7054298558529415E9, 14.839923024177551, -57.44486331939697, -71.80607914924622, 430.11841410398483
 1.7054298558529415E9, 8.8560830950737, -107.46976512670517, -113.45360505580902, 409.29465115070343
 1.7054298558666708E9, -95.02337807416916, -247.4916194677353, -200.5783144235611, 310.4416155219078
 1.7054298558666708E9, -23.456652522087097, -115.60778743028641, -109.62394750118256, 390.86442416906357
 1.705429855882243E9, 48.58878022432327, -50.26425540447235, -62.949996054172516, 453.8144202232361
 1.705429855882243E9, -60.07775288820267, -211.34922629594803, -185.25968420505524, 327.1963673233986
 1.7054298558829477E9, -50.26425540447235, -160.12755650281906, -150.31405901908875, 337.4885720014572
 1.7054298558829477E9, 52.65779137611389, -25.850188493728638, -48.82813382148743, 463.38856410980225
 1.7054298558966007E9, -24.17471331357956, -169.22299319505692, -145.2876334786415, 378.1786835193634
 1.7054298558966007E9, -88.80018454790115, -209.4343975186348, -177.83972269296646, 324.32412415742874
 1.7054298559125907E9, 16.03669100999832, -51.700376987457275, -68.45512878894806, 438.25643640756607
 1.7054298559125907E9, 18.90893417596817, -97.89562124013901, -99.57109642028809, 432.03324288129807
 1.705429855927188E9, -89.51824533939362, -230.97622126340866, -194.8338280916214, 317.3828698396683
 1.705429855927188E9, -13.882508635520935, -100.28915721178055, -93.82661008834839, 407.8585295677185
 1.705429855927907E9, 47.15265864133835, -50.503609001636505, -60.79581367969513, 461.473735332489
 1.705429855927907E9, -69.17318958044052, -210.15245831012726, -185.4990378022194, 331.98343926668167
 1.7054298559422512E9, -70.13060396909714, -179.99390506744385, -155.8191917538643, 342.03629034757614
 1.7054298559422512E9, 36.860453963279724, -50.74296259880066, -63.90741044282913, 447.11251950263977
 1.705429855943008E9, -28.722431659698486, -167.786871612072, -159.4094957113266, 356.8762133717537
 1.705429855943008E9, -99.81045001745224, -226.42850291728973, -200.33896082639694, 311.15967631340027
 1.7054298559566443E9, 1.6754751801490784, -73.72090792655945, -88.80018454790115, 419.3475022315979
 1.7054298559566443E9, 14.361215829849243, -98.85303562879562, -126.6180528998375, 399.9598608613014
 1.7054298559721901E9, -98.61368203163147, -247.4916194677353, -219.72660219669342, 284.352073431015
 1.7054298559721901E9, -34.94562518596649, -123.74580973386765, -125.18193131685257, 373.6309651732445
 1.7054298559729333E9, 33.03079640865326, -69.89125037193298, -92.39048850536346, 414.799783885479
 1.7054298559729333E9, -87.36406296491623, -241.26842594146729, -202.97185039520264, 316.42545545101166
 1.7054298560030775E9, -75.15702950954437, -188.37128096818924, -165.39333564043045, 341.796936750412
 1.7054298560030775E9, 37.81786835193634, -42.60494029521942, -61.03516727685928, 454.7718346118927
 1.7054298560036962E9, -27.76501727104187, -172.57394355535507, -168.50493240356445, 361.18457812070847
 1.7054298560036962E9, -89.99695253372192, -225.71044212579727, -196.03059607744217, 303.2610076069832
 1.7054298560046759E9, 0.0, -76.5931510925293, -81.61957663297653, 421.9803918004036
 1.7054298560046759E9, -15.31863021850586, -134.03801441192627, -141.93668311834335, 380.8115730881691
 1.7054298560164807E9, -102.44333958625793, -247.25226587057114, -217.33306622505188, 293.44751012325287
 1.7054298560164807E9, -40.450757920742035, -127.33611369132996, -122.07033455371857, 383.4444626569748
 1.7054298560321555E9, 22.97794532775879, -78.02927267551422, -89.99695253372192, 438.97449719905853
 1.7054298560321555E9, -86.40664857625961, -235.76329320669174, -200.0996072292328, 321.21252739429474
 1.7054298560329127E9, -78.50797986984253, -179.27584427595139, -167.786871612072, 327.43572092056274
 1.7054298560329127E9, 16.51539820432663, -67.25836080312729, -65.82223922014236, 458.8408457636833
 1.705429856046564E9, -55.290680944919586, -191.96158492565155, -180.7119658589363, 355.44009178876877
 1.705429856046564E9, -102.20398598909378, -240.07165795564651, -204.1686183810234, 303.97906839847565
 1.7054298560623271E9, -0.23935359716415405, -81.61957663297653, -85.449234187603, 423.8952205777168
 1.7054298560623271E9, -13.882508635520935, -133.79866081476212, -131.40512484312057, 392.06119215488434
 1.7054298560629673E9, -106.99105793237686, -250.84256982803345, -223.55625975131989, 285.0701342225075
 1.7054298560629673E9, -44.041061878204346, -137.14961117506027, -137.62831836938858, 364.29617488384247
 1.705429856092924E9, 24.89277410507202, -73.00284713506699, -99.33174282312393, 417.911380648613
 1.705429856092924E9, -93.58725649118423, -256.58705615997314, -216.61500543355942, 307.09066516160965
 1.7054298560935996E9, -85.449234187603, -195.79124248027802, -168.7442860007286, 333.18020725250244
 1.7054298560935996E9, 33.03079640865326, -49.54619461297989, -69.65189677476883, 444.9583371281624
 1.7054298560943468E9, -44.041061878204346, -179.7545514702797, -178.31842988729477, 351.84978783130646
 1.7054298560943468E9, -106.51235073804855, -238.39618277549744, -199.38154643774033, 297.75587487220764
 1.7054298561064875E9, 6.7019007205963135, -70.36995756626129, -83.05569821596146, 419.10814863443375
 1.7054298561064875E9, 3.829657554626465, -109.14524030685425, -128.05417448282242, 400.1992144584656
 1.705429856137879E9, -104.83687555789948, -257.06576335430145, -214.46082305908203, 292.49009573459625
 1.705429856137879E9, -35.4243323802948, -122.30968815088272, -112.4961906671524, 381.2902802824974
 1.7054298561385908E9, 24.17471331357956, -75.63573670387268, -82.57699102163315, 437.5383756160736
 1.7054298561385908E9, -75.39638310670853, -218.52983421087265, -205.36538636684418, 309.24484753608704
 1.705429856139343E9, -73.24220073223114, -186.93515938520432, -163.71786046028137, 334.61632883548737
 1.705429856139343E9, 38.057221949100494, -47.15265864133835, -62.47128885984421, 453.8144202232361
 1.7054298561525393E9, -35.184978783130646, -179.99390506744385, -160.84561729431152, 363.57811409235
 1.7054298561525393E9, -95.02337807416916, -217.09371262788773, -187.17451298236847, 318.10093063116074
 1.7054298561529975E9, 14.600569427013397, -61.51387447118759, -70.8486647605896, 437.5383756160736
 1.7054298561529975E9, 2.3935359716415405, -115.60778743028641, -109.86330109834671, 408.8159439563751
 1.7054298561665845E9, -95.74143886566162, -238.39618277549744, -207.04086154699326, 304.2184219956398
 1.7054298561665845E9, -33.27015000581741, -120.63421297073364, -117.04390901327133, 382.4870482683182
 1.7054298561822035E9, 23.69600611925125, -79.94410145282745, -87.36406296491623, 432.2725964784622
 1.7054298561822035E9, -82.09828382730484, -225.23173493146896, -203.6899111866951, 309.9629083275795
 1.7054298561828887E9, -72.28478634357452, -174.9674795269966, -163.47850686311722, 343.2330583333969
 1.7054298561828887E9, 32.07338201999664, -56.487448930740356, -67.97642159461975, 456.2079561948776
 1.7054298561967442E9, -44.041061878204346, -187.41386657953262, -167.30816441774368, 355.44009178876877
 1.7054298561967442E9, -95.74143886566162, -225.71044212579727, -193.39770650863647, 295.8410460948944
 1.705429856212196E9, 19.38764137029648, -52.41843777894974, -72.52413994073868, 432.03324288129807
 1.705429856212196E9, 13.882508635520935, -110.10265469551086, -108.18782591819763, 427.00681734085083
 1.70542985621291E9, -88.560830950737, -233.8484644293785, -206.08344715833664, 314.5106266736984
 1.70542985621291E9, -17.7121661901474, -112.0174834728241, -113.45360505580902, 398.28438568115234
 1.7054298562431211E9, 48.58878022432327, -54.33326655626297, -65.58288562297821, 454.7718346118927
 1.7054298562431211E9, -61.9925816655159, -215.89694464206696, -185.25968420505524, 331.2653784751892
 1.705429856243672E9, -35.663685977458954, -147.4418158531189, -135.9528431892395, 364.7748820781708
 1.705429856243672E9, 87.12470936775208, -4.069011151790619, -32.55208921432495, 482.53685188293457
 1.7054298562443836E9, 24.653420507907867, -125.18193131685257, -137.14961117506027, 396.60891050100327
 1.7054298562443836E9, -15.797337412834167, -153.42565578222275, -134.75607520341873, 369.3226004242897
 1.7054298562565415E9, 92.15113490819931, 4.069011151790619, -27.76501727104187, 474.1594759821892
 1.7054298562565415E9, 112.0174834728241, -16.994105398654938, -36.62110036611557, 488.99939900636673
 1.7054298562725475E9, -3.590303957462311, -152.46824139356613, -146.48440146446228, 347.30206948518753
 1.7054298562725475E9, 87.84277015924454, -13.403801441192627, -33.27015000581741, 455.01118820905685
 1.7054298562730508E9, 144.8089262843132, 38.29657554626465, 1.4361215829849243, 526.0992065668106
 1.7054298562730508E9, 49.06748741865158, -107.46976512670517, -108.9058867096901, 411.9275407195091
 1.7054298562867515E9, 53.61520576477051, -63.18934965133667, -71.56672555208206, 427.96423172950745
 1.7054298562867515E9, 166.82945722341537, 75.63573670387268, 33.27015000581741, 550.2739198803902
 1.7054298563022068E9, 72.76349353790283, -65.58288562297821, -74.91767591238022, 447.83058029413223
 1.7054298563022068E9, 14.361215829849243, -113.45360505580902, -110.58136188983917, 386.0773522257805
 1.7054298563029408E9, 100.0498036146164, 20.823762953281403, -8.8560830950737, 494.02582454681396
 1.7054298563029408E9, 84.97052699327469, -38.29657554626465, -53.61520576477051, 472.72335439920425
 1.705429856316794E9, -39.253989934921265, -191.00417053699493, -168.50493240356445, 335.3343896269798
 1.705429856316794E9, 20.345055758953094, -65.34353202581406, -78.02927267551422, 422.69845259189606
 1.7054298563478594E9, 67.97642159461975, -21.541823744773865, -44.99847626686096, 476.31365835666656
 1.7054298563478594E9, -50.503609001636505, -199.14219284057617, -176.6429547071457, 340.83952236175537
 1.7054298563485785E9, -49.54619461297989, -150.5534126162529, -137.62831836938858, 362.6206997036934
 1.7054298563485785E9, 53.1364985704422, -26.5682492852211, -48.34942662715912, 468.4149896502495
 1.7054298563493268E9, -20.823762953281403, -148.15987664461136, -140.26120793819427, 382.00834107398987
 1.7054298563493268E9, -95.98079246282578, -210.63116550445557, -183.8235626220703, 319.2976986169815
 1.705429856362207E9, 0.9574143886566162, -71.08801835775375, -72.52413994073868, 432.9906572699547
 1.705429856362207E9, -10.531558275222778, -120.8735665678978, -121.59162735939026, 410.25206553936005
 1.705429856362924E9, -121.11292016506195, -259.21994572877884, -215.1788838505745, 298.23458206653595
 1.705429856362924E9, -38.5359291434288, -122.54904174804688, -120.63421297073364, 383.4444626569748
 1.7054298563765082E9, 1.4361215829849243, -92.62984210252762, -94.3053172826767, 433.469364464283
 1.7054298563765082E9, -107.23041152954102, -251.0819234251976, -219.48724859952927, 308.2874331474304
 1.7054298563922143E9, -93.58725649118423, -192.91899931430817, -170.41976118087769, 332.2227928638458
 1.7054298563922143E9, 14.600569427013397, -58.40227770805359, -83.53440541028976, 428.6822925209999
 1.7054298563929465E9, -60.556460082530975, -194.3551208972931, -178.79713708162308, 340.83952236175537
 1.7054298563929465E9, -129.01158887147903, -255.39028817415237, -209.67375111579895, 295.60169249773026
 1.7054298564066484E9, -31.594674825668335, -103.6401075720787, -106.75170433521271, 407.8585295677185
 1.7054298564066484E9, -37.578514754772186, -151.75018060207367, -143.13345110416412, 395.65149611234665
 1.705429856422238E9, -141.6973295211792, -275.4959903359413, -235.76329320669174, 277.41081911325455
 1.705429856422238E9, -59.59904569387436, -136.67090398073196, -144.09086549282074, 366.92906445264816
 1.7054298564229224E9, -2.6328895688056946, -96.93820685148239, -106.99105793237686, 412.88495510816574
 1.7054298564229224E9, -117.28326261043549, -265.2037856578827, -228.1039780974388, 285.0701342225075
 1.7054298564368284E9, -109.3845939040184, -212.78534787893295, -185.73839139938354, 319.05834501981735
 1.7054298564368284E9, 5.505132734775543, -71.80607914924622, -80.66216224431992, 436.580961227417
 1.705429856452423E9, -75.63573670387268, -206.56215435266495, -189.56804895401, 338.92469358444214
 1.705429856452423E9, -129.96900326013565, -250.12450903654099, -225.94979572296143, 282.4372446537018
 1.7054298564531424E9, -28.004370868206024, -104.83687555789948, -104.59752196073532, 401.87468963861465
 1.7054298564531424E9, -41.40817230939865, -165.6326892375946, -147.9205230474472, 376.98191553354263
 1.7054298564665005E9, -140.73991513252258, -281.00112307071686, -240.07165795564651, 269.7515040040016
 1.7054298564665005E9, -61.753228068351746, -141.45797592401505, -137.86767196655273, 366.689710855484
 1.7054298564824252E9, 3.590303957462311, -91.91178131103516, -114.41101944446564, 403.7895184159279
 1.7054298564824252E9, -114.41101944446564, -258.9805921316147, -217.33306622505188, 302.30359321832657
 1.7054298564830065E9, -112.97489786148071, -220.68401658535004, -179.51519787311554, 332.46214646101
 1.7054298564830065E9, -0.9574143886566162, -77.55056548118591, -95.50208526849747, 428.6822925209999
 1.7054298564965107E9, -74.91767591238022, -216.37565183639526, -188.6106345653534, 339.6427543759346
 1.7054298564965107E9, -125.18193131685257, -252.99675220251083, -215.1788838505745, 300.1494108438492
 1.7054298565115345E9, -12.925094246864319, -83.29505181312561, -97.65626764297485, 408.8159439563751
 1.7054298565115345E9, -28.722431659698486, -150.0747054219246, -146.00569427013397, 381.7689874768257
 1.7054298565272105E9, -47.63136583566666, -132.60189282894135, -127.81482088565826, 381.05092668533325
 1.7054298565272105E9, -10.531558275222778, -104.83687555789948, -106.99105793237686, 420.3049166202545
 1.7054298565279272E9, -111.77812987565994, -259.9380065202713, -217.57241982221603, 292.2507421374321
 1.7054298565279272E9, -106.2729971408844, -213.50340867042542, -178.31842988729477, 319.53705221414566
 1.7054298565416753E9, 12.685740649700165, -65.34353202581406, -85.20988059043884, 444.4796299338341
 1.7054298565416753E9, -67.49771440029144, -204.88667917251587, -187.65322017669678, 344.908533513546
 1.7054298565572355E9, -113.21425145864487, -239.83230435848236, -203.2112039923668, 303.97906839847565
 1.7054298565572355E9, -11.728326261043549, -84.97052699327469, -86.88535577058792, 421.5016846060753
 1.7054298565579383E9, -36.381746768951416, -155.57983815670013, -149.35664463043213, 378.6573907136917
 1.7054298565579383E9, -112.0174834728241, -250.6032162308693, -215.41823744773865, 286.0275486111641
 1.7054298565715432E9, -48.110073029994965, -139.5431471467018, -120.15550577640533, 375.78514754772186
 1.7054298565715432E9, 11.967679858207703, -80.42280864715576, -105.55493634939194, 425.0919885635376
 1.705429856587466E9, -89.99695253372192, -249.40644824504852, -211.58857989311218, 297.9952284693718
 1.705429856587466E9, -75.39638310670853, -188.84998816251755, -178.55778348445892, 319.2976986169815
 1.705429856588008E9, 28.483078062534332, -55.769388139247894, -77.31121188402176, 437.5383756160736
 1.705429856588008E9, -63.90741044282913, -204.88667917251587, -182.3874410390854, 331.7440856695175
 1.7054298566015055E9, -113.69295865297318, -242.46519392728806, -217.57241982221603, 267.1186144351959
 1.7054298566015055E9, 9.095436692237854, -71.08801835775375, -83.05569821596146, 424.85263496637344
 1.705429856617179E9, -6.223193526268005, -124.46387052536011, -126.37869930267334, 397.3269712924957
 1.705429856617179E9, -118.2406769990921, -262.81024968624115, -223.07755255699158, 285.5488414168358
 1.7054298566179705E9, -38.77528274059296, -127.57546728849411, -128.77223527431488, 377.2212691307068
 1.7054298566179705E9, 22.97794532775879, -80.42280864715576, -97.65626764297485, 427.00681734085083
 1.7054298566480474E9, -88.08212375640869, -230.49751406908035, -211.10987269878387, 308.04807955026627
 1.7054298566480474E9, -82.09828382730484, -189.0893417596817, -172.33458995819092, 325.9995993375778
 1.70542985664863E9, 25.850188493728638, -58.8809849023819, -78.02927267551422, 433.469364464283
 1.70542985664863E9, -61.51387447118759, -206.3228007555008, -183.8235626220703, 327.91442811489105
 1.705429856649582E9, -108.9058867096901, -241.7471331357956, -199.14219284057617, 305.8938971757889
 1.705429856649582E9, 4.069011151790619, -69.65189677476883, -83.29505181312561, 424.134574174881
 1.7054298566614857E9, -9.574143886566162, -127.0967600941658, -135.71348959207535, 385.5986450314522
 1.7054298566614857E9, -112.25683706998825, -256.347702562809, -221.8807845711708, 282.67659825086594
 1.7054298566777008E9, -38.5359291434288, -124.70322412252426, -127.81482088565826, 360.466517329216
 1.7054298566777008E9, 14.600569427013397, -86.16729497909546, -85.9279413819313, 441.1286795735359
 1.7054298566781113E9, -100.28915721178055, -251.79998421669006, -218.52983421087265, 304.2184219956398
 1.7054298566781113E9, -78.26862627267838, -189.0893417596817, -174.9674795269966, 331.02602487802505
 1.705429856691517E9, 10.531558275222778, -65.1041784286499, -80.90151584148407, 435.86290043592453
 1.705429856691517E9, -54.093912959098816, -191.96158492565155, -182.14808744192123, 334.13762164115906
 1.7054298567075207E9, -113.93231225013733, -240.55036514997482, -199.86025363206863, 298.9526428580284
 1.7054298567075207E9, 0.0, -84.49181979894638, -82.57699102163315, 432.03324288129807
 1.705429856708114E9, -8.616729497909546, -127.33611369132996, -130.2083568572998, 400.6779216527939
 1.705429856708114E9, -116.08649462461472, -257.3051169514656, -222.12013816833496, 284.8307806253433
 1.7054298567214797E9, -23.935359716415405, -112.4961906671524, -121.3522737622261, 374.34902596473694
 1.7054298567214797E9, 28.004370868206024, -81.14086943864822, -95.98079246282578, 429.8790605068207
 1.7054298567374535E9, -91.1937205195427, -246.29485148191452, -204.88667917251587, 315.7073946595192
 1.7054298567374535E9, -74.91767591238022, -186.456452190876, -163.47850686311722, 340.36081516742706
 1.7054298567379496E9, 30.397906839847565, -48.58878022432327, -66.77965360879898, 442.08609396219254
 1.7054298567379496E9, -46.913305044174194, -191.2435241341591, -168.02622520923615, 354.96138459444046
 1.70542985675148E9, -99.33174282312393, -227.86462450027466, -192.2009385228157, 310.20226192474365
 1.70542985675148E9, 6.9412543177604675, -74.19961512088776, -78.26862627267838, 419.8262094259262
 1.7054298567672036E9, -2.8722431659698486, -124.94257771968842, -132.60189282894135, 396.13020330667496
 1.7054298567672036E9, -109.3845939040184, -254.6722273826599, -212.78534787893295, 296.798460483551
 1.705429856767948E9, -27.525663673877716, -117.04390901327133, -110.82071548700333, 390.1463633775711
 1.705429856767948E9, 24.17471331357956, -78.74733346700668, -84.01311260461807, 438.4957900047302
 1.7054298567978492E9, -85.68858778476715, -241.98648673295975, -208.9556903243065, 305.41518998146057
 1.7054298567978492E9, -76.11444389820099, -177.83972269296646, -162.5210924744606, 333.18020725250244
 1.7054298567985651E9, 28.243724465370178, -50.98231619596481, -71.32737195491791, 452.37829864025116
 1.7054298567985651E9, -48.34942662715912, -186.93515938520432, -175.20683312416077, 338.2066327929497
 1.705429856799363E9, -95.02337807416916, -219.2478950023651, -181.43002665042877, 325.0421849489212
 1.705429856799363E9, 9.574143886566162, -59.12033849954605, -73.4815543293953, 437.77772921323776
 1.7054298568116035E9, -3.829657554626465, -120.39485937356949, -116.80455541610718, 412.6456015110016
 1.7054298568116035E9, -97.89562124013901, -242.7045475244522, -212.5459942817688, 298.71328926086426
 1.7054298568271904E9, -29.679846048355103, -109.62394750118256, -112.73554426431656, 385.359291434288
 1.7054298568271904E9, 21.541823744773865, -78.98668706417084, -90.23630613088608, 432.5119500756264
 1.7054298568279085E9, -89.03953814506531, -238.39618277549744, -208.9556903243065, 303.97906839847565
 1.7054298568279085E9, -73.72090792655945, -176.16424751281738, -166.1113964319229, 330.06861048936844
 1.7054298568416088E9, 34.22756439447403, -48.34942662715912, -76.11444389820099, 446.3944587111473
 1.7054298568416088E9, -44.2804154753685, -186.69580578804016, -179.99390506744385, 346.58400869369507
 1.705429856857216E9, -100.5285108089447, -230.49751406908035, -189.0893417596817, 313.31385868787766
 1.705429856857216E9, 9.813497483730316, -68.69448238611221, -79.22604066133499, 424.85263496637344
 1.7054298568579316E9, 0.9574143886566162, -123.50645613670349, -129.7296496629715, 397.80567848682404
 1.7054298568579316E9, -102.20398598909378, -244.8587298989296, -217.57241982221603, 293.2081565260887
 1.7054298568717148E9, -22.259884536266327, -108.18782591819763, -106.51235073804855, 399.4811536669731
 1.7054298568717148E9, 23.935359716415405, -75.63573670387268, -86.16729497909546, 440.6499723792076
 1.7054298568871963E9, -90.95436692237854, -242.46519392728806, -209.4343975186348, 317.3828698396683
 1.7054298568871963E9, -71.56672555208206, -172.57394355535507, -156.05854535102844, 342.51499754190445
 1.7054298568879335E9, 27.046956479549408, -43.08364748954773, -72.04543274641037, 446.3944587111473
 1.7054298568879335E9, -53.61520576477051, -192.679645717144, -174.9674795269966, 349.4562518596649
 1.7054298569180093E9, -98.37432843446732, -225.47108852863312, -192.679645717144, 304.6971291899681
 1.7054298569180093E9, 16.276044607162476, -64.86482483148575, -88.560830950737, 409.77335834503174
 1.7054298569186804E9, -15.31863021850586, -145.52698707580566, -149.11729103326797, 379.6148051023483
 1.7054298569186804E9, -117.28326261043549, -258.02317774295807, -217.57241982221603, 294.16557091474533
 1.70542985691956E9, -27.76501727104187, -110.10265469551086, -100.0498036146164, 405.7043471932411
 1.70542985691956E9, 20.58440935611725, -75.15702950954437, -83.05569821596146, 451.6602378487587
 1.705429856931682E9, -88.80018454790115, -232.17298924922943, -192.91899931430817, 330.54731768369675
 1.705429856931682E9, -76.5931510925293, -168.02622520923615, -151.51082700490952, 353.52526301145554
 1.7054298569474325E9, 41.647525906562805, -28.243724465370178, -53.1364985704422, 465.7821000814438
 1.7054298569474325E9, -40.21140432357788, -175.92489391565323, -159.8882029056549, 369.08324682712555
 1.705429856947986E9, -100.28915721178055, -213.74276226758957, -176.16424751281738, 337.4885720014572
 1.705429856947986E9, 12.685740649700165, -54.81197375059128, -65.1041784286499, 455.250541806221
 1.7054298569618146E9, -7.180607914924622, -128.05417448282242, -112.0174834728241, 420.54427021741867
 1.7054298569618146E9, -109.3845939040184, -248.4490338563919, -198.66348564624786, 313.0745050907135
 1.705429856977494E9, -22.738591730594635, -94.3053172826767, -95.02337807416916, 407.14046877622604
 1.705429856977494E9, 30.15855324268341, -65.34353202581406, -81.61957663297653, 428.2035853266716
 1.7054298569780512E9, -81.61957663297653, -223.07755255699158, -186.93515938520432, 348.25948387384415
 1.7054298569780512E9, -67.01900720596313, -162.0423852801323, -141.93668311834335, 378.6573907136917
 1.7054298569915335E9, 32.07338201999664, -46.913305044174194, -58.8809849023819, 472.72335439920425
 1.7054298569915335E9, -43.80170828104019, -181.43002665042877, -155.34048455953598, 372.67355078458786
 1.705429857007993E9, -101.00721800327301, -213.50340867042542, -174.01006513834, 334.8556824326515
 1.705429857007993E9, 12.207033455371857, -55.53003454208374, -62.949996054172516, 453.8144202232361
 1.7054298570080757E9, 3.590303957462311, -111.29942268133163, -115.36843383312225, 420.7836238145828
 1.7054298570080757E9, -97.89562124013901, -237.19941478967667, -199.86025363206863, 314.0319194793701
 1.7054298570215504E9, -19.626994967460632, -98.61368203163147, -94.784024477005, 410.25206553936005
 1.7054298570215504E9, 27.286310076713562, -71.56672555208206, -72.52413994073868, 460.0376137495041
 1.70542985703746E9, -89.27889174222946, -235.5239396095276, -202.25378960371017, 321.9305881857872
 1.70542985703746E9, -69.17318958044052, -169.22299319505692, -150.79276621341705, 355.9187989830971
 1.7054298570379288E9, 33.988210797309875, -50.98231619596481, -61.27452087402344, 463.38856410980225
 1.7054298570379288E9, -48.110073029994965, -182.8661482334137, -169.22299319505692, 364.5355284810066
 1.7054298570516655E9, -97.89562124013901, -221.4020773768425, -187.41386657953262, 320.73382019996643
 1.7054298570516655E9, 15.557983815670013, -51.700376987457275, -69.65189677476883, 449.5060554742813
 1.7054298570672057E9, -11.488972663879395, -134.27736800909042, -125.18193131685257, 407.14046877622604
 1.7054298570672057E9, -102.20398598909378, -241.7471331357956, -206.56215435266495, 302.5429468154907
 1.7054298570680585E9, -21.541823744773865, -105.55493634939194, -108.9058867096901, 400.6779216527939
 1.7054298570680585E9, 23.456652522087097, -67.97642159461975, -91.1937205195427, 438.0170828104019
 1.7054298570815632E9, -81.61957663297653, -232.65169644355774, -204.1686183810234, 311.6383835077286
 1.7054298570815632E9, -80.66216224431992, -184.54162341356277, -151.75018060207367, 345.3872407078743
 1.705429857097202E9, 27.76501727104187, -49.06748741865158, -63.90741044282913, 466.50016087293625
 1.705429857097202E9, -46.19524425268173, -196.26994967460632, -170.18040758371353, 363.81746768951416
 1.70542985709793E9, -98.37432843446732, -221.16272377967834, -192.44029211997986, 311.15967631340027
 1.70542985709793E9, 16.03669100999832, -57.68421691656113, -67.01900720596313, 438.97449719905853
 1.70542985711159E9, -3.3509503602981567, -126.13934570550919, -131.16577124595642, 399.9598608613014
 1.70542985711159E9, -103.87946116924286, -241.26842594146729, -208.47698312997818, 299.910057246685
 1.7054298571272297E9, -31.83402842283249, -117.28326261043549, -109.3845939040184, 397.0876176953316
 1.7054298571272297E9, 16.276044607162476, -79.7047478556633, -83.53440541028976, 436.82031482458115
 1.7054298571279442E9, -92.15113490819931, -241.98648673295975, -208.9556903243065, 306.3726043701172
 1.7054298571279442E9, -51.22166979312897, -154.1437165737152, -145.2876334786415, 358.07298135757446
 1.7054298571419127E9, 45.95589065551758, -40.450757920742035, -57.92357051372528, 466.50016087293625
 1.7054298571419127E9, -48.110073029994965, -187.65322017669678, -159.8882029056549, 364.7748820781708
 1.7054298571572149E9, -97.17756044864655, -218.05112701654434, -186.93515938520432, 322.8880025744438
 1.7054298571572149E9, 17.472812592983246, -55.769388139247894, -72.04543274641037, 438.0170828104019
 1.705429857157944E9, -6.223193526268005, -131.64447844028473, -120.63421297073364, 402.5927504301071
 1.705429857157944E9, -97.89562124013901, -239.83230435848236, -206.56215435266495, 302.0642396211624
 1.7054298571716404E9, -12.207033455371857, -98.85303562879562, -97.4169140458107, 409.0552975535393
 1.7054298571716404E9, 27.286310076713562, -75.39638310670853, -86.16729497909546, 434.66613245010376
 1.7054298572031176E9, -80.18345504999161, -234.80587881803513, -196.50930327177048, 323.84541696310043
 1.7054298572031176E9, -57.44486331939697, -156.7766061425209, -143.85151189565659, 362.38134610652924
 1.7054298572037563E9, 33.27015000581741, -50.74296259880066, -63.66805684566498, 465.7821000814438
 1.7054298572037563E9, -40.21140432357788, -173.77071154117584, -160.84561729431152, 360.22716373205185
 1.7054298572046812E9, -95.26273167133331, -224.27432054281235, -185.4990378022194, 322.4092953801155
 1.7054298572046812E9, 17.951519787311554, -60.31710648536682, -70.13060396909714, 439.45320439338684
 1.7054298572171776E9, 1.1967679858207703, -121.59162735939026, -121.3522737622261, 408.3372367620468
 1.7054298572171776E9, -98.37432843446732, -243.66196191310883, -204.40797197818756, 299.19199645519257
 1.7054298572178967E9, -24.653420507907867, -109.86330109834671, -105.07622915506363, 392.53989934921265
 1.7054298572178967E9, 30.397906839847565, -67.25836080312729, -82.57699102163315, 426.5281101465225
 1.7054298572316413E9, -86.88535577058792, -235.28458601236343, -199.38154643774033, 321.69123458862305
 1.7054298572316413E9, -59.12033849954605, -163.71786046028137, -135.23478239774704, 370.2800148129463
 1.705429857247194E9, 43.56235468387604, -40.21140432357788, -59.59904569387436, 469.3724040389061
 1.705429857247194E9, -43.80170828104019, -185.02033060789108, -168.7442860007286, 359.74845653772354
 1.7054298572481608E9, -88.32147735357285, -211.82793349027634, -188.13192737102509, 317.3828698396683
 1.7054298572481608E9, 28.96178525686264, -47.63136583566666, -62.949996054172516, 437.5383756160736
 1.7054298572614968E9, 5.026425540447235, -113.45360505580902, -115.1290802359581, 410.73077273368835
 1.7054298572614968E9, -102.44333958625793, -244.61937630176544, -201.29637521505356, 303.02165400981903
 1.7054298572774467E9, -12.925094246864319, -96.22014605998993, -97.17756044864655, 415.7571982741356
 1.7054298572774467E9, 27.76501727104187, -76.83250468969345, -85.68858778476715, 441.6073867678642
 1.7054298572779665E9, -85.20988059043884, -237.19941478967667, -201.29637521505356, 317.8615770339966
 1.7054298572779665E9, -57.92357051372528, -151.98953419923782, -138.34637916088104, 361.4239317178726
 1.7054298572915027E9, 48.58878022432327, -33.74885720014572, -53.85455936193466, 460.27696734666824
 1.7054298572915027E9, -26.5682492852211, -170.18040758371353, -155.34048455953598, 371.71613639593124
 1.705429857307192E9, -78.50797986984253, -207.75892233848572, -165.87204283475876, 338.92469358444214
 1.705429857307192E9, 26.328895688056946, -54.33326655626297, -53.1364985704422, 451.6602378487587
 1.70542985730791E9, -11.24961906671524, -129.96900326013565, -117.7619698047638, 405.7043471932411
 1.70542985730791E9, -112.0174834728241, -255.15093457698822, -216.1362982392311, 292.2507421374321
 1.7054298573216023E9, -9.095436692237854, -88.08212375640869, -85.20988059043884, 413.36366230249405
 1.7054298573216023E9, 40.69011151790619, -52.65779137611389, -71.08801835775375, 461.473735332489
 1.7054298573374736E9, -65.34353202581406, -207.2802151441574, -168.98363959789276, 351.37108063697815
 1.7054298573374736E9, -58.8809849023819, -156.7766061425209, -123.50645613670349, 385.11993783712387
 1.7054298573522673E9, 40.450757920742035, -27.046956479549408, -39.49334353208542, 489.7174597978592
 1.7054298573522673E9, -46.434597849845886, -172.81329715251923, -147.68116945028305, 383.9231698513031
 1.7054298573529325E9, -93.58725649118423, -203.92926478385925, -166.59010362625122, 349.9349590539932
 1.7054298573529325E9, 12.685740649700165, -48.34942662715912, -50.98231619596481, 469.61175763607025
 1.7054298573671684E9, -5.983839929103851, -114.17166584730148, -104.59752196073532, 434.4267788529396
 1.7054298573671684E9, -109.86330109834671, -234.80587881803513, -188.13192737102509, 325.0421849489212
 1.705429857367902E9, -23.935359716415405, -96.45949965715408, -95.26273167133331, 417.43267345428467
 1.705429857367902E9, 20.823762953281403, -70.36995756626129, -79.22604066133499, 456.68666338920593
 1.7054298573815486E9, -88.560830950737, -223.79561334848404, -194.3551208972931, 329.8292568922043
 1.7054298573815486E9, -68.69448238611221, -159.64884930849075, -130.44771045446396, 380.09351229667664
 1.7054298573971913E9, 31.35532122850418, -44.2804154753685, -50.503609001636505, 473.20206159353256
 1.7054298573971913E9, -49.306841015815735, -177.121661901474, -156.2978989481926, 370.9980756044388
 1.705429857397904E9, -93.34790289402008, -218.2904806137085, -173.5313579440117, 342.7543511390686
 1.705429857397904E9, 14.121862232685089, -49.78554821014404, -55.769388139247894, 458.60149216651917
 1.705429857411522E9, -6.7019007205963135, -118.95873779058456, -109.3845939040184, 424.85263496637344
 1.705429857411522E9, -107.23041152954102, -237.43876838684082, -196.03059607744217, 320.2551130056381
 1.705429857427601E9, -25.610834896564484, -96.45949965715408, -98.13497483730316, 409.29465115070343
 1.705429857427601E9, 26.08954209089279, -64.6254712343216, -74.43896871805191, 459.79826015233994
 1.7054298574280932E9, -93.58725649118423, -235.76329320669174, -197.9454248547554, 323.6060633659363
 1.7054298574280932E9, -72.52413994073868, -168.2655788064003, -142.65474390983582, 364.5355284810066
 1.70542985744156E9, 33.03079640865326, -42.36558669805527, -53.375852167606354, 470.09046483039856
 1.70542985744156E9, -55.769388139247894, -183.8235626220703, -161.08497089147568, 370.2800148129463
 1.7054298574731336E9, -97.89562124013901, -212.0672870874405, -174.01006513834, 336.29180401563644
 1.7054298574731336E9, 13.643155038356781, -48.34942662715912, -67.7370679974556, 446.15510511398315
 1.7054298574738743E9, -7.180607914924622, -123.26710253953934, -116.56520181894302, 408.3372367620468
 1.7054298574738743E9, -106.99105793237686, -242.46519392728806, -203.92926478385925, 314.27127307653427
 1.7054298574744885E9, -17.951519787311554, -92.15113490819931, -94.54467087984085, 413.84236949682236
 1.7054298574744885E9, 26.807602882385254, -68.45512878894806, -78.26862627267838, 445.915751516819
 1.705429857487214E9, -84.97052699327469, -224.0349669456482, -200.33896082639694, 322.8880025744438
 1.705429857487214E9, -58.64163130521774, -161.80303168296814, -145.52698707580566, 366.689710855484
 1.7054298574879532E9, 38.057221949100494, -38.29657554626465, -63.428703248500824, 458.8408457636833
 1.7054298574879532E9, -50.98231619596481, -190.52546334266663, -167.06881082057953, 358.55168855190277
 1.705429857501632E9, -91.1937205195427, -211.10987269878387, -176.16424751281738, 325.5208921432495
 1.705429857501632E9, 26.08954209089279, -41.1688187122345, -58.64163130521774, 443.2828619480133
 1.7054298575169156E9, -6.7019007205963135, -125.18193131685257, -111.29942268133163, 419.58685582876205
 1.7054298575169156E9, -117.52261620759964, -252.75739860534668, -220.68401658535004, 300.86747163534164
 1.7054298575325367E9, 27.286310076713562, -72.52413994073868, -85.68858778476715, 437.5383756160736
 1.7054298575325367E9, -89.27889174222946, -233.13040363788605, -201.0570216178894, 310.4416155219078
 1.7054298575331175E9, -64.6254712343216, -161.32432448863983, -148.15987664461136, 356.3975061774254
 1.7054298575331175E9, 39.49334353208542, -46.913305044174194, -65.82223922014236, 457.64407777786255
 1.7054298575465834E9, -45.237829864025116, -184.30226981639862, -166.35075002908707, 346.3446550965309
 1.7054298575465834E9, -85.449234187603, -208.9556903243065, -178.07907629013062, 325.76024574041367
 1.7054298575622263E9, 30.63726043701172, -43.08364748954773, -64.6254712343216, 450.4634698629379
 1.7054298575622263E9, -0.9574143886566162, -126.13934570550919, -119.91615217924118, 398.28438568115234
 1.7054298575629413E9, -102.68269318342209, -245.3374370932579, -199.86025363206863, 304.6971291899681
 1.7054298575629413E9, -16.994105398654938, -104.35816836357117, -101.72527879476547, 404.98628640174866
 1.705429857576894E9, 25.610834896564484, -70.60931116342545, -81.85893023014069, 434.4267788529396
 1.705429857576894E9, -80.90151584148407, -233.60911083221436, -208.23762953281403, 297.9952284693718
 1.7054298575924273E9, -58.64163130521774, -165.1539820432663, -157.97337412834167, 350.1743126511574
 1.7054298575924273E9, 41.40817230939865, -40.21140432357788, -67.01900720596313, 457.64407777786255
 1.705429857592939E9, -46.913305044174194, -183.10550183057785, -167.06881082057953, 361.4239317178726
 1.705429857592939E9, -96.22014605998993, -224.0349669456482, -187.65322017669678, 318.10093063116074
 1.7054298576065948E9, 24.414066910743713, -50.26425540447235, -62.47128885984421, 442.804154753685
 1.7054298576065948E9, 4.308364748954773, -122.54904174804688, -123.02774894237518, 400.6779216527939
 1.7054298576222167E9, -96.69885325431824, -239.1142435669899, -205.12603276968002, 295.8410460948944
 1.7054298576222167E9, -16.754751801490784, -99.33174282312393, -103.40075397491455, 393.01860654354095
 1.705429857622914E9, 36.381746768951416, -71.80607914924622, -90.47565972805023, 433.469364464283
 1.705429857622914E9, -79.46539425849915, -231.45492845773697, -194.3551208972931, 322.8880025744438
 1.705429857636612E9, -62.47128885984421, -162.28173887729645, -139.0644399523735, 365.01423567533493
 1.705429857636612E9, 39.97205072641373, -48.34942662715912, -61.03516727685928, 459.0801993608475
 1.705429857652395E9, -46.19524425268173, -192.679645717144, -177.36101549863815, 349.9349590539932
 1.705429857652395E9, -89.51824533939362, -214.93953025341034, -184.06291621923447, 310.9203227162361
 1.705429857652953E9, 24.89277410507202, -60.79581367969513, -68.2157751917839, 442.08609396219254
 1.705429857652953E9, 1.1967679858207703, -124.46387052536011, -126.85740649700165, 400.1992144584656
 1.7054298576668055E9, -99.81045001745224, -244.61937630176544, -207.51956874132156, 293.9262173175812
 1.7054298576668055E9, -16.51539820432663, -99.81045001745224, -101.72527879476547, 395.17278891801834
 1.7054298576823256E9, 19.626994967460632, -79.46539425849915, -80.90151584148407, 438.97449719905853
 1.7054298576823256E9, -91.672427713871, -240.55036514997482, -204.64732557535172, 315.46804106235504
 1.7054298576830473E9, -59.83839929103851, -158.21272772550583, -145.2876334786415, 356.15815258026123
 1.7054298576830473E9, 39.73269712924957, -45.237829864025116, -70.13060396909714, 445.915751516819
 1.7054298576966069E9, -49.78554821014404, -198.66348564624786, -180.233258664608, 343.9511191248894
 1.7054298576966069E9, -92.86919569969177, -220.68401658535004, -189.32869535684586, 311.87773710489273
 1.7054298577122064E9, 25.850188493728638, -50.503609001636505, -67.25836080312729, 438.97449719905853
 1.7054298577122064E9, 0.0, -121.3522737622261, -127.57546728849411, 397.3269712924957
 1.705429857712993E9, -104.59752196073532, -240.07165795564651, -212.30664068460464, 281.00112307071686
 1.705429857712993E9, -10.05285108089447, -90.95436692237854, -105.79428994655609, 398.76309287548065
 1.7054298577265625E9, 31.594674825668335, -75.87509030103683, -78.26862627267838, 455.48989540338516
 1.7054298577265625E9, -80.90151584148407, -231.21557486057281, -204.1686183810234, 313.31385868787766
 1.7054298577580085E9, -58.40227770805359, -160.84561729431152, -142.41539031267166, 347.5414230823517
 1.7054298577580085E9, 38.77528274059296, -50.0249018073082, -67.25836080312729, 459.79826015233994
 1.705429857758813E9, -44.75912266969681, -184.78097701072693, -170.65911477804184, 356.3975061774254
 1.705429857758813E9, -91.91178131103516, -214.22146946191788, -186.456452190876, 320.73382019996643
 1.705429857759426E9, 16.754751801490784, -59.359692096710205, -73.00284713506699, 436.1022540330887
 1.705429857759426E9, -13.643155038356781, -134.27736800909042, -144.56957268714905, 377.2212691307068
 1.7054298577721968E9, -102.92204678058624, -247.25226587057114, -212.5459942817688, 297.0378140807152
 1.7054298577721968E9, -23.69600611925125, -113.69295865297318, -116.08649462461472, 387.75282740592957
 1.7054298577729096E9, 17.472812592983246, -83.29505181312561, -100.28915721178055, 418.15073424577713
 1.7054298577729096E9, -94.3053172826767, -247.25226587057114, -220.68401658535004, 296.55910688638687
 1.7054298577867365E9, -60.556460082530975, -161.56367808580399, -144.3302190899849, 363.33876049518585
 1.7054298577867365E9, 39.73269712924957, -42.844293892383575, -63.18934965133667, 459.0801993608475
 1.7054298578023663E9, -47.15265864133835, -185.73839139938354, -173.5313579440117, 353.2859094142914
 1.7054298578023663E9, -95.74143886566162, -211.82793349027634, -184.54162341356277, 321.9305881857872
 1.7054298578031833E9, 24.17471331357956, -43.08364748954773, -65.34353202581406, 450.94217705726624
 1.7054298578031833E9, -5.505132734775543, -126.37869930267334, -118.95873779058456, 404.50757920742035
 1.7054298578164997E9, -107.23041152954102, -244.61937630176544, -205.84409356117249, 303.97906839847565
 1.7054298578164997E9, -22.020530939102173, -92.86919569969177, -94.54467087984085, 414.5604302883148
 1.7054298578322444E9, 22.49923813343048, -68.93383598327637, -79.22604066133499, 445.67639791965485
 1.7054298578322444E9, -83.77375900745392, -223.07755255699158, -200.33896082639694, 325.9995993375778
 1.7054298578329425E9, -61.753228068351746, -156.05854535102844, -142.89409750699997, 369.801307618618
 1.7054298578329425E9, 38.77528274059296, -40.450757920742035, -66.06159281730652, 465.3033928871155
 1.7054298578467274E9, -60.556460082530975, -202.97185039520264, -168.50493240356445, 355.6794453859329
 1.7054298578467274E9, -109.14524030685425, -224.75302773714066, -194.59447449445724, 313.31385868787766
 1.705429857862272E9, 16.51539820432663, -54.33326655626297, -74.91767591238022, 436.1022540330887
 1.705429857862272E9, -6.462547123432159, -124.22451692819595, -124.94257771968842, 406.1830543875694
 1.7054298578630333E9, -103.1614003777504, -234.56652522087097, -201.0570216178894, 310.20226192474365
 1.7054298578630333E9, -20.823762953281403, -98.85303562879562, -100.76786440610886, 407.3798223733902
 1.7054298578765652E9, 17.472812592983246, -79.7047478556633, -91.43307411670685, 437.77772921323776
 1.7054298578765652E9, -91.43307411670685, -235.04523241519928, -202.25378960371017, 314.27127307653427
 1.705429857892269E9, -64.86482483148575, -160.60626369714737, -147.9205230474472, 361.6632853150368
 1.705429857892269E9, 50.26425540447235, -33.50950360298157, -51.46102339029312, 468.1756360530853
 1.7054298578929667E9, -50.503609001636505, -184.54162341356277, -168.98363959789276, 357.354920566082
 1.7054298578929667E9, -90.23630613088608, -207.99827593564987, -186.69580578804016, 324.80283135175705
 1.705429857906701E9, 13.403801441192627, -56.966156125068665, -80.42280864715576, 432.2725964784622
 1.705429857906701E9, -1.4361215829849243, -121.11292016506195, -133.3199536204338, 393.49731373786926
 1.705429857922365E9, -98.13497483730316, -233.13040363788605, -201.5357288122177, 305.1758363842964
 1.705429857922365E9, -20.10570216178894, -98.85303562879562, -94.54467087984085, 412.40624791383743
 1.70542985792308E9, 34.22756439447403, -58.8809849023819, -84.73117339611053, 447.11251950263977
 1.70542985792308E9, -83.77375900745392, -231.69428205490112, -201.77508240938187, 320.73382019996643
 1.705429857936967E9, -68.2157751917839, -158.45208132266998, -139.5431471467018, 358.3123349547386
 1.705429857936967E9, 41.1688187122345, -37.578514754772186, -61.9925816655159, 453.0963594317436
 1.705429857952217E9, -44.041061878204346, -187.89257377386093, -166.1113964319229, 357.59427416324615
 1.705429857952217E9, -78.50797986984253, -195.07318168878555, -182.3874410390854, 330.06861048936844
 1.7054298579529557E9, 28.722431659698486, -43.08364748954773, -59.359692096710205, 451.1815306544304
 1.7054298579529557E9, 4.547718346118927, -117.28326261043549, -122.78839534521103, 402.5927504301071
 1.7054298579665146E9, -99.57109642028809, -239.5929507613182, -204.40797197818756, 308.04807955026627
 1.7054298579665146E9, -14.839923024177551, -98.61368203163147, -96.93820685148239, 404.02887201309204
 1.705429857982437E9, 31.35532122850418, -66.06159281730652, -80.66216224431992, 443.52221554517746
 1.705429857982437E9, -78.26862627267838, -218.05112701654434, -205.36538636684418, 307.3300187587738
 1.7054298579829907E9, -61.51387447118759, -161.56367808580399, -143.37280470132828, 358.55168855190277
 1.7054298579829907E9, 36.62110036611557, -49.06748741865158, -63.90741044282913, 460.0376137495041
 1.7054298579965122E9, -46.19524425268173, -185.73839139938354, -178.31842988729477, 350.6530198454857
 1.7054298579965122E9, -95.02337807416916, -216.37565183639526, -190.52546334266663, 314.27127307653427
 1.705429858012267E9, 18.190873384475708, -53.1364985704422, -70.60931116342545, 443.2828619480133
 1.705429858012267E9, -12.685740649700165, -134.75607520341873, -134.75607520341873, 393.01860654354095
 1.7054298580132613E9, -97.89562124013901, -228.82203888893127, -203.6899111866951, 303.02165400981903
 1.7054298580132613E9, -16.03669100999832, -90.71501332521439, -104.35816836357117, 399.0024464726448
 1.7054298580267355E9, 26.5682492852211, -71.32737195491791, -82.09828382730484, 434.66613245010376
 1.7054298580267355E9, -88.560830950737, -241.7471331357956, -215.1788838505745, 296.3197532892227
 1.7054298580422337E9, -54.093912959098816, -149.59599822759628, -136.19219678640366, 365.97165006399155
 1.7054298580422337E9, 37.33916115760803, -41.647525906562805, -67.7370679974556, 457.64407777786255
 1.7054298580429533E9, -56.966156125068665, -198.4241320490837, -172.81329715251923, 352.0891414284706
 1.7054298580429533E9, -86.88535577058792, -206.08344715833664, -185.73839139938354, 322.16994178295135
 1.7054298580569084E9, 31.83402842283249, -38.057221949100494, -57.44486331939697, 454.7718346118927
 1.7054298580569084E9, 1.1967679858207703, -125.18193131685257, -118.48003059625626, 404.2682256102562
 1.705429858072564E9, -90.95436692237854, -235.04523241519928, -197.22736406326294, 316.1861018538475
 1.705429858072564E9, -12.207033455371857, -90.23630613088608, -95.50208526849747, 414.32107669115067
 1.705429858073089E9, 31.115967631340027, -64.86482483148575, -86.88535577058792, 437.77772921323776
 1.705429858073089E9, -86.40664857625961, -229.54009968042374, -198.18477845191956, 318.3402842283249
 1.7054298580865784E9, -52.17908418178558, -151.51082700490952, -142.1760367155075, 359.5091029405594
 1.7054298580865784E9, 44.519769072532654, -37.33916115760803, -60.556460082530975, 456.2079561948776
 1.7054298581022224E9, -36.62110036611557, -179.7545514702797, -160.36691009998322, 363.81746768951416
 1.7054298581022224E9, -92.39048850536346, -216.1362982392311, -180.47261226177216, 330.54731768369675
 1.7054298581029525E9, 18.430226981639862, -56.00874173641205, -73.4815543293953, 438.7351436018944
 1.7054298581029525E9, -7.65931510925293, -133.08060002326965, -138.1070255637169, 385.83799862861633
 1.7054298581168728E9, -99.57109642028809, -235.76329320669174, -210.15245831012726, 297.27716767787933
 1.7054298581168728E9, -7.65931510925293, -91.43307411670685, -93.34790289402008, 411.20947992801666
 1.7054298581326792E9, 35.663685977458954, -67.49771440029144, -84.25246620178223, 438.97449719905853
 1.7054298581326792E9, -75.39638310670853, -225.23173493146896, -204.1686183810234, 306.13325077295303
 1.7054298581330595E9, -43.56235468387604, -152.94694858789444, -134.75607520341873, 369.08324682712555
 1.7054298581330595E9, 46.434597849845886, -34.466917991638184, -58.8809849023819, 466.02145367860794
 1.705429858146577E9, -35.90303957462311, -169.94105398654938, -164.19656765460968, 360.22716373205185
 1.705429858146577E9, -88.560830950737, -217.57241982221603, -177.6003690958023, 328.6324889063835
 1.705429858162006E9, 32.55208921432495, -44.2804154753685, -55.769388139247894, 450.7028234601021
 1.705429858162006E9, 10.292204678058624, -113.69295865297318, -118.71938419342041, 405.9437007904053
 1.7054298581773033E9, -92.62984210252762, -229.30074608325958, -196.50930327177048, 310.20226192474365
 1.7054298581773033E9, -2.8722431659698486, -84.73117339611053, -85.20988059043884, 413.1243087053299
 1.7054298581779597E9, 33.988210797309875, -64.6254712343216, -80.90151584148407, 448.78799468278885
 1.7054298581779597E9, -79.7047478556633, -224.27432054281235, -191.2435241341591, 329.350549697876
 1.705429858192387E9, -38.057221949100494, -134.75607520341873, -126.37869930267334, 375.30644035339355
 1.705429858192387E9, 56.72680252790451, -26.08954209089279, -61.27452087402344, 461.23438173532486
 1.7054298581929407E9, -40.450757920742035, -189.0893417596817, -173.29200434684753, 348.25948387384415
 1.7054298581929407E9, -78.02927267551422, -205.60473996400833, -179.7545514702797, 320.73382019996643
 1.7054298582066123E9, 28.96178525686264, -40.21140432357788, -60.556460082530975, 443.52221554517746
 1.7054298582066123E9, -1.1967679858207703, -129.2509424686432, -116.80455541610718, 417.911380648613
 1.705429858222263E9, -99.57109642028809, -234.08781802654266, -190.76481693983078, 314.98933386802673
 1.705429858222263E9, -6.462547123432159, -87.36406296491623, -82.8163446187973, 421.5016846060753
 1.7054298582229378E9, 34.94562518596649, -64.6254712343216, -74.67832231521606, 448.78799468278885
 1.7054298582229378E9, -86.64600217342377, -234.08781802654266, -212.78534787893295, 310.20226192474365
 1.7054298582366018E9, -54.093912959098816, -159.8882029056549, -141.45797592401505, 364.29617488384247
 1.7054298582366018E9, 40.69011151790619, -42.36558669805527, -56.72680252790451, 470.09046483039856
 1.7054298582521844E9, -51.22166979312897, -185.4990378022194, -164.675274848938, 363.57811409235
 1.7054298582521844E9, -83.77375900745392, -197.22736406326294, -162.76044607162476, 342.03629034757614
 1.7054298582529018E9, 34.466917991638184, -35.663685977458954, -43.56235468387604, 467.45757526159286
 1.7054298582529018E9, -6.223193526268005, -125.42128491401672, -120.39485937356949, 425.5706957578659
 1.7054298582669108E9, -97.65626764297485, -227.6252709031105, -197.9454248547554, 323.84541696310043
 1.7054298582669108E9, -6.9412543177604675, -81.38022303581238, -76.83250468969345, 434.9054860472679
 1.705429858282329E9, 28.004370868206024, -66.06159281730652, -68.2157751917839, 465.0640392899513
 1.705429858282329E9, -84.73117339611053, -224.27432054281235, -188.6106345653534, 337.0098648071289
 1.7054298582830515E9, -49.06748741865158, -138.34637916088104, -126.13934570550919, 382.247694671154
 1.7054298582830515E9, 31.115967631340027, -49.54619461297989, -59.12033849954605, 461.71308892965317
 1.7054298582967923E9, -58.8809849023819, -185.02033060789108, -164.91462844610214, 368.8438932299614
 1.7054298582967923E9, -89.27889174222946, -200.81766802072525, -173.77071154117584, 335.81309682130814
 1.7054298583124073E9, 26.5682492852211, -47.63136583566666, -56.2480953335762, 445.4370443224907
 1.7054298583124073E9, -10.292204678058624, -133.55930721759796, -116.08649462461472, 415.99655187129974
 1.7054298583129368E9, -97.89562124013901, -233.8484644293785, -189.80740255117416, 334.13762164115906
 1.7054298583129368E9, -4.547718346118927, -75.87509030103683, -88.80018454790115, 426.28875654935837
 1.7054298583265667E9, 22.97794532775879, -76.35379749536514, -75.87509030103683, 454.2931274175644
 1.7054298583265667E9, -94.784024477005, -232.41234284639359, -200.33896082639694, 323.3667097687721
 1.7054298583422384E9, -56.487448930740356, -147.9205230474472, -125.66063851118088, 382.4870482683182
 1.7054298583422384E9, 44.041061878204346, -38.29657554626465, -62.47128885984421, 457.4047241806984
 1.7054298583430617E9, -53.1364985704422, -185.02033060789108, -170.18040758371353, 355.2007381916046
 1.7054298583430617E9, -96.69885325431824, -212.0672870874405, -177.36101549863815, 335.3343896269798
 1.7054298583570175E9, 16.03669100999832, -61.03516727685928, -55.290680944919586, 450.4634698629379
 1.7054298583570175E9, -12.685740649700165, -135.71348959207535, -127.81482088565826, 400.43856805562973
 1.705429858372216E9, -104.11881476640701, -232.8910500407219, -200.33896082639694, 313.31385868787766
 1.705429858372216E9, -10.05285108089447, -87.36406296491623, -96.22014605998993, 412.40624791383743
 1.7054298583729389E9, 16.03669100999832, -81.14086943864822, -96.22014605998993, 432.7513036727905
 1.7054298583729389E9, -91.43307411670685, -236.0026468038559, -207.51956874132156, 314.0319194793701
 1.7054298583868916E9, -64.6254712343216, -156.2978989481926, -146.72375506162643, 361.18457812070847
 1.7054298583868916E9, 30.397906839847565, -50.74296259880066, -70.60931116342545, 450.94217705726624
 1.705429858402616E9, -63.428703248500824, -201.77508240938187, -177.121661901474, 345.62659430503845
 1.705429858402616E9, -92.86919569969177, -207.2802151441574, -179.51519787311554, 324.32412415742874
 1.7054298584030008E9, 26.5682492852211, -48.110073029994965, -54.093912959098816, 455.48989540338516
 1.7054298584030008E9, -14.121862232685089, -141.2186223268509, -129.2509424686432, 403.7895184159279
