 Timestamp, EXG Channel 0, EXG Channel 1, EXG Channel 2, EXG Channel 3
 1.7063879310492177E9, -562.2415997385979, -671.147486448288, -519.1579522490501, -423.6558669805527
 1.7063879310492177E9, 0.0, 0.0, 0.0, 0.0
 1.7063879310846653E9, -425.0919885635376, -667.0784752964973, -535.1946432590485, -232.41234284639359
 1.7063879310846653E9, -556.4971134066582, -677.6100335717201, -527.5353281497955, -402.83210402727127
 1.7063879310993428E9, -550.034566283226, -690.0564206242561, -532.0830464959145, -442.804154753685
 1.7063879310993428E9, -421.26233100891113, -670.4294256567955, -544.2900799512863, -254.6722273826599
 1.7063879311138053E9, -520.5940738320351, -679.5248623490334, -540.4604223966599, -331.7440856695175
 1.7063879311138053E9, -596.708517730236, -697.4763821363449, -529.9288641214371, -474.1594759821892
 1.7063879311145103E9, -451.42088425159454, -683.1151663064957, -541.1784831881523, -311.87773710489273
 1.7063879311145103E9, -455.250541806221, -668.035889685154, -534.9552896618843, -264.4857248663902
 1.7063879311283607E9, -582.1079483032227, -676.8919727802277, -518.6792450547218, -459.5589065551758
 1.7063879311283607E9, -492.58970296382904, -679.7642159461975, -519.3973058462143, -369.3226004242897
 1.706387931143872E9, -419.8262094259262, -658.4617457985878, -537.58817923069, -234.08781802654266
 1.706387931143872E9, -559.1300029754639, -674.0197296142578, -517.7218306660652, -392.7792529463768
 1.7063879311446612E9, -556.4971134066582, -691.9712494015694, -522.2695490121841, -438.4957900047302
 1.7063879311446612E9, -425.33134216070175, -670.6687792539597, -538.0668864250183, -248.20968025922775
 1.706387931158367E9, -508.62639397382736, -667.5571824908257, -528.0140353441238, -325.28153854608536
 1.706387931158367E9, -590.7246778011322, -697.7157357335091, -527.5353281497955, -471.5265864133835
 1.706387931173824E9, -456.2079561948776, -683.1151663064957, -532.3224000930786, -305.8938971757889
 1.706387931173824E9, -458.60149216651917, -663.2488177418709, -533.7585216760635, -262.33154249191284
 1.7063879311745384E9, -587.1343738436699, -678.5674479603767, -516.5250626802444, -449.027348279953
 1.7063879311745384E9, -493.06841015815735, -678.3280943632126, -517.9611842632294, -372.912904381752
 1.7063879311881251E9, -420.3049166202545, -656.7862706184387, -534.7159360647202, -232.17298924922943
 1.7063879311881251E9, -549.7952126860619, -670.9081328511238, -520.8334274291992, -392.3005457520485
 1.706387931203617E9, -549.7952126860619, -690.2957742214203, -522.03019541502, -437.77772921323776
 1.706387931203617E9, -424.37392777204514, -675.4558511972427, -539.9817152023315, -253.236105799675
 1.7063879312188764E9, -513.8921731114388, -672.5836080312729, -531.364985704422, -331.50473207235336
 1.7063879312188764E9, -584.0227770805359, -689.0990062355995, -523.9450241923332, -475.1168903708458
 1.706387931219536E9, -457.4047241806984, -681.2003375291824, -531.8436928987503, -309.0054939389229
 1.706387931219536E9, -464.82468569278717, -671.6261936426163, -538.5455936193466, -262.81024968624115
 1.7063879312342105E9, -595.9904569387436, -692.6893101930618, -531.6043393015862, -469.3724040389061
 1.7063879312342105E9, -505.03609001636505, -690.2957742214203, -540.9391295909882, -388.470888197422
 1.7063879312346275E9, -427.246170938015, -668.2752432823181, -540.9391295909882, -239.35359716415405
 1.7063879312346275E9, -564.1564285159111, -681.9183983206749, -531.364985704422, -402.5927504301071
 1.706387931248136E9, -559.1300029754639, -695.3221997618675, -534.7159360647202, -450.94217705726624
 1.706387931248136E9, -430.357767701149, -679.2855087518692, -539.9817152023315, -257.06576335430145
 1.7063879312640164E9, -517.4824770689011, -675.6952047944069, -536.3914112448692, -332.70150005817413
 1.7063879312640164E9, -593.1182137727737, -692.928663790226, -529.9288641214371, -484.4516806602478
 1.706387931264521E9, -467.45757526159286, -690.0564206242561, -543.3326655626297, -310.9203227162361
 1.706387931264521E9, -472.4840008020401, -674.7377904057503, -537.8275328278542, -268.3153824210167
 1.70638793127845E9, -602.4530040621758, -685.7480558753014, -525.6204993724823, -461.23438173532486
 1.70638793127845E9, -503.5999684333801, -683.8332270979881, -526.3385601639748, -377.2212691307068
 1.7063879312937992E9, -437.77772921323776, -674.7377904057503, -541.1784831881523, -241.02907234430313
 1.7063879312937992E9, -567.9860860705376, -686.705470263958, -529.9288641214371, -404.50757920742035
 1.706387931294511E9, -560.805478155613, -694.8434925675392, -528.9714497327805, -446.15510511398315
 1.706387931294511E9, -435.14483964443207, -680.9609839320183, -543.0933119654655, -258.5018849372864
 1.7063879313081572E9, -517.4824770689011, -673.3016688227654, -529.4501569271088, -325.0421849489212
 1.7063879313081572E9, -590.9640313982964, -687.9022382497787, -525.6204993724823, -472.72335439920425
 1.7063879313238213E9, -457.64407777786255, -678.3280943632126, -538.5455936193466, -305.41518998146057
 1.7063879313238213E9, -463.6279177069664, -670.9081328511238, -540.4604223966599, -265.92184644937515
 1.7063879313245149E9, -602.6923576593399, -691.4925422072411, -534.9552896618843, -470.56917202472687
 1.7063879313245149E9, -509.10510116815567, -688.1415918469429, -540.4604223966599, -390.38571697473526
 1.7063879313387947E9, -434.9054860472679, -673.7803760170937, -550.2739198803902, -241.7471331357956
 1.7063879313387947E9, -568.9435004591942, -681.9183983206749, -526.8172673583031, -395.8908497095108
 1.7063879313538272E9, -561.0448317527771, -693.6467245817184, -525.8598529696465, -444.00092273950577
 1.7063879313538272E9, -433.9480716586113, -674.0197296142578, -542.1358975768089, -251.0819234251976
 1.706387931354559E9, -510.30186915397644, -665.8817073106766, -531.364985704422, -322.64864897727966
 1.706387931354559E9, -596.708517730236, -697.9550893306732, -525.6204993724823, -471.0478792190552
 1.7063879313682077E9, -462.43114972114563, -683.593873500824, -539.9817152023315, -311.6383835077286
 1.7063879313682077E9, -472.0052936077118, -677.370679974556, -542.1358975768089, -269.99085760116577
 1.7063879313841095E9, -607.0007224082947, -696.2796141505241, -529.6895105242729, -463.38856410980225
 1.7063879313841095E9, -512.4560515284538, -691.4925422072411, -528.0140353441238, -379.6148051023483
 1.706387931384646E9, -437.77772921323776, -670.1900720596313, -533.5191680788994, -234.80587881803513
 1.706387931384646E9, -558.6512957811356, -676.8919727802277, -523.7056705951691, -394.2153745293617
 1.7063879313980994E9, -563.1990141272545, -697.9550893306732, -523.9450241923332, -442.08609396219254
 1.7063879313980994E9, -432.9906572699547, -677.1313263773918, -540.699775993824, -251.0819234251976
 1.7063879314140065E9, -517.7218306660652, -676.6526191830635, -534.2372288703918, -326.95701372623444
 1.7063879314140065E9, -599.1020537018776, -699.8699181079865, -526.8172673583031, -473.920122385025
 1.7063879314144716E9, -476.7923655509949, -692.2106029987335, -542.3752511739731, -316.90416264533997
 1.7063879314144716E9, -479.6646087169647, -677.1313263773918, -544.5294335484505, -272.14503997564316
 1.7063879314282377E9, -599.5807608962059, -699.151857316494, -539.9817152023315, -449.26670187711716
 1.7063879314282377E9, -528.7320961356163, -708.0079404115677, -546.2049087285995, -394.4547281265259
 1.7063879314437752E9, -459.79826015233994, -689.5777134299278, -553.6248702406883, -271.66633278131485
 1.7063879314437752E9, -569.4222076535225, -691.9712494015694, -540.699775993824, -401.1566288471222
 1.7063879314444845E9, -568.2254396677017, -698.9125037193298, -537.1094720363617, -444.9583371281624
 1.7063879314444845E9, -450.94217705726624, -689.0990062355995, -544.5294335484505, -280.52241587638855
 1.7063879314581413E9, -519.1579522490501, -683.593873500824, -544.2900799512863, -330.7866712808609
 1.7063879314581413E9, -584.2621306777, -696.7583213448524, -531.1256321072578, -462.1917961239815
 1.7063879314739604E9, -478.2284871339798, -694.1254317760468, -539.7423616051674, -329.350549697876
 1.7063879314739604E9, -473.68076878786087, -681.2003375291824, -548.5984447002411, -283.8733662366867
 1.7063879314747791E9, -588.3311418294907, -690.2957742214203, -533.7585216760635, -446.63381230831146
 1.7063879314747791E9, -518.2005378603935, -693.1680173873901, -538.7849472165108, -387.5134738087654
 1.7063879314880834E9, -453.0963594317436, -684.5512878894806, -545.2474943399429, -262.570896089077
 1.7063879314880834E9, -559.369356572628, -683.1151663064957, -536.6307648420334, -393.7366673350334
 1.706387931503821E9, -562.7203069329262, -703.6995756626129, -534.2372288703918, -437.5383756160736
 1.706387931503821E9, -446.3944587111473, -689.0990062355995, -549.3165054917336, -280.2830622792244
 1.7063879315047038E9, -520.5940738320351, -688.8596526384354, -546.922969520092, -333.65891444683075
 1.7063879315047038E9, -593.1182137727737, -703.6995756626129, -532.3224000930786, -455.250541806221
 1.7063879315183408E9, -482.05814468860626, -700.3486253023148, -541.8965439796448, -327.91442811489105
 1.7063879315183408E9, -485.6484486460686, -689.3383598327637, -550.2739198803902, -283.63401263952255
 1.7063879315339074E9, -601.7349432706833, -702.7421612739563, -535.6733504533768, -442.56480115652084
 1.7063879315339074E9, -530.6469249129295, -709.4440619945526, -543.811372756958, -390.38571697473526
 1.706387931534568E9, -468.1756360530853, -695.8009069561958, -553.6248702406883, -264.7250784635544
 1.706387931534568E9, -568.2254396677017, -694.8434925675392, -541.1784831881523, -389.90700978040695
 1.7063879315482433E9, -570.8583292365074, -709.6834155917168, -540.2210687994957, -439.2138507962227
 1.7063879315482433E9, -455.250541806221, -695.3221997618675, -550.2739198803902, -280.04370868206024
 1.706387931564033E9, -518.6792450547218, -688.8596526384354, -544.2900799512863, -332.2227928638458
 1.706387931564033E9, -587.8524346351624, -702.0241004824638, -530.1682177186012, -459.5589065551758
 1.7063879315646365E9, -477.031719148159, -691.0138350129128, -539.9817152023315, -322.8880025744438
 1.7063879315646365E9, -484.4516806602478, -687.4235310554504, -544.5294335484505, -280.7617694735527
 1.7063879315783925E9, -595.5117497444153, -701.7847468852997, -533.0404608845711, -440.6499723792076
 1.7063879315783925E9, -526.3385601639748, -703.6995756626129, -540.699775993824, -389.90700978040695
 1.7063879315939925E9, -448.5486410856247, -684.7906414866447, -545.4868479371071, -260.17736011743546
 1.7063879315939925E9, -555.7790526151657, -685.5087022781372, -534.7159360647202, -387.0347666144371
 1.7063879315945485E9, -562.7203069329262, -701.7847468852997, -537.1094720363617, -437.5383756160736
 1.7063879315945485E9, -459.0801993608475, -694.8434925675392, -547.1623231172562, -281.240476667881
 1.7063879316082563E9, -517.0037698745728, -679.5248623490334, -538.5455936193466, -329.8292568922043
 1.7063879316082563E9, -587.1343738436699, -697.9550893306732, -531.364985704422, -456.68666338920593
 1.70638793162385E9, -478.94654792547226, -692.6893101930618, -538.7849472165108, -325.5208921432495
 1.70638793162385E9, -475.5955975651741, -685.0299950838089, -542.3752511739731, -280.52241587638855
 1.7063879316245613E9, -587.8524346351624, -689.5777134299278, -533.7585216760635, -438.0170828104019
 1.7063879316245613E9, -522.5089026093483, -698.4337965250015, -540.699775993824, -390.38571697473526
 1.7063879316381836E9, -454.53248101472855, -688.6202990412712, -545.9655551314354, -265.2037856578827
 1.7063879316381836E9, -562.0022461414337, -692.928663790226, -540.9391295909882, -393.01860654354095
 1.7063879316541817E9, -564.6351357102394, -701.5453932881355, -531.8436928987503, -438.97449719905853
 1.7063879316541817E9, -447.83058029413223, -689.3383598327637, -542.6146047711372, -278.128879904747
 1.7063879316546085E9, -513.1741123199463, -680.7216303348541, -533.0404608845711, -315.46804106235504
 1.7063879316546085E9, -591.6820921897888, -701.3060396909714, -531.8436928987503, -453.0963594317436
 1.7063879316681116E9, -483.73361986875534, -693.6467245817184, -539.9817152023315, -330.7866712808609
 1.7063879316681116E9, -476.5530119538307, -682.157751917839, -544.2900799512863, -278.6075870990753
 1.7063879316838465E9, -587.1343738436699, -687.1841774582863, -527.7746817469597, -433.70871806144714
 1.7063879316838465E9, -513.8921731114388, -690.5351278185844, -532.0830464959145, -386.5560594201088
 1.7063879316845613E9, -447.11251950263977, -684.7906414866447, -548.8377982974052, -265.682492852211
 1.7063879316845613E9, -554.3429310321808, -691.2531886100769, -545.2474943399429, -392.3005457520485
 1.7063879316983683E9, -556.4971134066582, -691.4925422072411, -532.0830464959145, -435.86290043592453
 1.7063879316983683E9, -450.4634698629379, -684.5512878894806, -537.3488256335258, -275.017283141613
 1.7063879317138312E9, -517.2431234717369, -682.3971055150032, -541.1784831881523, -323.3667097687721
 1.7063879317138312E9, -591.6820921897888, -699.6305645108223, -533.2798144817352, -457.8834313750267
 1.706387931714569E9, -478.7071943283081, -691.4925422072411, -542.8539583683014, -327.91442811489105
 1.706387931714569E9, -470.3298184275627, -678.8068015575409, -547.8803839087486, -279.0862942934036
 1.7063879317280939E9, -603.1710648536682, -706.0931116342545, -547.8803839087486, -446.3944587111473
 1.7063879317280939E9, -535.1946432590485, -703.9389292597771, -542.8539583683014, -393.97602093219757
 1.7063879317438428E9, -456.4473097920418, -680.9609839320183, -545.2474943399429, -261.13477450609207
 1.7063879317438428E9, -556.4971134066582, -681.9183983206749, -525.6204993724823, -377.6999763250351
 1.7063879317445629E9, -552.4281022548676, -691.9712494015694, -527.2959745526314, -431.07582849264145
 1.7063879317445629E9, -443.52221554517746, -678.8068015575409, -539.9817152023315, -271.905686378479
 1.7063879317580974E9, -506.47221159935, -672.5836080312729, -531.364985704422, -316.1861018538475
 1.7063879317580974E9, -593.1182137727737, -700.5879788994789, -533.2798144817352, -453.0963594317436
 1.7063879317738273E9, -480.62202310562134, -691.2531886100769, -548.3590911030769, -333.65891444683075
 1.7063879317738273E9, -486.1271558403969, -691.7318958044052, -561.5235389471054, -295.3623389005661
 1.7063879317746403E9, -618.4896950721741, -717.821437895298, -548.1197375059128, -444.71898353099823
 1.7063879317746403E9, -557.6938813924789, -721.8904490470886, -554.5822846293449, -401.39598244428635
 1.7063879317884915E9, -496.65871411561966, -717.5820842981339, -576.1241083741188, -280.04370868206024
 1.7063879317884915E9, -615.8568055033684, -731.9433001279831, -567.2680252790451, -399.4811536669731
 1.7063879318038151E9, -636.9199220538139, -752.049002289772, -567.028671681881, -448.78799468278885
 1.7063879318038151E9, -522.9876098036766, -735.5336040854454, -573.7305724024773, -289.6178525686264
 1.706387931804531E9, -604.367832839489, -744.6290407776833, -588.0917882323265, -345.14788711071014
 1.706387931804531E9, -679.2855087518692, -765.2134501338005, -573.251865208149, -468.1756360530853
 1.7063879318181708E9, -583.3047162890434, -770.718582868576, -593.3575673699379, -354.48267740011215
 1.7063879318181708E9, -566.3106108903885, -741.2780904173851, -588.0917882323265, -294.4049245119095
 1.7063879318504696E9, -687.6628846526146, -764.7347429394722, -587.1343738436699, -459.79826015233994
 1.7063879318504696E9, -612.7452087402344, -760.9050853848457, -585.698252260685, -414.799783885479
 1.7063879318510838E9, -537.8275328278542, -745.825808763504, -584.7408378720284, -274.77792954444885
 1.7063879318510838E9, -628.5425461530685, -736.7303720712662, -575.1666939854622, -397.3269712924957
 1.7063879318519235E9, -644.1005299687386, -755.160599052906, -573.9699259996414, -454.05377382040024
 1.7063879318519235E9, -529.2108033299446, -746.3045159578323, -584.5014842748642, -293.686863720417
 1.706387931852518E9, -585.4588986635208, -736.0123112797737, -580.1931195259094, -328.39313530921936
 1.706387931852518E9, -668.2752432823181, -755.160599052906, -568.2254396677017, -469.8511112332344
 1.7063879318631897E9, -559.6087101697922, -753.2457702755928, -581.8685947060585, -350.41366624832153
 1.7063879318631897E9, -546.922969520092, -735.5336040854454, -583.3047162890434, -294.4049245119095
 1.7063879318783412E9, -661.0946353673935, -747.7406375408173, -572.2944508194923, -456.4473097920418
 1.7063879318783412E9, -600.2988216876984, -753.485123872757, -581.3898875117302, -412.1668943166733
 1.7063879318942323E9, -524.4237313866615, -733.6187753081322, -586.6556666493416, -281.240476667881
 1.7063879318942323E9, -631.1754357218742, -738.6452008485794, -577.7995835542679, -403.0714576244354
 1.7063879318945656E9, -632.6115573048592, -750.373527109623, -573.0125116109848, -453.57506662607193
 1.7063879318945656E9, -521.3121346235275, -737.2090792655945, -578.038937151432, -296.798460483551
 1.706387931908536E9, -588.0917882323265, -739.602615237236, -580.4324731230736, -342.7543511390686
 1.706387931908536E9, -660.1372209787369, -750.373527109623, -564.8744893074036, -470.09046483039856
 1.7063879319239235E9, -552.1887486577034, -749.1767591238022, -578.2782907485962, -348.9775446653366
 1.7063879319239235E9, -540.4604223966599, -732.4220073223114, -574.927340388298, -286.0275486111641
 1.706387931924539E9, -652.9566130638123, -746.7832231521606, -567.5073788762093, -454.53248101472855
 1.706387931924539E9, -592.8788601756096, -747.9799911379814, -565.8319036960602, -402.1140432357788
 1.7063879319383316E9, -518.918598651886, -733.8581289052963, -580.6718267202377, -278.84694069623947
 1.7063879319383316E9, -624.4735350012779, -742.2355048060417, -577.3208763599396, -404.50757920742035
 1.7063879319538496E9, -638.8347508311272, -754.6818918585777, -575.1666939854622, -461.9524425268173
 1.7063879319538496E9, -519.6366594433784, -740.7993832230568, -580.1931195259094, -302.30359321832657
 1.7063879319545949E9, -573.9699259996414, -733.379421710968, -576.8421691656113, -339.6427543759346
 1.7063879319545949E9, -643.6218227744102, -737.927140057087, -555.0609918236732, -461.71308892965317
 1.7063879319684322E9, -543.811372756958, -738.8845544457436, -567.5073788762093, -344.1904727220535
 1.7063879319684322E9, -532.3224000930786, -721.6510954499245, -566.3106108903885, -282.1978910565376
 1.7063879319841895E9, -646.7334195375443, -738.6452008485794, -564.1564285159111, -445.67639791965485
 1.7063879319841895E9, -582.3473019003868, -738.6452008485794, -568.2254396677017, -402.35339683294296
 1.7063879319845498E9, -517.4824770689011, -731.2252393364906, -569.6615612506866, -271.4269791841507
 1.7063879319845498E9, -646.2547123432159, -769.043107688427, -602.9317112565041, -428.44293892383575
 1.7063879319981344E9, -629.7393141388893, -757.3147814273834, -583.0653626918793, -471.5265864133835
 1.7063879319981344E9, -474.1594759821892, -704.4176364541054, -556.4971134066582, -286.74560940265656
 1.706387932013914E9, -524.6630849838257, -696.9976749420166, -547.4016767144203, -329.1111961007118
 1.706387932013914E9, -573.251865208149, -686.2267630696297, -514.3708803057671, -438.97449719905853
 1.7063879320146167E9, -462.1917961239815, -676.6526191830635, -528.9714497327805, -322.16994178295135
 1.7063879320146167E9, -436.82031482458115, -644.5792371630669, -514.1315267086029, -249.16709464788437
 1.706387932028142E9, -539.9817152023315, -648.4088947176933, -497.85548210144043, -408.3372367620468
 1.706387932028142E9, -479.42525511980057, -657.5043314099312, -494.7438853383064, -360.9452245235443
 1.706387932044034E9, -383.20510905981064, -618.7290486693382, -483.25491267442703, -213.98211586475372
 1.706387932044034E9, -499.5309572815895, -633.3296180963516, -487.80263102054596, -351.84978783130646
 1.706387932044525E9, -509.10510116815567, -649.6056627035141, -487.0845702290535, -408.09788316488266
 1.706387932044525E9, -394.4547281265259, -640.9889332056046, -496.65871411561966, -248.4490338563919
 1.7063879320583787E9, -458.8408457636833, -634.2870324850082, -494.9832389354706, -292.7294493317604
 1.7063879320583787E9, -543.0933119654655, -660.8552817702293, -500.24901807308197, -437.77772921323776
 1.7063879320733533E9, -437.29902201890945, -660.8552817702293, -509.583808362484, -308.5267867445946
 1.7063879320733533E9, -432.03324288129807, -651.041784286499, -517.4824770689011, -257.7838241457939
 1.7063879320889993E9, -482.7762054800987, -662.7701105475426, -507.9083331823349, -373.87031877040863
 1.7063879320889993E9, -408.8159439563751, -647.2121267318726, -516.2857090830803, -239.5929507613182
 1.70638793208953E9, -505.51479721069336, -644.3398835659027, -505.2754436135292, -358.3123349547386
 1.70638793208953E9, -518.4398914575577, -661.812696158886, -504.3180292248726, -420.06556302309036
 1.7063879321031451E9, -406.1830543875694, -653.1959666609764, -517.0037698745728, -258.5018849372864
 1.7063879321031451E9, -471.76594001054764, -646.0153587460518, -510.30186915397644, -296.3197532892227
 1.7063879321192644E9, -550.7526270747185, -665.6423537135124, -496.8980677127838, -434.18742525577545
 1.7063879321192644E9, -449.027348279953, -666.599768102169, -512.9347587227821, -316.1861018538475
 1.7063879321197338E9, -433.70871806144714, -647.930187523365, -513.6528195142746, -256.8264097571373
 1.7063879321197338E9, -552.6674558520317, -662.7701105475426, -508.62639397382736, -423.17715978622437
 1.7063879321333432E9, -493.54711735248566, -667.7965360879898, -514.6102339029312, -384.8805842399597
 1.7063879321333432E9, -409.77335834503174, -646.2547123432159, -519.8760130405426, -248.4490338563919
 1.7063879321488066E9, -521.5514882206917, -661.3339889645576, -515.3282946944237, -368.3651860356331
 1.7063879321488066E9, -538.0668864250183, -679.2855087518692, -511.25928354263306, -425.81004935503006
 1.7063879321495233E9, -416.7146126627922, -662.2914033532143, -519.3973058462143, -265.44313925504684
 1.7063879321495233E9, -469.61175763607025, -651.9991986751556, -513.4134659171104, -304.6971291899681
 1.7063879321631727E9, -547.8803839087486, -660.6159281730652, -505.7541508078575, -441.6073867678642
 1.7063879321631727E9, -446.3944587111473, -667.5571824908257, -519.8760130405426, -323.6060633659363
 1.706387932179056E9, -434.4267788529396, -654.6320882439613, -521.7908418178558, -264.96443206071854
 1.706387932179056E9, -552.9068094491959, -668.5145968794823, -513.8921731114388, -429.8790605068207
 1.7063879321796455E9, -495.9406533241272, -677.6100335717201, -520.5940738320351, -386.79541301727295
 1.7063879321796455E9, -420.54427021741867, -659.4191601872444, -530.1682177186012, -250.12450903654099
 1.7063879321931891E9, -523.7056705951691, -661.5733425617218, -522.7482562065125, -372.912904381752
 1.7063879321931891E9, -543.5720191597939, -682.6364591121674, -523.9450241923332, -434.66613245010376
 1.7063879322090516E9, -432.5119500756264, -674.7377904057503, -532.0830464959145, -275.73534393310547
 1.7063879322090516E9, -494.9832389354706, -672.1049008369446, -537.8275328278542, -318.8189914226532
 1.7063879322097328E9, -566.5499644875526, -685.269348680973, -523.4663169980049, -449.74540907144547
 1.7063879322097328E9, -457.16537058353424, -673.3016688227654, -525.141792178154, -327.43572092056274
 1.7063879322233832E9, -452.138945043087, -661.812696158886, -535.9127040505409, -270.2302111983299
 1.7063879322233832E9, -564.3957821130753, -677.1313263773918, -525.3811457753181, -432.2725964784622
 1.706387932239081E9, -503.8393220305443, -681.2003375291824, -523.9450241923332, -387.0347666144371
 1.706387932239081E9, -431.3151820898056, -666.1210609078407, -532.3224000930786, -254.91158097982407
 1.7063879322396412E9, -534.9552896618843, -671.8655472397804, -525.8598529696465, -376.98191553354263
 1.7063879322396412E9, -555.7790526151657, -695.8009069561958, -526.8172673583031, -439.2138507962227
 1.7063879322532113E9, -431.55453568696976, -671.6261936426163, -532.0830464959145, -278.128879904747
 1.7063879322532113E9, -487.0845702290535, -663.7275249361992, -521.5514882206917, -307.3300187587738
 1.706387932268901E9, -565.8319036960602, -681.4396911263466, -516.0463554859161, -447.83058029413223
 1.706387932268901E9, -458.12278497219086, -674.4984368085861, -529.2108033299446, -325.0421849489212
 1.7063879322696242E9, -457.16537058353424, -680.2429231405258, -538.3062400221825, -274.0598687529564
 1.7063879322696242E9, -576.363461971283, -686.4661166667938, -528.7320961356163, -435.6235468387604
 1.7063879322831638E9, -520.5940738320351, -693.8860781788826, -530.6469249129295, -396.3695569038391
 1.7063879322831638E9, -419.8262094259262, -655.1107954382896, -528.253388941288, -243.18325471878052
 1.7063879322988744E9, -514.1315267086029, -656.3075634241104, -508.62639397382736, -353.7646166086197
 1.7063879322988744E9, -543.5720191597939, -681.6790447235107, -511.9773443341255, -422.9378061890602
 1.7063879322995732E9, -430.8364748954773, -669.711364865303, -527.0566209554672, -274.5385759472847
 1.7063879322995732E9, -497.3767749071121, -672.822961628437, -534.2372288703918, -312.1170907020569
 1.706387932313306E9, -573.9699259996414, -681.9183983206749, -527.2959745526314, -449.027348279953
 1.706387932313306E9, -472.9627079963684, -683.1151663064957, -539.9817152023315, -335.0950360298157
 1.7063879323288698E9, -458.60149216651917, -673.3016688227654, -545.2474943399429, -275.017283141613
 1.7063879323288698E9, -578.7569979429245, -687.6628846526146, -529.6895105242729, -432.03324288129807
 1.7063879323297193E9, -519.6366594433784, -691.0138350129128, -536.1520576477051, -398.0450320839882
 1.7063879323297193E9, -436.1022540330887, -674.7377904057503, -540.4604223966599, -258.74123853445053
 1.70638793234315E9, -533.7585216760635, -675.6952047944069, -530.6469249129295, -377.6999763250351
 1.70638793234315E9, -561.5235389471054, -694.8434925675392, -530.6469249129295, -440.6499723792076
 1.70638793235887E9, -443.7615691423416, -685.5087022781372, -543.811372756958, -286.9849629998207
 1.70638793235887E9, -508.8657475709915, -687.4235310554504, -544.7687871456146, -321.21252739429474
 1.7063879323595524E9, -581.150533914566, -692.4499565958977, -530.4075713157654, -455.48989540338516
 1.7063879323595524E9, -466.2608072757721, -679.5248623490334, -532.0830464959145, -329.350549697876
 1.706387932373164E9, -458.362138569355, -675.934558391571, -541.4178367853165, -272.14503997564316
 1.706387932373164E9, -573.9699259996414, -685.0299950838089, -522.03019541502, -432.03324288129807
 1.706387932389594E9, -515.3282946944237, -692.4499565958977, -529.6895105242729, -398.0450320839882
 1.706387932389594E9, -450.7028234601021, -681.6790447235107, -546.922969520092, -266.87926083803177
 1.7063879324038773E9, -548.8377982974052, -688.380945444107, -546.6836159229279, -388.7102417945862
 1.7063879324038773E9, -570.6189756393433, -700.3486253023148, -536.3914112448692, -447.3518730998039
 1.706387932404658E9, -450.4634698629379, -691.4925422072411, -545.0081407427788, -285.30948781967163
 1.706387932404658E9, -497.13742130994797, -676.4132655858994, -534.7159360647202, -311.87773710489273
 1.7063879324188428E9, -576.363461971283, -688.380945444107, -525.3811457753181, -450.7028234601021
 1.7063879324188428E9, -465.54274648427963, -682.3971055150032, -535.1946432590485, -330.54731768369675
 1.7063879324195762E9, -467.2182216644287, -681.2003375291824, -548.1197375059128, -273.3418079614639
 1.7063879324195762E9, -582.586655497551, -695.0828461647034, -542.8539583683014, -445.19769072532654
 1.70638793243359E9, -520.8334274291992, -696.2796141505241, -539.5030080080032, -402.1140432357788
 1.70638793243359E9, -442.804154753685, -679.2855087518692, -540.699775993824, -258.74123853445053
 1.706387932449196E9, -557.9332349896431, -690.7744814157486, -539.0243008136749, -380.8115730881691
 1.706387932449196E9, -573.4912188053131, -709.2047083973885, -542.1358975768089, -447.5912266969681
 1.7063879324498756E9, -455.48989540338516, -696.9976749420166, -556.9758206009865, -293.44751012325287
 1.7063879324498756E9, -508.8657475709915, -685.0299950838089, -546.2049087285995, -317.6222234368324
 1.7063879324631886E9, -582.8260090947151, -691.7318958044052, -528.9714497327805, -451.42088425159454
 1.7063879324631886E9, -482.7762054800987, -695.5615533590317, -540.4604223966599, -335.3343896269798
 1.7063879324788585E9, -474.39882957935333, -691.4925422072411, -548.1197375059128, -281.240476667881
 1.7063879324788585E9, -598.3839929103851, -710.1621227860451, -535.9127040505409, -441.3680331707001
 1.7063879324795804E9, -540.699775993824, -708.486647605896, -544.7687871456146, -403.3108112215996
 1.7063879324795804E9, -458.12278497219086, -693.1680173873901, -554.5822846293449, -270.4695647954941
 1.7063879324932046E9, -557.4545277953148, -693.6467245817184, -545.7262015342712, -383.68381625413895
 1.7063879324932046E9, -567.9860860705376, -705.6144044399261, -535.1946432590485, -443.2828619480133
 1.7063879325088828E9, -449.74540907144547, -694.3647853732109, -548.1197375059128, -290.575266957283
 1.7063879325088828E9, -510.78057634830475, -689.5777134299278, -547.4016767144203, -327.6750745177269
 1.7063879325096152E9, -598.3839929103851, -710.8801835775375, -537.1094720363617, -465.54274648427963
 1.7063879325096152E9, -489.7174597978592, -699.151857316494, -544.0507263541222, -344.908533513546
 1.706387932523476E9, -475.5955975651741, -687.1841774582863, -548.1197375059128, -282.4372446537018
 1.706387932523476E9, -596.2298105359077, -690.5351278185844, -541.4178367853165, -443.2828619480133
 1.7063879325391035E9, -536.1520576477051, -704.8963436484337, -540.4604223966599, -401.1566288471222
 1.7063879325391035E9, -460.0376137495041, -694.8434925675392, -550.7526270747185, -265.682492852211
 1.7063879325396445E9, -559.6087101697922, -692.2106029987335, -535.4339968562126, -377.6999763250351
 1.7063879325396445E9, -575.4060475826263, -703.2208684682846, -535.6733504533768, -442.804154753685
 1.7063879325531564E9, -459.5589065551758, -701.5453932881355, -552.6674558520317, -290.575266957283
 1.7063879325531564E9, -517.0037698745728, -691.4925422072411, -549.5558590888977, -320.4944666028023
 1.706387932568895E9, -590.0066170096397, -701.7847468852997, -529.2108033299446, -452.37829864025116
 1.706387932568895E9, -490.6748741865158, -699.3912109136581, -547.4016767144203, -342.2756439447403
 1.706387932569599E9, -477.98913353681564, -688.380945444107, -550.034566283226, -279.8043550848961
 1.706387932569599E9, -597.1872249245644, -702.7421612739563, -544.0507263541222, -440.41061878204346
 1.7063879325831842E9, -533.2798144817352, -697.9550893306732, -533.5191680788994, -395.4121425151825
 1.7063879325831842E9, -458.12278497219086, -693.4073709845543, -549.5558590888977, -267.59732162952423
 1.7063879325990715E9, -563.917074918747, -699.8699181079865, -540.699775993824, -381.7689874768257
 1.7063879325990715E9, -582.586655497551, -717.821437895298, -541.8965439796448, -455.01118820905685
 1.706387932599684E9, -460.75567454099655, -689.0990062355995, -542.6146047711372, -281.9585374593735
 1.706387932599684E9, -514.8495875000954, -675.6952047944069, -528.9714497327805, -305.8938971757889
 1.7063879326132853E9, -585.4588986635208, -687.9022382497787, -520.3547202348709, -441.8467403650284
 1.7063879326132853E9, -464.82468569278717, -673.7803760170937, -523.4663169980049, -329.58990329504013
 1.7063879326290553E9, -461.23438173532486, -675.4558511972427, -539.0243008136749, -270.2302111983299
 1.7063879326290553E9, -579.7144123315811, -689.5777134299278, -536.3914112448692, -430.357767701149
 1.706387932629726E9, -521.3121346235275, -694.6041389703751, -532.5617536902428, -391.8218385577202
 1.706387932629726E9, -443.2828619480133, -677.370679974556, -541.6571903824806, -254.43287378549576
 1.7063879326431935E9, -556.9758206009865, -686.9448238611221, -533.7585216760635, -374.34902596473694
 1.7063879326431935E9, -571.5763900279999, -698.4337965250015, -531.364985704422, -439.2138507962227
 1.706387932659023E9, -461.9524425268173, -690.2957742214203, -537.8275328278542, -283.63401263952255
 1.706387932659023E9, -506.71156519651413, -679.5248623490334, -531.8436928987503, -309.24484753608704
 1.706387932659599E9, -595.5117497444153, -701.0666860938072, -528.4927425384521, -455.7292490005493
 1.706387932659599E9, -498.5735428929329, -704.1782828569412, -546.6836159229279, -337.4885720014572
 1.7063879326732616E9, -480.62202310562134, -691.4925422072411, -550.5132734775543, -279.0862942934036
 1.7063879326732616E9, -594.5543353557587, -698.4337965250015, -537.1094720363617, -432.7513036727905
 1.7063879326891243E9, -534.2372288703918, -699.8699181079865, -535.6733504533768, -395.4121425151825
 1.7063879326891243E9, -454.05377382040024, -685.0299950838089, -544.7687871456146, -255.15093457698822
 1.706387932689814E9, -569.6615612506866, -696.5189677476883, -537.8275328278542, -375.78514754772186
 1.706387932689814E9, -578.7569979429245, -706.5718188285828, -537.8275328278542, -444.00092273950577
 1.706387932703179E9, -464.34597849845886, -697.4763821363449, -545.2474943399429, -288.42108458280563
 1.706387932703179E9, -518.918598651886, -690.0564206242561, -535.6733504533768, -310.68096911907196
 1.706387932718855E9, -599.3414072990417, -703.4602220654488, -529.9288641214371, -455.250541806221
 1.706387932718855E9, -498.33418929576874, -698.1944429278374, -546.6836159229279, -339.1640471816063
 1.7063879327196007E9, -472.9627079963684, -682.3971055150032, -554.1035774350166, -278.6075870990753
 1.7063879327196007E9, -586.4163130521774, -695.0828461647034, -532.8011072874069, -426.7674637436867
 1.7063879327337296E9, -533.0404608845711, -696.5189677476883, -535.6733504533768, -392.3005457520485
 1.7063879327337296E9, -460.5163209438324, -686.2267630696297, -541.4178367853165, -255.62964177131653
 1.706387932749307E9, -560.5661245584488, -687.6628846526146, -533.7585216760635, -369.08324682712555
 1.706387932749307E9, -573.7305724024773, -704.6569900512695, -529.6895105242729, -434.9054860472679
 1.7063879327496967E9, -456.4473097920418, -695.0828461647034, -545.2474943399429, -281.47983026504517
 1.7063879327496967E9, -510.0625155568123, -682.157751917839, -542.3752511739731, -309.4842011332512
 1.7063879327633784E9, -593.596920967102, -700.3486253023148, -535.1946432590485, -450.4634698629379
 1.7063879327633784E9, -490.43552058935165, -693.6467245817184, -539.0243008136749, -333.18020725250244
 1.706387932778894E9, -467.45757526159286, -679.2855087518692, -539.0243008136749, -267.8366752266884
 1.706387932778894E9, -589.7672634124756, -698.6731501221657, -542.1358975768089, -432.7513036727905
 1.7063879327796535E9, -529.6895105242729, -699.8699181079865, -538.5455936193466, -396.3695569038391
 1.7063879327796535E9, -447.5912266969681, -684.3119342923164, -550.5132734775543, -260.4167137145996
 1.706387932793427E9, -555.7790526151657, -691.4925422072411, -537.58817923069, -375.0670867562294
 1.706387932793427E9, -580.9111803174019, -710.8801835775375, -539.0243008136749, -443.2828619480133
 1.7063879328088279E9, -457.16537058353424, -691.9712494015694, -543.811372756958, -281.00112307071686
 1.7063879328088279E9, -511.73799073696136, -683.1151663064957, -539.9817152023315, -313.0745050907135
 1.7063879328096085E9, -601.0168824791908, -704.6569900512695, -534.7159360647202, -456.9260169863701
 1.7063879328096085E9, -490.1961669921875, -698.4337965250015, -543.0933119654655, -331.2653784751892
 1.7063879328237813E9, -478.2284871339798, -683.3545199036598, -546.2049087285995, -270.70891839265823
 1.7063879328237813E9, -589.5279098153114, -695.3221997618675, -534.2372288703918, -423.17715978622437
 1.7063879328391612E9, -533.9978752732277, -697.4763821363449, -536.3914112448692, -394.4547281265259
 1.7063879328391612E9, -455.48989540338516, -689.5777134299278, -541.8965439796448, -257.3051169514656
 1.7063879328396096E9, -560.3267709612846, -692.4499565958977, -535.9127040505409, -373.87031877040863
 1.7063879328396096E9, -585.2195450663567, -705.8537580370903, -530.1682177186012, -440.41061878204346
 1.7063879328539932E9, -459.79826015233994, -689.817067027092, -539.2636544108391, -280.7617694735527
 1.7063879328539932E9, -511.0199299454689, -680.7216303348541, -533.0404608845711, -304.2184219956398
 1.706387932868797E9, -587.8524346351624, -693.1680173873901, -522.03019541502, -441.6073867678642
 1.706387932868797E9, -482.7762054800987, -692.6893101930618, -531.364985704422, -327.43572092056274
 1.7063879328695443E9, -466.50016087293625, -673.7803760170937, -533.2798144817352, -259.9380065202713
 1.7063879328695443E9, -586.4163130521774, -688.1415918469429, -525.3811457753181, -422.69845259189606
 1.7063879328832548E9, -534.2372288703918, -697.2370285391808, -531.1256321072578, -390.86442416906357
 1.7063879328832548E9, -453.8144202232361, -686.4661166667938, -543.5720191597939, -260.17736011743546
 1.7063879328989077E9, -543.811372756958, -681.9183983206749, -532.0830464959145, -368.8438932299614
 1.7063879328989077E9, -571.0976828336716, -697.7157357335091, -526.5779137611389, -441.1286795735359
 1.7063879328995247E9, -452.138945043087, -686.9448238611221, -539.7423616051674, -283.8733662366867
 1.7063879328995247E9, -504.55738282203674, -679.7642159461975, -532.3224000930786, -307.09066516160965
 1.7063879329134445E9, -590.9640313982964, -695.0828461647034, -519.8760130405426, -445.4370443224907
 1.7063879329134445E9, -488.5206918120384, -690.7744814157486, -526.5779137611389, -329.8292568922043
 1.7063879329291532E9, -470.3298184275627, -680.0035695433617, -537.1094720363617, -268.55473601818085
 1.7063879329291532E9, -582.586655497551, -686.9448238611221, -525.3811457753181, -426.28875654935837
 1.7063879329297535E9, -536.6307648420334, -696.04026055336, -537.58817923069, -401.6353360414505
 1.7063879329297535E9, -455.48989540338516, -683.1151663064957, -544.0507263541222, -264.4857248663902
 1.7063879329595428E9, -548.5984447002411, -683.8332270979881, -533.5191680788994, -376.98191553354263
 1.7063879329595428E9, -571.815743625164, -706.0931116342545, -536.1520576477051, -444.4796299338341
 1.706387932960251E9, -466.50016087293625, -700.8273324966431, -549.3165054917336, -292.7294493317604
 1.706387932960251E9, -511.0199299454689, -681.6790447235107, -533.9978752732277, -312.83515149354935
 1.7063879329610412E9, -594.7936889529228, -699.8699181079865, -526.3385601639748, -453.3357130289078
 1.7063879329610412E9, -479.42525511980057, -684.0725806951523, -529.6895105242729, -331.02602487802505
 1.7063879329732244E9, -459.0801993608475, -670.9081328511238, -527.0566209554672, -259.21994572877884
 1.7063879329732244E9, -581.3898875117302, -683.8332270979881, -520.8334274291992, -416.95396625995636
 1.7063879329890852E9, -531.364985704422, -693.6467245817184, -523.9450241923332, -393.01860654354095
 1.7063879329890852E9, -449.26670187711716, -677.370679974556, -535.4339968562126, -254.91158097982407
 1.7063879329896593E9, -558.1725885868073, -683.593873500824, -528.9714497327805, -366.2110036611557
 1.7063879329896593E9, -573.7305724024773, -695.0828461647034, -531.1256321072578, -441.6073867678642
 1.7063879330032485E9, -443.04350835084915, -676.4132655858994, -534.7159360647202, -282.1978910565376
 1.7063879330032485E9, -500.96707886457443, -676.4132655858994, -528.9714497327805, -305.6545435786247
 1.7063879330191503E9, -590.2459706068039, -693.4073709845543, -524.4237313866615, -454.05377382040024
 1.7063879330191503E9, -483.9729734659195, -693.4073709845543, -536.3914112448692, -339.1640471816063
 1.706387933019678E9, -463.1492105126381, -674.0197296142578, -537.1094720363617, -268.3153824210167
 1.706387933019678E9, -574.927340388298, -684.7906414866447, -522.9876098036766, -426.0494029521942
 1.7063879330334601E9, -522.7482562065125, -690.5351278185844, -530.8862785100937, -395.17278891801834
 1.7063879330334601E9, -445.915751516819, -681.9183983206749, -538.3062400221825, -257.06576335430145
 1.7063879330490758E9, -552.6674558520317, -686.4661166667938, -528.9714497327805, -363.81746768951416
 1.7063879330490758E9, -561.0448317527771, -688.380945444107, -518.918598651886, -430.11841410398483
 1.7063879330501802E9, -443.52221554517746, -681.4396911263466, -532.5617536902428, -277.6501727104187
 1.7063879330501802E9, -494.9832389354706, -676.8919727802277, -530.4075713157654, -301.5855324268341
 1.7063879330792375E9, -604.8465400338173, -713.2737195491791, -544.0507263541222, -466.50016087293625
 1.7063879330792375E9, -499.77031087875366, -701.7847468852997, -549.3165054917336, -350.89237344264984
 1.7063879330796196E9, -479.6646087169647, -686.2267630696297, -547.6410303115845, -275.25663673877716
 1.7063879330796196E9, -584.0227770805359, -689.0990062355995, -521.0727810263634, -418.15073424577713
 1.7063879330940037E9, -454.53248101472855, -691.2531886100769, -543.811372756958, -261.6134817004204
 1.7063879330940037E9, -560.3267709612846, -692.4499565958977, -538.5455936193466, -370.7587220072746
 1.7063879330947337E9, -567.028671681881, -697.2370285391808, -533.7585216760635, -438.7351436018944
 1.7063879330947337E9, -457.4047241806984, -692.2106029987335, -538.7849472165108, -283.15530544519424
 1.7063879331081605E9, -516.5250626802444, -689.3383598327637, -538.5455936193466, -312.5957978963852
 1.7063879331081605E9, -593.3575673699379, -700.3486253023148, -526.0992065668106, -449.26670187711716
 1.7063879331238866E9, -488.0419846177101, -693.4073709845543, -528.253388941288, -335.3343896269798
 1.7063879331238866E9, -461.23438173532486, -672.822961628437, -532.8011072874069, -261.6134817004204
 1.706387933124602E9, -583.7834234833717, -687.1841774582863, -528.253388941288, -427.00681734085083
 1.706387933124602E9, -539.7423616051674, -704.6569900512695, -531.6043393015862, -399.4811536669731
 1.70638793313819E9, -454.7718346118927, -691.9712494015694, -547.1623231172562, -264.4857248663902
 1.70638793313819E9, -560.0874173641205, -689.3383598327637, -540.699775993824, -372.912904381752
 1.7063879331542432E9, -578.9963515400887, -706.5718188285828, -538.0668864250183, -447.83058029413223
 1.7063879331542432E9, -462.43114972114563, -701.7847468852997, -549.5558590888977, -294.64427810907364
 1.7063879331546392E9, -514.6102339029312, -691.9712494015694, -541.1784831881523, -318.57963782548904
 1.7063879331546392E9, -600.0594680905342, -702.263454079628, -528.7320961356163, -452.85700583457947
 1.7063879331682737E9, -482.2974982857704, -685.9874094724655, -531.8436928987503, -336.0524504184723
 1.7063879331682737E9, -476.0743047595024, -682.8758127093315, -539.7423616051674, -267.8366752266884
 1.7063879331838975E9, -587.8524346351624, -697.2370285391808, -531.1256321072578, -427.48552453517914
 1.7063879331838975E9, -543.0933119654655, -702.0241004824638, -534.9552896618843, -405.46499359607697
 1.706387933184571E9, -468.4149896502495, -699.3912109136581, -550.9919806718826, -269.2727968096733
 1.706387933184571E9, -551.9493950605392, -694.6041389703751, -539.7423616051674, -370.9980756044388
 1.7063879331981769E9, -572.0550972223282, -704.1782828569412, -533.5191680788994, -450.7028234601021
 1.7063879331981769E9, -455.01118820905685, -691.7318958044052, -544.5294335484505, -289.85720616579056
 1.706387933214002E9, -508.3870403766632, -687.6628846526146, -546.2049087285995, -316.90416264533997
 1.706387933214002E9, -592.6395065784454, -700.1092717051506, -536.3914112448692, -462.1917961239815
 1.7063879332146325E9, -498.81289649009705, -702.0241004824638, -541.1784831881523, -347.30206948518753
 1.7063879332146325E9, -476.31365835666656, -686.2267630696297, -549.0771518945694, -280.04370868206024
 1.7063879332287335E9, -584.7408378720284, -692.2106029987335, -538.5455936193466, -431.55453568696976
 1.7063879332287335E9, -535.6733504533768, -701.5453932881355, -534.476582467556, -406.4224079847336
 1.7063879332443671E9, -452.85700583457947, -690.5351278185844, -545.7262015342712, -266.6399072408676
 1.7063879332443671E9, -550.9919806718826, -688.6202990412712, -536.6307648420334, -371.9554899930954
 1.7063879332446625E9, -576.363461971283, -704.1782828569412, -536.6307648420334, -449.26670187711716
 1.7063879332446625E9, -458.60149216651917, -691.9712494015694, -545.2474943399429, -292.2507421374321
 1.7063879332581604E9, -509.82316195964813, -685.269348680973, -543.0933119654655, -318.8189914226532
 1.7063879332581604E9, -597.4265785217285, -702.7421612739563, -536.6307648420334, -459.79826015233994
 1.7063879332739315E9, -493.54711735248566, -696.5189677476883, -540.4604223966599, -342.51499754190445
 1.7063879332739315E9, -468.4149896502495, -681.2003375291824, -544.5294335484505, -274.0598687529564
 1.706387933274558E9, -588.3311418294907, -692.4499565958977, -531.8436928987503, -429.8790605068207
 1.706387933274558E9, -541.1784831881523, -703.9389292597771, -539.9817152023315, -407.14046877622604
 1.7063879332881796E9, -451.42088425159454, -688.1415918469429, -548.8377982974052, -270.2302111983299
 1.7063879332881796E9, -554.1035774350166, -689.3383598327637, -539.5030080080032, -375.0670867562294
 1.7063879333038492E9, -580.4324731230736, -702.9815148711205, -539.2636544108391, -454.05377382040024
 1.7063879333038492E9, -466.97886806726456, -698.9125037193298, -545.2474943399429, -289.6178525686264
 1.7063879333045604E9, -515.5676482915878, -687.9022382497787, -539.5030080080032, -308.04807955026627
 1.7063879333045604E9, -594.3149817585945, -695.8009069561958, -532.5617536902428, -458.12278497219086
 1.70638793331842E9, -489.95681339502335, -693.8860781788826, -530.1682177186012, -342.03629034757614
 1.70638793331842E9, -477.98913353681564, -684.5512878894806, -541.4178367853165, -274.29922235012054
 1.7063879333341987E9, -587.1343738436699, -689.5777134299278, -530.6469249129295, -431.7938892841339
 1.7063879333341987E9, -528.7320961356163, -694.8434925675392, -532.8011072874069, -406.1830543875694
 1.7063879333347645E9, -445.915751516819, -680.2429231405258, -533.7585216760635, -258.02317774295807
 1.7063879333347645E9, -540.2210687994957, -675.6952047944069, -529.2108033299446, -364.5355284810066
 1.7063879333482327E9, -565.8319036960602, -693.1680173873901, -526.5779137611389, -445.4370443224907
 1.7063879333482327E9, -456.2079561948776, -689.0990062355995, -542.3752511739731, -288.6604381799698
 1.7063879333639317E9, -516.2857090830803, -686.4661166667938, -545.7262015342712, -313.0745050907135
 1.7063879333639317E9, -604.6071864366531, -707.7685868144035, -533.2798144817352, -464.1066249012947
 1.7063879333646648E9, -493.7864709496498, -696.04026055336, -537.58817923069, -352.0891414284706
 1.7063879333646648E9, -483.25491267442703, -694.8434925675392, -551.7100414633751, -277.88952630758286
 1.7063879333783393E9, -587.8524346351624, -702.0241004824638, -536.6307648420334, -430.59712129831314
 1.7063879333783393E9, -512.2166979312897, -676.6526191830635, -512.2166979312897, -388.2315346002579
 1.7063879333939264E9, -439.2138507962227, -675.4558511972427, -534.476582467556, -261.3741281032562
 1.7063879333939264E9, -527.0566209554672, -669.4720112681389, -526.0992065668106, -365.7322964668274
 1.7063879333945768E9, -556.4971134066582, -690.7744814157486, -520.1153666377068, -445.67639791965485
 1.7063879333945768E9, -437.5383756160736, -679.2855087518692, -539.0243008136749, -297.5165212750435
 1.7063879334085531E9, -489.7174597978592, -673.3016688227654, -537.3488256335258, -315.7073946595192
 1.7063879334085531E9, -567.7467324733734, -683.8332270979881, -522.2695490121841, -456.9260169863701
 1.70638793342417E9, -461.23438173532486, -675.934558391571, -526.5779137611389, -340.36081516742706
 1.70638793342417E9, -449.26670187711716, -668.5145968794823, -536.3914112448692, -272.14503997564316
 1.7063879334246635E9, -566.7893180847168, -677.6100335717201, -524.6630849838257, -430.357767701149
 1.7063879334246635E9, -506.47221159935, -673.5410224199295, -520.5940738320351, -400.6779216527939
 1.706387933438468E9, -421.022977411747, -667.5571824908257, -530.1682177186012, -260.4167137145996
 1.706387933438468E9, -527.5353281497955, -666.8391216993332, -528.9714497327805, -370.2800148129463
 1.706387933453939E9, -555.0609918236732, -684.3119342923164, -527.2959745526314, -454.05377382040024
 1.706387933453939E9, -443.04350835084915, -684.0725806951523, -543.3326655626297, -299.6707036495209
 1.7063879334546664E9, -488.28133821487427, -675.2164976000786, -530.8862785100937, -310.20226192474365
 1.7063879334546664E9, -571.0976828336716, -687.1841774582863, -526.8172673583031, -461.473735332489
 1.7063879334681485E9, -481.3400838971138, -693.6467245817184, -535.4339968562126, -349.69560545682907
 1.7063879334681485E9, -459.79826015233994, -679.7642159461975, -541.8965439796448, -277.88952630758286
 1.706387933483893E9, -572.7731580138206, -685.269348680973, -527.5353281497955, -427.48552453517914
 1.706387933483893E9, -521.5514882206917, -690.0564206242561, -525.8598529696465, -404.50757920742035
 1.7063879334846237E9, -439.2138507962227, -679.2855087518692, -536.1520576477051, -260.65606731176376
 1.7063879334846237E9, -539.0243008136749, -680.48227673769, -529.4501569271088, -369.801307618618
 1.7063879335151172E9, -560.0874173641205, -689.3383598327637, -528.9714497327805, -444.9583371281624
 1.7063879335151172E9, -446.8731659054756, -685.0299950838089, -544.5294335484505, -292.49009573459625
 1.7063879335153677E9, -491.6322885751724, -669.711364865303, -535.6733504533768, -310.4416155219078
 1.7063879335153677E9, -576.1241083741188, -688.380945444107, -529.6895105242729, -456.4473097920418
 1.706387933516188E9, -476.5530119538307, -684.7906414866447, -533.9978752732277, -344.1904727220535
 1.706387933516188E9, -456.4473097920418, -676.6526191830635, -535.4339968562126, -268.55473601818085
 1.7063879335281975E9, -577.0815227627754, -689.5777134299278, -531.364985704422, -427.48552453517914
 1.7063879335281975E9, -531.364985704422, -697.9550893306732, -533.5191680788994, -404.98628640174866
 1.706387933544253E9, -445.915751516819, -676.6526191830635, -540.699775993824, -257.7838241457939
 1.706387933544253E9, -541.6571903824806, -680.48227673769, -529.4501569271088, -361.9026389122009
 1.7063879335446987E9, -566.7893180847168, -690.0564206242561, -527.5353281497955, -445.19769072532654
 1.7063879335446987E9, -445.19769072532654, -681.2003375291824, -534.9552896618843, -283.8733662366867
 1.7063879335582764E9, -500.24901807308197, -681.2003375291824, -529.9288641214371, -303.97906839847565
 1.7063879335582764E9, -589.7672634124756, -702.5028076767921, -533.5191680788994, -458.8408457636833
 1.7063879335741873E9, -492.3503493666649, -702.263454079628, -545.0081407427788, -349.4562518596649
 1.7063879335741873E9, -468.65434324741364, -684.3119342923164, -545.7262015342712, -268.3153824210167
 1.7063879335748737E9, -576.6028155684471, -689.0990062355995, -522.5089026093483, -415.7571982741356
 1.7063879335748737E9, -536.3914112448692, -697.7157357335091, -535.4339968562126, -402.1140432357788
 1.7063879335883E9, -453.3357130289078, -688.6202990412712, -545.0081407427788, -263.28895688056946
 1.7063879335883E9, -547.8803839087486, -688.1415918469429, -538.3062400221825, -370.5193684101105
 1.7063879336038928E9, -571.3370364308357, -702.9815148711205, -533.7585216760635, -450.94217705726624
 1.7063879336038928E9, -451.42088425159454, -692.6893101930618, -544.5294335484505, -297.0378140807152
 1.70638793360457E9, -509.82316195964813, -698.4337965250015, -541.6571903824806, -315.46804106235504
 1.70638793360457E9, -602.6923576593399, -712.7950123548508, -539.0243008136749, -466.7395144701004
 1.7063879336184058E9, -495.22259253263474, -701.5453932881355, -539.0243008136749, -350.89237344264984
 1.7063879336184058E9, -473.68076878786087, -687.4235310554504, -549.5558590888977, -276.45340472459793
 1.706387933633837E9, -586.6556666493416, -704.6569900512695, -535.4339968562126, -430.357767701149
 1.706387933633837E9, -541.8965439796448, -708.7260012030602, -538.0668864250183, -410.4914191365242
 1.706387933634622E9, -458.8408457636833, -694.3647853732109, -550.034566283226, -267.3579680323601
 1.706387933634622E9, -550.034566283226, -696.5189677476883, -536.6307648420334, -372.19484359025955
 1.706387933648193E9, -581.6292411088943, -708.2472940087318, -537.1094720363617, -448.5486410856247
 1.706387933648193E9, -462.90985691547394, -695.3221997618675, -545.2474943399429, -296.3197532892227
 1.706387933664184E9, -506.47221159935, -683.8332270979881, -542.8539583683014, -316.1861018538475
 1.706387933664184E9, -593.596920967102, -700.8273324966431, -530.1682177186012, -456.2079561948776
 1.7063879336647587E9, -491.8716421723366, -695.3221997618675, -531.6043393015862, -344.66917991638184
 1.7063879336647587E9, -464.585332095623, -675.6952047944069, -536.1520576477051, -270.9482719898224
 1.7063879336781561E9, -583.3047162890434, -688.380945444107, -526.3385601639748, -421.022977411747
 1.7063879336781561E9, -525.6204993724823, -683.8332270979881, -525.8598529696465, -396.13020330667496
 1.7063879336938355E9, -435.6235468387604, -674.0197296142578, -539.7423616051674, -260.17736011743546
 1.7063879336938355E9, -541.1784831881523, -683.593873500824, -532.3224000930786, -364.5355284810066
 1.7063879336945615E9, -571.0976828336716, -698.1944429278374, -523.9450241923332, -439.2138507962227
 1.7063879336945615E9, -461.473735332489, -691.2531886100769, -538.5455936193466, -287.70302379131317
 1.7063879337085028E9, -510.5412227511406, -685.5087022781372, -537.1094720363617, -311.6383835077286
 1.7063879337085028E9, -605.0858936309814, -703.9389292597771, -535.6733504533768, -462.90985691547394
 1.7063879337239256E9, -494.5045317411423, -697.7157357335091, -542.3752511739731, -350.6530198454857
 1.7063879337239256E9, -477.031719148159, -689.0990062355995, -552.4281022548676, -281.7191838622093
 1.706387933724574E9, -593.3575673699379, -702.9815148711205, -534.7159360647202, -429.8790605068207
 1.706387933724574E9, -544.2900799512863, -706.3324652314186, -533.2798144817352, -406.4224079847336
 1.7063879337381332E9, -452.6176522374153, -683.1151663064957, -540.9391295909882, -257.54447054862976
 1.7063879337381332E9, -547.6410303115845, -682.3971055150032, -532.3224000930786, -360.22716373205185
 1.706387933753793E9, -578.2782907485962, -706.5718188285828, -530.8862785100937, -447.3518730998039
 1.706387933753793E9, -460.75567454099655, -692.4499565958977, -542.1358975768089, -290.33591336011887
 1.706387933754537E9, -502.40320044755936, -677.8493871688843, -529.9288641214371, -300.6281180381775
 1.706387933754537E9, -595.7511033415794, -700.1092717051506, -530.1682177186012, -454.53248101472855
 1.70638793378459E9, -494.7438853383064, -700.5879788994789, -538.5455936193466, -350.41366624832153
 1.70638793378459E9, -471.76594001054764, -686.4661166667938, -542.1358975768089, -274.0598687529564
 1.7063879337853093E9, -593.8362745642662, -707.7685868144035, -540.4604223966599, -432.2725964784622
 1.7063879337853093E9, -540.699775993824, -703.6995756626129, -537.1094720363617, -404.02887201309204
 1.7063879337861621E9, -448.30928748846054, -688.8596526384354, -545.4868479371071, -264.4857248663902
 1.7063879337861621E9, -530.6469249129295, -679.046155154705, -530.8862785100937, -357.8336277604103
 1.7063879337983956E9, -567.7467324733734, -694.1254317760468, -526.0992065668106, -444.71898353099823
 1.7063879337983956E9, -455.48989540338516, -687.6628846526146, -543.811372756958, -292.01138854026794
 1.7063879338140993E9, -504.07867562770844, -687.4235310554504, -542.3752511739731, -308.04807955026627
 1.7063879338140993E9, -609.3942583799362, -709.4440619945526, -541.6571903824806, -468.65434324741364
 1.7063879338146536E9, -482.7762054800987, -691.7318958044052, -540.9391295909882, -345.8659479022026
 1.7063879338146536E9, -455.250541806221, -678.3280943632126, -538.3062400221825, -260.65606731176376
 1.7063879338282092E9, -588.0917882323265, -704.8963436484337, -540.4604223966599, -431.7938892841339
 1.7063879338282092E9, -544.0507263541222, -709.2047083973885, -539.7423616051674, -408.8159439563751
 1.7063879338440115E9, -447.3518730998039, -682.8758127093315, -546.6836159229279, -262.570896089077
 1.7063879338440115E9, -552.6674558520317, -689.3383598327637, -537.1094720363617, -365.2535892724991
 1.706387933844633E9, -580.1931195259094, -704.6569900512695, -529.2108033299446, -449.26670187711716
 1.706387933844633E9, -458.8408457636833, -693.6467245817184, -539.7423616051674, -291.53268134593964
 1.706387933858224E9, -503.360614836216, -682.157751917839, -535.4339968562126, -307.56937235593796
 1.706387933858224E9, -596.708517730236, -698.6731501221657, -525.6204993724823, -451.6602378487587
 1.7063879338741703E9, -489.2387526035309, -695.3221997618675, -529.6895105242729, -345.8659479022026
 1.7063879338741703E9, -469.3724040389061, -682.6364591121674, -541.8965439796448, -268.55473601818085
 1.7063879338746655E9, -581.8685947060585, -689.817067027092, -532.8011072874069, -428.92164611816406
 1.7063879338746655E9, -529.4501569271088, -691.0138350129128, -532.8011072874069, -402.83210402727127
 1.7063879338882318E9, -447.5912266969681, -687.6628846526146, -541.4178367853165, -259.459299325943
 1.7063879338882318E9, -555.3003454208374, -695.5615533590317, -536.8701184391975, -369.3226004242897
 1.7063879339038904E9, -584.9801914691925, -712.5556587576866, -537.58817923069, -451.89959144592285
 1.7063879339038904E9, -472.4840008020401, -701.3060396909714, -553.6248702406883, -302.5429468154907
 1.7063879339045913E9, -514.3708803057671, -695.3221997618675, -550.034566283226, -315.2286874651909
 1.7063879339045913E9, -594.5543353557587, -699.6305645108223, -539.9817152023315, -458.362138569355
 1.7063879339185688E9, -485.8878022432327, -689.817067027092, -540.2210687994957, -348.4988374710083
 1.7063879339185688E9, -460.75567454099655, -678.5674479603767, -532.0830464959145, -262.81024968624115
 1.7063879339342089E9, -571.0976828336716, -683.8332270979881, -525.3811457753181, -415.51784467697144
 1.7063879339342089E9, -536.1520576477051, -696.5189677476883, -532.8011072874069, -403.7895184159279
 1.706387933934658E9, -448.0699338912964, -678.3280943632126, -536.1520576477051, -256.347702562809
 1.706387933934658E9, -543.811372756958, -678.8068015575409, -533.9978752732277, -365.7322964668274
 1.70638793394819E9, -573.0125116109848, -700.8273324966431, -533.7585216760635, -449.26670187711716
 1.70638793394819E9, -454.2931274175644, -688.380945444107, -541.1784831881523, -292.2507421374321
 1.7063879339638822E9, -501.92449325323105, -685.269348680973, -539.0243008136749, -307.56937235593796
 1.7063879339638822E9, -593.596920967102, -702.5028076767921, -530.1682177186012, -453.0963594317436
 1.7063879339645777E9, -494.7438853383064, -697.9550893306732, -539.0243008136749, -350.89237344264984
 1.7063879339645777E9, -469.13305044174194, -685.7480558753014, -545.7262015342712, -271.66633278131485
 1.7063879339946125E9, -585.4588986635208, -697.9550893306732, -531.1256321072578, -418.15073424577713
 1.7063879339946125E9, -534.476582467556, -691.9712494015694, -533.5191680788994, -402.1140432357788
 1.7063879339953156E9, -437.77772921323776, -679.046155154705, -541.8965439796448, -254.91158097982407
 1.7063879339953156E9, -533.9978752732277, -681.6790447235107, -527.5353281497955, -353.2859094142914
 1.7063879339962387E9, -573.9699259996414, -694.3647853732109, -520.3547202348709, -440.41061878204346
 1.7063879339962387E9, -449.9847626686096, -680.9609839320183, -538.0668864250183, -287.70302379131317
 1.706387934008377E9, -494.9832389354706, -678.8068015575409, -542.8539583683014, -303.97906839847565
 1.706387934008377E9, -592.1607993841171, -702.0241004824638, -533.2798144817352, -455.01118820905685
 1.7063879340238595E9, -496.8980677127838, -701.0666860938072, -545.4868479371071, -349.4562518596649
 1.7063879340238595E9, -469.13305044174194, -689.3383598327637, -547.4016767144203, -266.87926083803177
 1.7063879340245495E9, -591.921445786953, -706.3324652314186, -550.034566283226, -431.55453568696976
 1.7063879340245495E9, -538.7849472165108, -703.2208684682846, -537.58817923069, -410.73077273368835
 1.7063879340382187E9, -434.18742525577545, -673.3016688227654, -533.9978752732277, -256.58705615997314
 1.7063879340382187E9, -534.7159360647202, -677.1313263773918, -527.7746817469597, -357.59427416324615
 1.7063879340703783E9, -577.3208763599396, -701.5453932881355, -532.3224000930786, -444.4796299338341
 1.7063879340703783E9, -458.12278497219086, -693.4073709845543, -548.3590911030769, -297.0378140807152
 1.706387934070897E9, -508.62639397382736, -692.928663790226, -553.14616304636, -321.9305881857872
 1.706387934070897E9, -602.2136504650116, -708.2472940087318, -539.2636544108391, -453.8144202232361
 1.7063879340717103E9, -491.8716421723366, -692.2106029987335, -525.6204993724823, -327.91442811489105
 1.7063879340717103E9, -476.7923655509949, -686.4661166667938, -548.1197375059128, -258.74123853445053
 1.7063879340724561E9, -589.7672634124756, -692.6893101930618, -530.1682177186012, -415.7571982741356
 1.7063879340724561E9, -544.7687871456146, -701.3060396909714, -527.5353281497955, -395.65149611234665
 1.7063879340992117E9, -544.7687871456146, -685.5087022781372, -533.7585216760635, -349.69560545682907
 1.7063879340992117E9, -591.4427385926247, -707.5292332172394, -531.364985704422, -440.88932597637177
 1.7063879340997097E9, -470.09046483039856, -699.6305645108223, -542.1358975768089, -284.8307806253433
 1.7063879340997097E9, -521.0727810263634, -698.4337965250015, -544.2900799512863, -304.2184219956398
 1.7063879341134903E9, -611.7877943515778, -711.8375979661942, -535.4339968562126, -453.57506662607193
 1.7063879341134903E9, -506.47221159935, -702.0241004824638, -541.6571903824806, -349.69560545682907
 1.706387934128849E9, -474.1594759821892, -684.3119342923164, -541.4178367853165, -262.33154249191284
 1.706387934128849E9, -603.8891256451607, -704.8963436484337, -534.2372288703918, -415.51784467697144
 1.7063879341295488E9, -547.6410303115845, -709.9227691888809, -529.4501569271088, -400.43856805562973
 1.7063879341295488E9, -450.2241162657738, -685.7480558753014, -535.4339968562126, -250.12450903654099
 1.7063879341434689E9, -545.9655551314354, -684.5512878894806, -535.6733504533768, -354.96138459444046
 1.7063879341434689E9, -583.0653626918793, -706.0931116342545, -534.2372288703918, -445.19769072532654
 1.7063879341591833E9, -465.7821000814438, -694.6041389703751, -539.0243008136749, -285.5488414168358
 1.7063879341591833E9, -503.1212612390518, -677.8493871688843, -533.9978752732277, -293.9262173175812
 1.7063879341596885E9, -598.144639313221, -700.5879788994789, -530.8862785100937, -447.83058029413223
 1.7063879341596885E9, -499.0522500872612, -696.7583213448524, -538.7849472165108, -345.3872407078743
 1.706387934173659E9, -474.39882957935333, -680.2429231405258, -542.6146047711372, -264.0070176720619
 1.706387934173659E9, -588.0917882323265, -692.928663790226, -536.6307648420334, -420.7836238145828
 1.7063879341888802E9, -549.0771518945694, -700.5879788994789, -537.58817923069, -406.4224079847336
 1.7063879341888802E9, -463.6279177069664, -694.1254317760468, -550.9919806718826, -262.33154249191284
 1.7063879341895845E9, -564.8744893074036, -701.3060396909714, -550.034566283226, -364.0568212866783
 1.7063879341895845E9, -592.6395065784454, -708.2472940087318, -537.3488256335258, -447.83058029413223
 1.7063879342032475E9, -478.2284871339798, -699.8699181079865, -546.922969520092, -290.0965597629547
 1.7063879342032475E9, -518.918598651886, -693.6467245817184, -543.5720191597939, -302.7823004126549
 1.706387934218902E9, -608.4368439912796, -707.7685868144035, -533.0404608845711, -459.5589065551758
 1.706387934218902E9, -503.8393220305443, -699.3912109136581, -540.699775993824, -350.6530198454857
 1.706387934219572E9, -467.696928858757, -678.3280943632126, -539.2636544108391, -263.28895688056946
 1.706387934219572E9, -588.0917882323265, -689.0990062355995, -531.8436928987503, -414.32107669115067
 1.706387934233358E9, -541.1784831881523, -691.2531886100769, -519.6366594433784, -393.01860654354095
 1.706387934233358E9, -456.9260169863701, -688.8596526384354, -546.4442623257637, -262.0921888947487
 1.7063879342488432E9, -558.8906493782997, -690.0564206242561, -535.6733504533768, -364.0568212866783
 1.7063879342488432E9, -581.150533914566, -696.9976749420166, -532.3224000930786, -440.1712651848793
 1.7063879342495697E9, -456.4473097920418, -682.6364591121674, -536.1520576477051, -280.52241587638855
 1.7063879342495697E9, -498.0948356986046, -675.2164976000786, -533.5191680788994, -292.96880292892456
 1.706387934263267E9, -601.7349432706833, -702.0241004824638, -532.0830464959145, -456.2079561948776
 1.706387934263267E9, -496.18000692129135, -690.7744814157486, -532.8011072874069, -338.44598639011383
 1.7063879342791994E9, -456.2079561948776, -668.5145968794823, -533.2798144817352, -252.03933781385422
 1.7063879342791994E9, -581.3898875117302, -687.4235310554504, -524.6630849838257, -410.0127119421959
 1.7063879342796488E9, -539.2636544108391, -693.4073709845543, -528.253388941288, -400.43856805562973
 1.7063879342796488E9, -460.75567454099655, -692.928663790226, -556.7364670038223, -269.03344321250916
 1.7063879342932348E9, -550.5132734775543, -689.0990062355995, -544.2900799512863, -366.45035725831985
 1.7063879342932348E9, -575.6454011797905, -689.817067027092, -533.7585216760635, -442.3254475593567
 1.7063879343088913E9, -461.9524425268173, -687.1841774582863, -544.0507263541222, -293.9262173175812
 1.7063879343088913E9, -508.3870403766632, -686.2267630696297, -541.1784831881523, -301.1068252325058
 1.7063879343096297E9, -606.0433080196381, -701.5453932881355, -534.476582467556, -454.53248101472855
 1.7063879343096297E9, -508.62639397382736, -704.8963436484337, -545.2474943399429, -352.8072022199631
 1.706387934339913E9, -477.2710727453232, -683.1151663064957, -546.4442623257637, -269.2727968096733
 1.706387934339913E9, -594.3149817585945, -696.2796141505241, -545.4868479371071, -426.5281101465225
 1.7063879343403175E9, -554.8216382265091, -704.4176364541054, -540.2210687994957, -412.1668943166733
 1.7063879343403175E9, -459.5589065551758, -688.380945444107, -545.2474943399429, -258.2625313401222
 1.7063879343409984E9, -550.7526270747185, -690.7744814157486, -538.0668864250183, -358.7910421490669
 1.7063879343409984E9, -588.3311418294907, -710.8801835775375, -540.4604223966599, -452.37829864025116
 1.7063879343531325E9, -470.808525621891, -697.2370285391808, -550.2739198803902, -298.4739356637001
 1.7063879343531325E9, -512.2166979312897, -694.1254317760468, -553.3855166435242, -311.6383835077286
 1.706387934368858E9, -607.479429602623, -707.7685868144035, -535.9127040505409, -453.8144202232361
 1.706387934368858E9, -504.7967364192009, -703.2208684682846, -538.0668864250183, -350.6530198454857
 1.706387934369563E9, -460.5163209438324, -677.370679974556, -532.8011072874069, -255.39028817415237
 1.706387934369563E9, -581.8685947060585, -690.2957742214203, -533.0404608845711, -415.51784467697144
 1.706387934383593E9, -541.4178367853165, -696.7583213448524, -537.1094720363617, -401.87468963861465
 1.706387934383593E9, -453.3357130289078, -687.4235310554504, -549.5558590888977, -264.2463712692261
 1.7063879343988907E9, -549.7952126860619, -685.5087022781372, -539.2636544108391, -363.57811409235
 1.7063879343988907E9, -582.3473019003868, -702.263454079628, -528.7320961356163, -449.027348279953
 1.706387934399649E9, -468.1756360530853, -700.5879788994789, -538.3062400221825, -292.7294493317604
 1.706387934399649E9, -507.9083331823349, -690.2957742214203, -548.1197375059128, -307.8087259531021
 1.7063879344134223E9, -599.1020537018776, -700.8273324966431, -533.9978752732277, -452.85700583457947
 1.7063879344134223E9, -503.1212612390518, -697.7157357335091, -539.7423616051674, -345.62659430503845
 1.7063879344290855E9, -468.65434324741364, -685.0299950838089, -543.5720191597939, -262.33154249191284
 1.7063879344290855E9, -583.5440698862076, -695.0828461647034, -528.7320961356163, -414.799783885479
 1.7063879344297469E9, -538.5455936193466, -699.8699181079865, -530.6469249129295, -404.2682256102562
 1.7063879344297469E9, -459.5589065551758, -699.8699181079865, -558.1725885868073, -271.4269791841507
 1.7063879344431317E9, -559.8480637669563, -697.2370285391808, -545.7262015342712, -369.3226004242897
 1.7063879344431317E9, -597.1872249245644, -716.6246699094772, -539.7423616051674, -459.5589065551758
 1.706387934459058E9, -482.2974982857704, -708.0079404115677, -550.9919806718826, -299.19199645519257
 1.706387934459058E9, -512.4560515284538, -694.1254317760468, -550.034566283226, -303.2610076069832
 1.7063879344597137E9, -612.9845623373985, -718.0607914924622, -539.9817152023315, -461.23438173532486
 1.7063879344597137E9, -513.1741123199463, -709.2047083973885, -548.1197375059128, -356.3975061774254
 1.706387934473351E9, -477.2710727453232, -691.4925422072411, -550.2739198803902, -272.14503997564316
 1.706387934473351E9, -586.4163130521774, -691.9712494015694, -531.6043393015862, -418.8687950372696
 1.706387934489114E9, -542.1358975768089, -700.8273324966431, -536.6307648420334, -409.29465115070343
 1.706387934489114E9, -466.50016087293625, -705.6144044399261, -562.480953335762, -277.88952630758286
 1.706387934489627E9, -538.3062400221825, -687.9022382497787, -539.2636544108391, -364.29617488384247
 1.706387934489627E9, -572.7731580138206, -697.9550893306732, -527.7746817469597, -445.915751516819
 1.7063879345035193E9, -454.2931274175644, -689.817067027092, -544.2900799512863, -294.4049245119095
 1.7063879345035193E9, -490.91422778367996, -674.7377904057503, -538.0668864250183, -300.86747163534164
 1.7063879345188997E9, -589.7672634124756, -693.4073709845543, -529.2108033299446, -457.8834313750267
 1.7063879345188997E9, -482.2974982857704, -690.5351278185844, -529.9288641214371, -346.8233622908592
 1.7063879345196545E9, -449.9847626686096, -673.5410224199295, -537.1094720363617, -262.0921888947487
 1.7063879345196545E9, -565.1138429045677, -675.4558511972427, -517.9611842632294, -409.77335834503174
 1.7063879345333598E9, -529.2108033299446, -688.8596526384354, -516.7644162774086, -394.69408172369003
 1.7063879345333598E9, -442.3254475593567, -680.48227673769, -542.8539583683014, -257.3051169514656
 1.706387934549216E9, -547.4016767144203, -688.6202990412712, -545.9655551314354, -363.57811409235
 1.706387934549216E9, -583.0653626918793, -702.5028076767921, -533.5191680788994, -450.7028234601021
 1.7063879345497477E9, -476.31365835666656, -708.9653548002243, -554.1035774350166, -309.24484753608704
 1.7063879345497477E9, -503.5999684333801, -690.5351278185844, -544.2900799512863, -306.13325077295303
 1.706387934563564E9, -604.8465400338173, -708.0079404115677, -540.9391295909882, -458.60149216651917
 1.706387934563564E9, -510.30186915397644, -711.3588907718658, -547.1623231172562, -359.74845653772354
 1.7063879345788972E9, -468.65434324741364, -687.6628846526146, -548.1197375059128, -272.8631007671356
 1.7063879345788972E9, -586.8950202465057, -698.6731501221657, -535.9127040505409, -422.9378061890602
 1.7063879345798624E9, -547.6410303115845, -709.4440619945526, -535.9127040505409, -416.47525906562805
 1.7063879345798624E9, -449.5060554742813, -685.269348680973, -545.2474943399429, -269.51215040683746
 1.7063879345932124E9, -546.6836159229279, -684.7906414866447, -538.0668864250183, -360.70587092638016
 1.7063879345932124E9, -572.0550972223282, -696.7583213448524, -534.2372288703918, -445.915751516819
 1.7063879346253247E9, -459.79826015233994, -693.4073709845543, -540.2210687994957, -295.60169249773026
 1.7063879346253247E9, -494.5045317411423, -679.2855087518692, -537.3488256335258, -297.5165212750435
 1.7063879346260643E9, -587.8524346351624, -690.5351278185844, -527.0566209554672, -449.74540907144547
 1.7063879346260643E9, -490.43552058935165, -694.8434925675392, -525.6204993724823, -346.3446550965309
 1.706387934626729E9, -458.60149216651917, -676.6526191830635, -541.4178367853165, -269.03344321250916
 1.706387934626729E9, -574.927340388298, -687.1841774582863, -530.1682177186012, -418.62944144010544
 1.7063879346274867E9, -543.811372756958, -697.7157357335091, -535.4339968562126, -415.2784910798073
 1.7063879346274867E9, -446.15510511398315, -682.8758127093315, -539.2636544108391, -259.69865292310715
 1.7063879346382349E9, -552.9068094491959, -696.9976749420166, -547.8803839087486, -365.97165006399155
 1.7063879346382349E9, -587.6130810379982, -707.0505260229111, -530.4075713157654, -449.26670187711716
 1.7063879346534328E9, -449.26670187711716, -684.5512878894806, -533.7585216760635, -286.74560940265656
 1.7063879346534328E9, -483.73361986875534, -676.4132655858994, -527.7746817469597, -294.16557091474533
 1.7063879346688905E9, -601.4955896735191, -698.4337965250015, -539.0243008136749, -457.64407777786255
 1.7063879346688905E9, -508.14768677949905, -706.5718188285828, -544.7687871456146, -360.22716373205185
 1.7063879346695733E9, -473.920122385025, -690.5351278185844, -552.6674558520317, -272.62374716997147
 1.7063879346695733E9, -587.373727440834, -699.6305645108223, -539.9817152023315, -424.134574174881
 1.706387934683344E9, -544.0507263541222, -697.9550893306732, -527.5353281497955, -408.57659035921097
 1.706387934683344E9, -446.63381230831146, -686.9448238611221, -540.4604223966599, -258.02317774295807
 1.706387934698974E9, -539.2636544108391, -686.705470263958, -528.4927425384521, -352.32849502563477
 1.706387934698974E9, -583.0653626918793, -707.0505260229111, -533.9978752732277, -445.4370443224907
 1.706387934699874E9, -460.75567454099655, -690.7744814157486, -541.8965439796448, -297.0378140807152
 1.706387934699874E9, -500.7277252674103, -689.3383598327637, -548.3590911030769, -306.61195796728134
 1.706387934713258E9, -595.5117497444153, -705.375050842762, -541.8965439796448, -458.8408457636833
 1.706387934713258E9, -496.65871411561966, -691.9712494015694, -536.1520576477051, -347.5414230823517
 1.706387934728882E9, -468.4149896502495, -688.1415918469429, -540.699775993824, -265.92184644937515
 1.706387934728882E9, -584.0227770805359, -698.4337965250015, -538.7849472165108, -424.37392777204514
 1.7063879347295592E9, -537.8275328278542, -697.9550893306732, -535.1946432590485, -411.68818712234497
 1.7063879347295592E9, -448.78799468278885, -690.0564206242561, -548.3590911030769, -263.28895688056946
 1.706387934743234E9, -542.1358975768089, -689.0990062355995, -545.2474943399429, -362.38134610652924
 1.706387934743234E9, -576.363461971283, -697.9550893306732, -536.1520576477051, -449.26670187711716
 1.7063879347593036E9, -466.50016087293625, -690.5351278185844, -549.3165054917336, -301.1068252325058
 1.7063879347593036E9, -493.7864709496498, -685.0299950838089, -545.9655551314354, -300.6281180381775
 1.706387934760084E9, -595.2723961472511, -705.375050842762, -537.1094720363617, -459.0801993608475
 1.706387934760084E9, -496.8980677127838, -699.151857316494, -532.3224000930786, -355.2007381916046
 1.7063879347735112E9, -463.1492105126381, -684.3119342923164, -547.1623231172562, -266.1612000465393
 1.7063879347735112E9, -582.3473019003868, -693.1680173873901, -534.476582467556, -423.17715978622437
 1.70638793478913E9, -543.0933119654655, -701.0666860938072, -535.9127040505409, -415.7571982741356
 1.70638793478913E9, -445.67639791965485, -684.5512878894806, -550.7526270747185, -267.8366752266884
 1.706387934789693E9, -542.1358975768089, -691.0138350129128, -540.4604223966599, -364.5355284810066
 1.706387934789693E9, -580.6718267202377, -706.0931116342545, -533.9978752732277, -453.57506662607193
 1.7063879348032336E9, -460.0376137495041, -694.3647853732109, -543.5720191597939, -296.798460483551
 1.7063879348032336E9, -501.2064324617386, -689.0990062355995, -551.4706878662109, -308.7661403417587
 1.7063879348192894E9, -596.9478713274002, -700.8273324966431, -536.1520576477051, -454.2931274175644
 1.7063879348192894E9, -507.9083331823349, -704.4176364541054, -544.5294335484505, -361.6632853150368
 1.7063879348197799E9, -468.1756360530853, -686.705470263958, -550.5132734775543, -276.45340472459793
 1.7063879348197799E9, -589.7672634124756, -703.9389292597771, -541.6571903824806, -427.7248781323433
 1.7063879348331769E9, -551.2313342690468, -714.2311339378357, -543.5720191597939, -420.06556302309036
 1.7063879348331769E9, -451.42088425159454, -695.0828461647034, -552.4281022548676, -271.18762558698654
 1.7063879348488922E9, -545.4868479371071, -696.04026055336, -551.4706878662109, -369.3226004242897
 1.7063879348488922E9, -583.3047162890434, -710.4014763832092, -539.0243008136749, -459.0801993608475
 1.706387934849644E9, -467.2182216644287, -694.3647853732109, -548.3590911030769, -301.34617882966995
 1.706387934849644E9, -499.5309572815895, -685.7480558753014, -553.3855166435242, -307.8087259531021
 1.7063879348633008E9, -601.4955896735191, -705.1356972455978, -538.3062400221825, -456.68666338920593
 1.7063879348633008E9, -501.92449325323105, -705.6144044399261, -539.2636544108391, -353.0465558171272
 1.7063879348792288E9, -463.6279177069664, -689.3383598327637, -546.2049087285995, -267.3579680323601
 1.7063879348792288E9, -580.9111803174019, -693.6467245817184, -536.6307648420334, -419.8262094259262
 1.7063879348797927E9, -545.7262015342712, -702.5028076767921, -546.2049087285995, -424.6132813692093
 1.7063879348797927E9, -458.60149216651917, -697.9550893306732, -560.5661245584488, -280.52241587638855
 1.7063879348935814E9, -555.3003454208374, -698.6731501221657, -554.3429310321808, -375.0670867562294
 1.7063879348935814E9, -595.033042550087, -717.1033771038055, -542.6146047711372, -459.0801993608475
 1.706387934909242E9, -475.5955975651741, -708.486647605896, -552.1887486577034, -307.56937235593796
 1.706387934909242E9, -512.695405125618, -696.5189677476883, -549.3165054917336, -309.0054939389229
 1.7063879349096916E9, -586.8950202465057, -696.9976749420166, -529.2108033299446, -452.85700583457947
 1.7063879349096916E9, -497.13742130994797, -700.5879788994789, -541.1784831881523, -359.0303957462311
 1.7063879349233112E9, -466.02145367860794, -683.593873500824, -548.8377982974052, -272.3843935728073
 1.7063879349233112E9, -582.3473019003868, -697.4763821363449, -543.3326655626297, -422.4590989947319
 1.7063879349389474E9, -549.7952126860619, -707.5292332172394, -541.4178367853165, -420.54427021741867
 1.7063879349389474E9, -450.94217705726624, -693.1680173873901, -546.2049087285995, -264.4857248663902
 1.7063879349396143E9, -538.3062400221825, -684.0725806951523, -538.0668864250183, -358.55168855190277
 1.7063879349396143E9, -575.6454011797905, -695.5615533590317, -532.0830464959145, -454.05377382040024
 1.70638793495348E9, -460.75567454099655, -686.705470263958, -546.922969520092, -301.5855324268341
 1.70638793495348E9, -498.33418929576874, -685.7480558753014, -544.0507263541222, -301.5855324268341
 1.706387934968932E9, -595.5117497444153, -698.6731501221657, -541.6571903824806, -461.71308892965317
 1.706387934968932E9, -501.6851396560669, -696.04026055336, -541.1784831881523, -359.0303957462311
 1.706387934969652E9, -470.808525621891, -688.8596526384354, -546.2049087285995, -264.7250784635544
 1.706387934969652E9, -585.2195450663567, -698.9125037193298, -539.5030080080032, -421.74103820323944
 1.7063879349832873E9, -557.4545277953148, -705.8537580370903, -544.0507263541222, -421.022977411747
 1.7063879349832873E9, -448.0699338912964, -687.1841774582863, -545.9655551314354, -265.682492852211
 1.7063879349993508E9, -534.2372288703918, -680.9609839320183, -535.6733504533768, -358.07298135757446
 1.7063879349993508E9, -574.4486331939697, -698.4337965250015, -533.0404608845711, -449.26670187711716
 1.7063879349998033E9, -459.79826015233994, -690.2957742214203, -538.3062400221825, -296.3197532892227
 1.7063879349998033E9, -501.92449325323105, -685.5087022781372, -537.8275328278542, -297.27716767787933
 1.7063879350134726E9, -590.2459706068039, -691.7318958044052, -528.4927425384521, -453.57506662607193
 1.7063879350134726E9, -509.583808362484, -702.263454079628, -540.9391295909882, -356.8762133717537
 1.706387935029192E9, -470.56917202472687, -682.6364591121674, -542.8539583683014, -266.40055364370346
 1.706387935029192E9, -579.475058734417, -690.5351278185844, -536.1520576477051, -417.43267345428467
 1.7063879350296843E9, -551.4706878662109, -699.6305645108223, -529.4501569271088, -407.3798223733902
 1.7063879350296843E9, -454.53248101472855, -685.269348680973, -539.5030080080032, -260.4167137145996
 1.7063879350432343E9, -541.4178367853165, -680.9609839320183, -531.364985704422, -355.6794453859329
 1.7063879350432343E9, -564.1564285159111, -690.2957742214203, -521.0727810263634, -443.7615691423416
 1.706387935058889E9, -451.6602378487587, -681.2003375291824, -536.8701184391975, -293.44751012325287
 1.706387935058889E9, -506.9509187936783, -688.1415918469429, -541.1784831881523, -296.55910688638687
 1.7063879350596206E9, -612.5058551430702, -711.1195371747017, -532.8011072874069, -453.57506662607193
 1.7063879350596206E9, -496.18000692129135, -695.8009069561958, -537.8275328278542, -359.26974934339523
 1.7063879350732644E9, -477.031719148159, -691.7318958044052, -552.1887486577034, -269.51215040683746
 1.7063879350732644E9, -605.0858936309814, -703.2208684682846, -535.9127040505409, -416.47525906562805
 1.7063879350885775E9, -543.3326655626297, -704.1782828569412, -530.1682177186012, -409.0552975535393
 1.7063879350885775E9, -446.15510511398315, -688.8596526384354, -546.922969520092, -261.6134817004204
 1.7063879351038823E9, -589.0492026209831, -708.7260012030602, -536.1520576477051, -451.6602378487587
 1.7063879351038823E9, -467.9362824559212, -694.3647853732109, -546.4442623257637, -299.910057246685
 1.7063879351046329E9, -505.99350440502167, -691.4925422072411, -555.7790526151657, -302.5429468154907
 1.7063879351046329E9, -601.256236076355, -710.4014763832092, -537.3488256335258, -455.48989540338516
 1.7063879351182427E9, -512.4560515284538, -703.4602220654488, -539.7423616051674, -356.63685977458954
 1.7063879351182427E9, -463.1492105126381, -682.6364591121674, -540.9391295909882, -261.6134817004204
 1.70638793513397E9, -579.475058734417, -691.7318958044052, -531.8436928987503, -411.4488335251808
 1.70638793513397E9, -538.7849472165108, -691.0138350129128, -523.9450241923332, -403.55016481876373
 1.7063879351346407E9, -442.804154753685, -678.3280943632126, -540.9391295909882, -260.65606731176376
 1.7063879351346407E9, -536.3914112448692, -677.6100335717201, -536.1520576477051, -354.00397020578384
 1.706387935148762E9, -577.7995835542679, -703.4602220654488, -530.1682177186012, -441.6073867678642
 1.706387935148762E9, -457.8834313750267, -687.6628846526146, -539.7423616051674, -294.64427810907364
 1.7063879351639204E9, -497.13742130994797, -681.4396911263466, -542.8539583683014, -299.4313500523567
 1.7063879351639204E9, -593.3575673699379, -701.5453932881355, -536.8701184391975, -453.8144202232361
 1.7063879351788845E9, -504.3180292248726, -692.928663790226, -540.9391295909882, -358.7910421490669
 1.7063879351788845E9, -451.1815306544304, -670.9081328511238, -537.58817923069, -260.4167137145996
 1.706387935179576E9, -573.9699259996414, -690.2957742214203, -531.364985704422, -410.0127119421959
 1.706387935179576E9, -544.2900799512863, -693.8860781788826, -523.2269634008408, -406.9011151790619
 1.7063879351938937E9, -447.3518730998039, -683.8332270979881, -540.2210687994957, -258.2625313401222
 1.7063879351938937E9, -540.2210687994957, -688.1415918469429, -541.8965439796448, -355.2007381916046
 1.7063879351947763E9, -583.3047162890434, -702.5028076767921, -537.1094720363617, -451.1815306544304
 1.7063879351947763E9, -472.72335439920425, -701.7847468852997, -548.8377982974052, -301.82488602399826
 1.7063879352084243E9, -504.55738282203674, -689.817067027092, -542.3752511739731, -296.55910688638687
 1.7063879352084243E9, -597.6659321188927, -703.4602220654488, -534.9552896618843, -452.138945043087
 1.7063879352239068E9, -500.0096644759178, -699.6305645108223, -540.9391295909882, -354.243323802948
 1.7063879352239068E9, -469.13305044174194, -688.380945444107, -550.7526270747185, -263.5283104777336
 1.706387935224606E9, -584.9801914691925, -696.7583213448524, -539.2636544108391, -416.47525906562805
 1.706387935224606E9, -543.0933119654655, -701.0666860938072, -531.6043393015862, -409.5340047478676
 1.7063879352385721E9, -444.2402763366699, -688.380945444107, -550.034566283226, -263.76766407489777
 1.7063879352385721E9, -539.2636544108391, -690.7744814157486, -543.811372756958, -359.9878101348877
 1.7063879352542808E9, -588.0917882323265, -714.4704875349998, -539.2636544108391, -452.138945043087
 1.7063879352542808E9, -465.7821000814438, -694.6041389703751, -542.8539583683014, -295.3623389005661
 1.7063879352547057E9, -498.81289649009705, -686.4661166667938, -545.2474943399429, -293.686863720417
 1.7063879352547057E9, -590.485324203968, -701.3060396909714, -535.9127040505409, -449.027348279953
 1.7063879352681997E9, -491.39293497800827, -694.8434925675392, -536.1520576477051, -351.6104342341423
 1.7063879352681997E9, -456.68666338920593, -680.0035695433617, -539.5030080080032, -260.17736011743546
 1.7063879352839062E9, -571.5763900279999, -688.380945444107, -521.7908418178558, -409.29465115070343
 1.7063879352839062E9, -538.5455936193466, -699.151857316494, -524.4237313866615, -404.50757920742035
 1.7063879352845912E9, -438.25643640756607, -678.3280943632126, -537.8275328278542, -255.62964177131653
 1.7063879352845912E9, -534.7159360647202, -682.6364591121674, -531.8436928987503, -350.1743126511574
 1.7063879352985475E9, -580.4324731230736, -705.1356972455978, -533.7585216760635, -449.027348279953
 1.7063879352985475E9, -455.01118820905685, -686.4661166667938, -542.1358975768089, -299.910057246685
 1.7063879353303325E9, -494.2651781439781, -683.1151663064957, -541.6571903824806, -296.798460483551
 1.7063879353303325E9, -605.0858936309814, -705.8537580370903, -529.9288641214371, -447.3518730998039
 1.7063879353311367E9, -505.03609001636505, -702.9815148711205, -537.58817923069, -359.9878101348877
 1.7063879353311367E9, -465.0640392899513, -686.2267630696297, -543.0933119654655, -265.92184644937515
 1.706387935331874E9, -584.0227770805359, -704.8963436484337, -537.58817923069, -419.58685582876205
 1.706387935331874E9, -550.5132734775543, -704.4176364541054, -534.7159360647202, -416.2359054684639
 1.706387935332648E9, -453.3357130289078, -690.7744814157486, -545.2474943399429, -268.794089615345
 1.706387935332648E9, -542.6146047711372, -695.0828461647034, -541.4178367853165, -359.0303957462311
 1.7063879353434873E9, -591.921445786953, -712.5556587576866, -536.8701184391975, -453.8144202232361
 1.7063879353434873E9, -473.68076878786087, -697.9550893306732, -537.8275328278542, -299.6707036495209
 1.706387935358188E9, -500.96707886457443, -690.2957742214203, -544.0507263541222, -300.38876444101334
 1.706387935358188E9, -597.1872249245644, -704.1782828569412, -527.2959745526314, -452.85700583457947
 1.706387935374246E9, -510.30186915397644, -706.3324652314186, -539.7423616051674, -363.0994068980217
 1.706387935374246E9, -469.61175763607025, -685.7480558753014, -541.4178367853165, -265.44313925504684
 1.70638793537472E9, -570.8583292365074, -686.2267630696297, -531.364985704422, -410.73077273368835
 1.70638793537472E9, -540.2210687994957, -691.4925422072411, -522.7482562065125, -409.0552975535393
 1.7063879353881948E9, -440.1712651848793, -676.1739119887352, -522.2695490121841, -249.64580184221268
 1.7063879353881948E9, -530.6469249129295, -677.1313263773918, -526.5779137611389, -342.2756439447403
 1.7063879354039364E9, -577.3208763599396, -696.2796141505241, -523.4663169980049, -441.3680331707001
 1.7063879354039364E9, -464.82468569278717, -687.1841774582863, -532.5617536902428, -291.2933277487755
 1.7063879354046052E9, -493.3077637553215, -681.6790447235107, -529.4501569271088, -284.11271983385086
 1.7063879354046052E9, -596.708517730236, -699.6305645108223, -526.5779137611389, -449.027348279953
 1.7063879354184232E9, -508.14768677949905, -697.2370285391808, -531.8436928987503, -355.6794453859329
 1.7063879354184232E9, -461.23438173532486, -675.2164976000786, -540.2210687994957, -253.47545939683914
 1.70638793545035E9, -579.7144123315811, -692.928663790226, -526.3385601639748, -407.3798223733902
 1.70638793545035E9, -542.6146047711372, -699.6305645108223, -525.141792178154, -410.73077273368835
 1.7063879354510176E9, -436.82031482458115, -680.0035695433617, -541.1784831881523, -260.4167137145996
 1.7063879354510176E9, -533.7585216760635, -684.3119342923164, -537.3488256335258, -348.9775446653366
 1.7063879354517307E9, -580.1931195259094, -699.151857316494, -523.2269634008408, -443.52221554517746
 1.7063879354517307E9, -463.6279177069664, -699.8699181079865, -538.5455936193466, -292.96880292892456
 1.7063879354524915E9, -483.4942662715912, -671.6261936426163, -531.8436928987503, -284.11271983385086
 1.7063879354524915E9, -595.033042550087, -696.7583213448524, -538.0668864250183, -454.7718346118927
 1.7063879354637096E9, -509.10510116815567, -697.7157357335091, -535.6733504533768, -350.6530198454857
 1.7063879354637096E9, -467.696928858757, -684.0725806951523, -542.6146047711372, -254.91158097982407
 1.7063879354782372E9, -585.9376058578491, -698.9125037193298, -529.2108033299446, -401.39598244428635
 1.7063879354782372E9, -559.6087101697922, -703.9389292597771, -533.0404608845711, -413.1243087053299
 1.706387935493869E9, -446.63381230831146, -680.48227673769, -531.8436928987503, -249.64580184221268
 1.706387935493869E9, -532.5617536902428, -677.8493871688843, -527.7746817469597, -339.40340077877045
 1.7063879354945765E9, -578.9963515400887, -695.3221997618675, -526.8172673583031, -445.4370443224907
 1.7063879354945765E9, -469.3724040389061, -695.3221997618675, -547.1623231172562, -303.97906839847565
 1.7063879355087445E9, -503.360614836216, -692.2106029987335, -550.5132734775543, -301.5855324268341
 1.7063879355087445E9, -617.2929270863533, -720.2149738669395, -547.1623231172562, -460.0376137495041
 1.7063879355240862E9, -519.1579522490501, -713.7524267435074, -549.5558590888977, -369.3226004242897
 1.7063879355240862E9, -480.62202310562134, -698.6731501221657, -557.2151741981506, -268.794089615345
 1.7063879355246243E9, -602.9317112565041, -710.8801835775375, -548.8377982974052, -423.8952205777168
 1.7063879355246243E9, -563.917074918747, -709.9227691888809, -542.8539583683014, -418.3900878429413
 1.7063879355381851E9, -458.12278497219086, -694.3647853732109, -550.7526270747185, -261.85283529758453
 1.7063879355381851E9, -553.8642238378525, -697.7157357335091, -533.2798144817352, -345.62659430503845
 1.7063879355538795E9, -596.4691641330719, -710.4014763832092, -540.699775993824, -453.8144202232361
 1.7063879355538795E9, -488.0419846177101, -706.0931116342545, -550.5132734775543, -307.09066516160965
 1.7063879355545702E9, -505.2754436135292, -689.5777134299278, -541.6571903824806, -298.4739356637001
 1.7063879355545702E9, -600.0594680905342, -701.0666860938072, -529.2108033299446, -445.67639791965485
 1.7063879355685036E9, -507.19027239084244, -696.2796141505241, -537.58817923069, -359.5091029405594
 1.7063879355685036E9, -463.6279177069664, -676.4132655858994, -542.8539583683014, -260.17736011743546
 1.706387935583972E9, -577.5602299571037, -689.0990062355995, -529.9288641214371, -408.8159439563751
 1.706387935583972E9, -551.2313342690468, -698.9125037193298, -532.8011072874069, -415.0391374826431
 1.7063879355846107E9, -452.138945043087, -692.2106029987335, -544.5294335484505, -261.6134817004204
 1.7063879355846107E9, -536.3914112448692, -684.0725806951523, -531.8436928987503, -346.58400869369507
 1.7063879355981717E9, -577.7995835542679, -692.6893101930618, -527.5353281497955, -443.52221554517746
 1.7063879355981717E9, -464.585332095623, -687.6628846526146, -540.2210687994957, -303.02165400981903
 1.7063879356140077E9, -487.5632774233818, -677.370679974556, -540.9391295909882, -298.71328926086426
 1.7063879356140077E9, -596.4691641330719, -693.6467245817184, -531.1256321072578, -454.2931274175644
 1.7063879356147025E9, -498.5735428929329, -691.7318958044052, -537.8275328278542, -363.81746768951416
 1.7063879356147025E9, -459.79826015233994, -677.8493871688843, -543.5720191597939, -265.92184644937515
 1.7063879356282911E9, -570.8583292365074, -691.0138350129128, -538.7849472165108, -417.6720270514488
 1.7063879356282911E9, -546.2049087285995, -701.3060396909714, -539.5030080080032, -425.81004935503006
 1.7063879356440687E9, -448.78799468278885, -688.6202990412712, -553.8642238378525, -270.2302111983299
 1.7063879356440687E9, -536.8701184391975, -681.6790447235107, -545.9655551314354, -357.11556696891785
 1.7063879356445804E9, -576.8421691656113, -691.7318958044052, -536.3914112448692, -452.85700583457947
 1.7063879356445804E9, -463.86727130413055, -690.0564206242561, -544.7687871456146, -306.13325077295303
 1.7063879356584427E9, -496.8980677127838, -681.6790447235107, -545.0081407427788, -299.910057246685
 1.7063879356584427E9, -594.3149817585945, -700.3486253023148, -533.7585216760635, -455.7292490005493
 1.706387935673917E9, -498.0948356986046, -697.2370285391808, -537.8275328278542, -363.33876049518585
 1.706387935673917E9, -463.1492105126381, -679.5248623490334, -542.3752511739731, -266.6399072408676
 1.7063879356746416E9, -569.9009148478508, -682.8758127093315, -537.3488256335258, -416.47525906562805
 1.7063879356746416E9, -553.14616304636, -702.0241004824638, -542.1358975768089, -422.21974539756775
 1.7063879356882336E9, -463.38856410980225, -697.2370285391808, -549.7952126860619, -272.62374716997147
 1.7063879356882336E9, -546.6836159229279, -692.6893101930618, -539.0243008136749, -355.9187989830971
 1.706387935703926E9, -591.4427385926247, -712.7950123548508, -535.1946432590485, -456.68666338920593
 1.706387935703926E9, -481.3400838971138, -703.2208684682846, -546.922969520092, -312.1170907020569
 1.7063879357045784E9, -503.1212612390518, -688.380945444107, -540.4604223966599, -297.75587487220764
 1.7063879357045784E9, -603.4104184508324, -702.263454079628, -540.9391295909882, -459.0801993608475
 1.706387935734978E9, -517.4824770689011, -707.5292332172394, -547.6410303115845, -373.15225797891617
 1.706387935734978E9, -480.8613767027855, -702.0241004824638, -551.9493950605392, -277.1714655160904
 1.7063879357354467E9, -595.2723961472511, -709.2047083973885, -545.0081407427788, -423.17715978622437
 1.7063879357354467E9, -561.7628925442696, -708.7260012030602, -543.5720191597939, -427.00681734085083
 1.706387935736063E9, -461.23438173532486, -695.3221997618675, -553.6248702406883, -278.36823350191116
 1.706387935736063E9, -558.8906493782997, -702.0241004824638, -545.2474943399429, -359.26974934339523
 1.7063879357482457E9, -603.6497720479965, -712.5556587576866, -547.1623231172562, -465.54274648427963
 1.7063879357482457E9, -483.0155590772629, -705.375050842762, -553.3855166435242, -316.42545545101166
 1.7063879357639356E9, -511.73799073696136, -693.8860781788826, -550.9919806718826, -309.24484753608704
 1.7063879357639356E9, -616.0961591005325, -714.9491947293282, -541.8965439796448, -461.9524425268173
 1.7063879357646644E9, -515.3282946944237, -704.4176364541054, -547.6410303115845, -374.5883795619011
 1.7063879357646644E9, -473.4414151906967, -690.5351278185844, -553.6248702406883, -275.73534393310547
 1.706387935778211E9, -591.4427385926247, -702.9815148711205, -538.0668864250183, -417.1933198571205
 1.706387935778211E9, -562.9596605300903, -706.8111724257469, -536.1520576477051, -423.4165133833885
 1.7063879357939336E9, -462.6705033183098, -695.0828461647034, -553.14616304636, -277.1714655160904
 1.7063879357939336E9, -554.8216382265091, -698.4337965250015, -554.5822846293449, -366.45035725831985
 1.7063879357946165E9, -599.5807608962059, -713.0343659520149, -541.4178367853165, -459.3195529580116
 1.7063879357946165E9, -481.10073029994965, -700.3486253023148, -555.7790526151657, -316.90416264533997
 1.7063879358081813E9, -505.2754436135292, -690.7744814157486, -549.5558590888977, -300.86747163534164
 1.7063879358081813E9, -609.8729655742645, -708.7260012030602, -540.9391295909882, -461.9524425268173
 1.7063879358405116E9, -517.0037698745728, -704.4176364541054, -543.5720191597939, -367.6471252441406
 1.7063879358405116E9, -462.90985691547394, -681.2003375291824, -548.1197375059128, -267.8366752266884
 1.7063879358410344E9, -581.150533914566, -693.8860781788826, -538.3062400221825, -412.6456015110016
 1.7063879358410344E9, -544.0507263541222, -691.0138350129128, -528.7320961356163, -412.40624791383743
 1.7063879358417811E9, -442.3254475593567, -678.5674479603767, -545.0081407427788, -265.2037856578827
 1.7063879358417811E9, -533.0404608845711, -680.9609839320183, -535.1946432590485, -347.78077667951584
 1.7063879358425264E9, -589.0492026209831, -704.4176364541054, -524.4237313866615, -445.67639791965485
 1.7063879358425264E9, -470.09046483039856, -690.0564206242561, -537.3488256335258, -300.6281180381775
 1.706387935853272E9, -502.1638468503952, -684.0725806951523, -534.9552896618843, -290.575266957283
 1.706387935853272E9, -607.0007224082947, -702.7421612739563, -530.6469249129295, -448.78799468278885
 1.7063879358682413E9, -516.7644162774086, -703.6995756626129, -545.2474943399429, -372.19484359025955
 1.7063879358682413E9, -478.2284871339798, -689.0990062355995, -553.14616304636, -268.794089615345
 1.7063879358840272E9, -581.6292411088943, -687.9022382497787, -531.364985704422, -402.5927504301071
 1.7063879358840272E9, -568.4647932648659, -708.486647605896, -535.9127040505409, -414.32107669115067
 1.7063879358846023E9, -468.4149896502495, -685.7480558753014, -536.6307648420334, -247.4916194677353
 1.7063879358846023E9, -560.805478155613, -696.9976749420166, -539.5030080080032, -344.908533513546
 1.706387935898472E9, -605.3252472281456, -706.8111724257469, -525.8598529696465, -435.14483964443207
 1.706387935898472E9, -492.11099576950073, -694.3647853732109, -542.3752511739731, -289.37849897146225
 1.7063879359141295E9, -517.2431234717369, -682.8758127093315, -533.2798144817352, -269.7515040040016
 1.7063879359141295E9, -617.5322806835175, -694.6041389703751, -521.5514882206917, -425.33134216070175
 1.7063879359147332E9, -527.5353281497955, -689.5777134299278, -522.03019541502, -335.3343896269798
 1.7063879359147332E9, -483.9729734659195, -676.1739119887352, -527.2959745526314, -239.83230435848236
 1.7063879359282112E9, -583.7834234833717, -677.8493871688843, -519.8760130405426, -384.8805842399597
 1.7063879359282112E9, -561.2841853499413, -693.1680173873901, -517.7218306660652, -396.8482640981674
 1.706387935944111E9, -462.43114972114563, -682.3971055150032, -536.3914112448692, -246.53420507907867
 1.706387935944111E9, -542.3752511739731, -666.599768102169, -518.918598651886, -321.69123458862305
 1.7063879359446137E9, -597.4265785217285, -696.2796141505241, -524.9024385809898, -433.469364464283
 1.7063879359446137E9, -472.4840008020401, -676.4132655858994, -530.8862785100937, -284.11271983385086
 1.7063879359582605E9, -503.1212612390518, -674.4984368085861, -534.476582467556, -280.04370868206024
 1.7063879359582605E9, -604.367832839489, -685.269348680973, -520.5940738320351, -434.66613245010376
 1.7063879359741457E9, -511.0199299454689, -688.380945444107, -527.7746817469597, -344.908533513546
 1.7063879359741457E9, -472.24464720487595, -675.4558511972427, -529.6895105242729, -245.57679069042206
 1.7063879359745965E9, -593.1182137727737, -688.380945444107, -520.5940738320351, -393.97602093219757
 1.7063879359745965E9, -571.815743625164, -702.0241004824638, -524.6630849838257, -402.1140432357788
 1.7063879359882472E9, -467.696928858757, -684.5512878894806, -531.6043393015862, -247.9703266620636
 1.7063879359882472E9, -557.6938813924789, -686.705470263958, -534.2372288703918, -333.8982680439949
 1.706387936003939E9, -604.367832839489, -704.8963436484337, -528.4927425384521, -439.692557990551
 1.706387936003939E9, -493.3077637553215, -697.2370285391808, -544.5294335484505, -296.08039969205856
 1.706387936004631E9, -515.3282946944237, -684.5512878894806, -541.8965439796448, -284.11271983385086
 1.706387936004631E9, -623.2767670154572, -710.4014763832092, -529.2108033299446, -435.6235468387604
 1.7063879360185027E9, -534.476582467556, -709.9227691888809, -541.1784831881523, -359.0303957462311
 1.7063879360185027E9, -486.84521663188934, -685.5087022781372, -540.9391295909882, -253.95416659116745
 1.706387936034172E9, -589.0492026209831, -693.4073709845543, -530.4075713157654, -395.4121425151825
 1.706387936034172E9, -567.7467324733734, -704.4176364541054, -530.1682177186012, -408.57659035921097
 1.7063879360347178E9, -469.8511112332344, -692.4499565958977, -539.7423616051674, -255.15093457698822
 1.7063879360347178E9, -552.9068094491959, -682.8758127093315, -541.6571903824806, -340.83952236175537
 1.7063879360482633E9, -601.0168824791908, -704.8963436484337, -529.6895105242729, -440.6499723792076
 1.7063879360482633E9, -480.62202310562134, -689.817067027092, -534.2372288703918, -290.0965597629547
 1.7063879360639002E9, -490.6748741865158, -668.5145968794823, -529.4501569271088, -271.4269791841507
 1.7063879360639002E9, -593.8362745642662, -684.5512878894806, -521.0727810263634, -433.469364464283
 1.7063879360645964E9, -513.1741123199463, -685.5087022781372, -527.2959745526314, -347.5414230823517
 1.7063879360645964E9, -462.6705033183098, -667.5571824908257, -536.3914112448692, -247.9703266620636
 1.7063879360784652E9, -564.1564285159111, -669.9507184624672, -518.4398914575577, -386.5560594201088
 1.7063879360784652E9, -558.6512957811356, -695.8009069561958, -522.2695490121841, -404.02887201309204
 1.706387936109588E9, -484.69103425741196, -710.1621227860451, -565.8319036960602, -274.5385759472847
 1.706387936109588E9, -565.8319036960602, -706.8111724257469, -558.1725885868073, -361.18457812070847
 1.7063879361102972E9, -449.74540907144547, -674.7377904057503, -535.1946432590485, -295.8410460948944
 1.7063879361102972E9, -472.0052936077118, -661.5733425617218, -529.9288641214371, -282.67659825086594
 1.7063879361110315E9, -569.1828540563583, -675.934558391571, -520.1153666377068, -444.2402763366699
 1.7063879361110315E9, -470.3298184275627, -670.9081328511238, -523.7056705951691, -355.6794453859329
 1.7063879361236093E9, -440.1712651848793, -675.6952047944069, -539.5030080080032, -270.9482719898224
 1.7063879361236093E9, -552.9068094491959, -674.7377904057503, -530.1682177186012, -407.61917597055435
 1.7063879361389356E9, -530.6469249129295, -687.9022382497787, -529.6895105242729, -428.44293892383575
 1.7063879361389356E9, -439.692557990551, -683.3545199036598, -548.5984447002411, -277.41081911325455
 1.706387936139784E9, -532.3224000930786, -688.1415918469429, -541.6571903824806, -354.243323802948
 1.706387936139784E9, -576.1241083741188, -701.7847468852997, -538.0668864250183, -462.6705033183098
 1.7063879361533134E9, -461.9524425268173, -696.9976749420166, -550.034566283226, -320.4944666028023
 1.7063879361533134E9, -482.7762054800987, -685.7480558753014, -545.0081407427788, -301.5855324268341
 1.706387936169207E9, -585.698252260685, -695.3221997618675, -533.0404608845711, -456.2079561948776
 1.706387936169207E9, -495.9406533241272, -688.380945444107, -533.7585216760635, -367.6471252441406
 1.70638793616973E9, -448.0699338912964, -680.0035695433617, -541.1784831881523, -266.6399072408676
 1.70638793616973E9, -566.0712572932243, -691.7318958044052, -533.2798144817352, -411.68818712234497
 1.7063879361837168E9, -540.699775993824, -693.6467245817184, -539.7423616051674, -430.59712129831314
 1.7063879361837168E9, -446.8731659054756, -688.1415918469429, -551.7100414633751, -277.1714655160904
 1.7063879361989045E9, -530.8862785100937, -684.3119342923164, -546.922969520092, -357.11556696891785
 1.7063879361989045E9, -569.6615612506866, -689.5777134299278, -527.7746817469597, -450.94217705726624
 1.706387936199669E9, -450.4634698629379, -679.7642159461975, -539.5030080080032, -305.6545435786247
 1.706387936199669E9, -481.3400838971138, -676.4132655858994, -542.1358975768089, -299.4313500523567
 1.7063879362132947E9, -586.8950202465057, -691.9712494015694, -531.6043393015862, -453.3357130289078
 1.7063879362132947E9, -498.33418929576874, -692.2106029987335, -537.1094720363617, -365.7322964668274
 1.7063879362290432E9, -465.0640392899513, -687.9022382497787, -554.1035774350166, -270.2302111983299
 1.7063879362290432E9, -575.4060475826263, -700.8273324966431, -547.6410303115845, -422.69845259189606
 1.7063879362295783E9, -546.922969520092, -703.9389292597771, -538.0668864250183, -427.7248781323433
 1.7063879362295783E9, -445.19769072532654, -685.7480558753014, -550.2739198803902, -272.8631007671356
 1.706387936243418E9, -531.1256321072578, -685.9874094724655, -539.7423616051674, -349.9349590539932
 1.706387936243418E9, -585.4588986635208, -705.8537580370903, -540.2210687994957, -465.7821000814438
 1.7063879362589445E9, -475.5955975651741, -707.0505260229111, -559.8480637669563, -325.5208921432495
 1.7063879362589445E9, -487.0845702290535, -682.3971055150032, -550.9919806718826, -297.75587487220764
 1.7063879362596872E9, -577.3208763599396, -681.9183983206749, -529.2108033299446, -446.63381230831146
 1.7063879362596872E9, -488.28133821487427, -687.6628846526146, -535.9127040505409, -358.55168855190277
 1.7063879362735765E9, -450.2241162657738, -681.2003375291824, -545.4868479371071, -264.4857248663902
 1.7063879362735765E9, -567.028671681881, -692.2106029987335, -534.2372288703918, -409.0552975535393
 1.7063879362892237E9, -543.3326655626297, -694.1254317760468, -529.2108033299446, -422.9378061890602
 1.7063879362892237E9, -432.7513036727905, -682.8758127093315, -538.5455936193466, -266.1612000465393
 1.706387936289758E9, -523.2269634008408, -676.1739119887352, -533.7585216760635, -344.908533513546
 1.706387936289758E9, -571.5763900279999, -695.0828461647034, -530.1682177186012, -451.89959144592285
 1.706387936303336E9, -445.19769072532654, -677.8493871688843, -528.9714497327805, -300.38876444101334
 1.706387936303336E9, -472.72335439920425, -672.822961628437, -536.6307648420334, -288.6604381799698
 1.7063879363188999E9, -574.927340388298, -679.046155154705, -523.9450241923332, -441.8467403650284
 1.7063879363188999E9, -486.6058630347252, -682.157751917839, -526.8172673583031, -363.0994068980217
 1.7063879363197553E9, -448.30928748846054, -675.934558391571, -539.0243008136749, -262.81024968624115
 1.7063879363197553E9, -563.917074918747, -686.9448238611221, -531.8436928987503, -403.55016481876373
 1.7063879363332367E9, -549.0771518945694, -702.7421612739563, -534.476582467556, -425.5706957578659
 1.7063879363332367E9, -441.6073867678642, -680.9609839320183, -545.4868479371071, -268.3153824210167
 1.706387936349271E9, -527.7746817469597, -680.2429231405258, -541.6571903824806, -350.6530198454857
 1.706387936349271E9, -577.5602299571037, -698.4337965250015, -534.9552896618843, -460.5163209438324
 1.7063879363497307E9, -462.43114972114563, -697.4763821363449, -544.2900799512863, -316.6648090481758
 1.7063879363497307E9, -483.9729734659195, -680.0035695433617, -544.0507263541222, -294.64427810907364
 1.7063879363635616E9, -589.5279098153114, -700.5879788994789, -538.5455936193466, -456.68666338920593
 1.7063879363635616E9, -515.3282946944237, -705.8537580370903, -551.2313342690468, -378.1786835193634
 1.706387936379064E9, -484.21232706308365, -712.3163051605225, -573.0125116109848, -292.49009573459625
 1.706387936379064E9, -568.4647932648659, -697.7157357335091, -550.9919806718826, -419.10814863443375
 1.706387936379724E9, -538.7849472165108, -695.5615533590317, -535.6733504533768, -423.8952205777168
 1.706387936379724E9, -437.29902201890945, -688.380945444107, -556.0184062123299, -281.7191838622093
 1.7063879363933244E9, -522.5089026093483, -684.5512878894806, -539.7423616051674, -352.0891414284706
 1.7063879363933244E9, -564.6351357102394, -692.2106029987335, -529.9288641214371, -456.2079561948776
 1.706387936408906E9, -443.2828619480133, -679.5248623490334, -536.3914112448692, -313.31385868787766
 1.706387936408906E9, -470.808525621891, -676.6526191830635, -542.3752511739731, -295.3623389005661
 1.7063879364095876E9, -568.9435004591942, -680.48227673769, -522.7482562065125, -442.08609396219254
 1.7063879364095876E9, -486.6058630347252, -685.0299950838089, -533.2798144817352, -368.3651860356331
 1.7063879364234025E9, -440.6499723792076, -676.1739119887352, -540.699775993824, -265.44313925504684
 1.7063879364234025E9, -559.1300029754639, -685.7480558753014, -531.6043393015862, -411.68818712234497
 1.7063879364389367E9, -544.2900799512863, -698.4337965250015, -526.5779137611389, -427.48552453517914
 1.7063879364389367E9, -432.03324288129807, -678.0887407660484, -538.0668864250183, -269.7515040040016
 1.7063879364396732E9, -519.1579522490501, -681.6790447235107, -536.1520576477051, -346.8233622908592
 1.7063879364396732E9, -580.1931195259094, -699.6305645108223, -539.5030080080032, -465.7821000814438
 1.7063879364534688E9, -461.23438173532486, -689.5777134299278, -547.8803839087486, -319.7764058113098
 1.7063879364534688E9, -476.7923655509949, -687.4235310554504, -548.8377982974052, -302.30359321832657
 1.7063879364694464E9, -592.8788601756096, -703.4602220654488, -534.2372288703918, -456.4473097920418
 1.7063879364694464E9, -493.7864709496498, -693.4073709845543, -533.7585216760635, -369.801307618618
 1.706387936469643E9, -443.7615691423416, -670.9081328511238, -536.1520576477051, -265.92184644937515
 1.706387936469643E9, -556.9758206009865, -679.5248623490334, -530.8862785100937, -408.3372367620468
 1.7063879364831932E9, -534.2372288703918, -692.2106029987335, -531.8436928987503, -424.37392777204514
 1.7063879364831932E9, -432.03324288129807, -681.2003375291824, -543.811372756958, -275.4959903359413
 1.706387936498912E9, -522.2695490121841, -681.9183983206749, -545.7262015342712, -350.41366624832153
 1.706387936498912E9, -567.7467324733734, -695.0828461647034, -528.4927425384521, -452.85700583457947
 1.7063879364996371E9, -440.1712651848793, -678.8068015575409, -525.8598529696465, -303.7397148013115
 1.7063879364996371E9, -466.97886806726456, -668.7539504766464, -538.3062400221825, -287.9423773884773
 1.706387936513513E9, -577.7995835542679, -682.3971055150032, -524.1843777894974, -448.5486410856247
 1.706387936513513E9, -486.6058630347252, -685.269348680973, -529.9288641214371, -368.3651860356331
 1.7063879365290828E9, -445.915751516819, -679.5248623490334, -538.3062400221825, -265.2037856578827
 1.7063879365290828E9, -560.5661245584488, -685.269348680973, -531.364985704422, -403.55016481876373
 1.7063879365298395E9, -539.5030080080032, -698.4337965250015, -525.3811457753181, -418.8687950372696
 1.7063879365298395E9, -439.692557990551, -686.705470263958, -544.5294335484505, -265.682492852211
 1.7063879365432863E9, -520.5940738320351, -676.8919727802277, -536.6307648420334, -340.83952236175537
 1.7063879365432863E9, -572.2944508194923, -693.4073709845543, -535.1946432590485, -454.05377382040024
 1.7063879365589256E9, -456.4473097920418, -686.4661166667938, -539.0243008136749, -309.9629083275795
 1.7063879365589256E9, -480.14331591129303, -678.3280943632126, -539.0243008136749, -287.70302379131317
 1.7063879365596664E9, -589.0492026209831, -698.6731501221657, -537.8275328278542, -451.6602378487587
 1.7063879365596664E9, -503.360614836216, -699.8699181079865, -536.1520576477051, -368.60453963279724
 1.706387936573285E9, -450.7028234601021, -679.046155154705, -535.9127040505409, -257.06576335430145
 1.706387936573285E9, -571.5763900279999, -692.4499565958977, -541.6571903824806, -413.36366230249405
 1.7063879365888827E9, -559.1300029754639, -708.2472940087318, -548.1197375059128, -438.25643640756607
 1.7063879365888827E9, -452.6176522374153, -700.5879788994789, -556.0184062123299, -277.41081911325455
 1.70638793658968E9, -530.8862785100937, -687.1841774582863, -541.1784831881523, -341.55758315324783
 1.70638793658968E9, -587.373727440834, -706.3324652314186, -536.1520576477051, -455.7292490005493
 1.706387936603266E9, -471.0478792190552, -698.9125037193298, -543.3326655626297, -309.4842011332512
 1.706387936603266E9, -510.0625155568123, -703.9389292597771, -558.4119421839714, -300.1494108438492
 1.706387936618863E9, -618.9684022665024, -721.6510954499245, -554.1035774350166, -461.23438173532486
 1.706387936618863E9, -527.2959745526314, -723.0872170329094, -562.9596605300903, -382.9657554626465
 1.7063879366195998E9, -483.4942662715912, -707.2898796200752, -569.9009148478508, -278.6075870990753
 1.7063879366195998E9, -603.1710648536682, -723.3265706300735, -562.2415997385979, -423.17715978622437
 1.7063879366333833E9, -581.8685947060585, -737.927140057087, -563.917074918747, -445.4370443224907
 1.7063879366333833E9, -478.2284871339798, -720.6936810612679, -582.3473019003868, -297.27716767787933
 1.7063879366487994E9, -567.9860860705376, -722.8478634357452, -572.5338044166565, -367.6471252441406
 1.7063879366487994E9, -618.2503414750099, -739.8419688344002, -569.6615612506866, -478.7071943283081
 1.7063879366641493E9, -492.11099576950073, -724.044631421566, -574.927340388298, -329.8292568922043
 1.7063879366641493E9, -516.5250626802444, -718.0607914924622, -582.3473019003868, -318.3402842283249
 1.7063879366647713E9, -623.5161206126213, -730.5071785449982, -569.9009148478508, -472.72335439920425
 1.7063879366647713E9, -541.8965439796448, -725.0020458102226, -573.0125116109848, -400.91727524995804
 1.7063879366792345E9, -489.47810620069504, -718.0607914924622, -578.7569979429245, -287.9423773884773
 1.7063879366792345E9, -600.0594680905342, -718.3001450896263, -561.2841853499413, -425.0919885635376
 1.70638793667971E9, -570.6189756393433, -718.3001450896263, -556.0184062123299, -439.93191158771515
 1.70638793667971E9, -462.43114972114563, -701.0666860938072, -563.917074918747, -283.8733662366867
 1.706387936693267E9, -548.5984447002411, -705.1356972455978, -564.6351357102394, -364.0568212866783
 1.706387936693267E9, -604.1284792423248, -722.6085098385811, -558.4119421839714, -472.72335439920425
 1.706387936709642E9, -484.21232706308365, -710.1621227860451, -567.028671681881, -326.7176601290703
 1.706387936709642E9, -494.7438853383064, -695.0828461647034, -564.6351357102394, -304.2184219956398
 1.706387936710316E9, -600.7775288820267, -708.9653548002243, -550.2739198803902, -456.2079561948776
 1.706387936710316E9, -526.5779137611389, -722.1298026442528, -559.6087101697922, -389.42830258607864
 1.7063879367233193E9, -473.68076878786087, -700.1092717051506, -567.028671681881, -282.4372446537018
 1.7063879367233193E9, -587.1343738436699, -706.8111724257469, -561.7628925442696, -426.0494029521942
 1.7063879367391007E9, -565.3531965017319, -712.0769515633583, -558.1725885868073, -447.5912266969681
 1.7063879367391007E9, -460.75567454099655, -699.151857316494, -556.0184062123299, -281.240476667881
 1.7063879367399285E9, -543.0933119654655, -702.9815148711205, -559.6087101697922, -359.9878101348877
 1.7063879367399285E9, -590.0066170096397, -716.6246699094772, -549.3165054917336, -471.76594001054764
 1.7063879367532313E9, -478.2284871339798, -706.5718188285828, -560.0874173641205, -325.9995993375778
 1.7063879367532313E9, -496.8980677127838, -699.3912109136581, -563.6777213215828, -302.7823004126549
 1.7063879367689807E9, -600.0594680905342, -709.9227691888809, -549.5558590888977, -460.0376137495041
 1.7063879367689807E9, -514.8495875000954, -708.2472940087318, -555.7790526151657, -385.83799862861633
 1.7063879367696462E9, -465.54274648427963, -693.1680173873901, -562.2415997385979, -275.73534393310547
 1.7063879367696462E9, -577.5602299571037, -706.5718188285828, -548.5984447002411, -415.7571982741356
 1.7063879367832413E9, -565.1138429045677, -717.1033771038055, -550.7526270747185, -438.25643640756607
 1.7063879367832413E9, -456.4473097920418, -703.4602220654488, -560.3267709612846, -284.59142702817917
 1.706387936799081E9, -541.6571903824806, -703.4602220654488, -558.8906493782997, -356.3975061774254
 1.706387936799081E9, -588.3311418294907, -714.2311339378357, -547.8803839087486, -467.9362824559212
 1.7063879367996087E9, -474.1594759821892, -704.1782828569412, -561.2841853499413, -324.32412415742874
 1.7063879367996087E9, -492.8290565609932, -693.4073709845543, -557.2151741981506, -305.41518998146057
 1.706387936813311E9, -604.8465400338173, -716.1459627151489, -551.9493950605392, -470.3298184275627
 1.706387936813311E9, -515.807001888752, -714.709841132164, -553.6248702406883, -384.64123064279556
 1.706387936845462E9, -466.97886806726456, -696.7583213448524, -560.0874173641205, -276.93211191892624
 1.706387936845462E9, -579.2357051372528, -697.2370285391808, -548.5984447002411, -409.5340047478676
 1.7063879368461144E9, -564.3957821130753, -714.709841132164, -547.8803839087486, -433.23001086711884
 1.7063879368461144E9, -458.60149216651917, -702.9815148711205, -558.4119421839714, -282.1978910565376
 1.706387936846985E9, -540.2210687994957, -700.1092717051506, -556.4971134066582, -355.2007381916046
 1.706387936846985E9, -596.9478713274002, -711.8375979661942, -546.2049087285995, -467.45757526159286
 1.7063879368477845E9, -479.9039623141289, -705.1356972455978, -561.2841853499413, -324.5634777545929
 1.7063879368477845E9, -501.2064324617386, -700.5879788994789, -559.6087101697922, -302.0642396211624
 1.7063879368584354E9, -607.7187831997871, -712.0769515633583, -553.3855166435242, -461.473735332489
 1.7063879368584354E9, -521.7908418178558, -714.4704875349998, -558.1725885868073, -388.2315346002579
 1.7063879368734453E9, -474.6381831765175, -705.1356972455978, -567.028671681881, -277.6501727104187
 1.7063879368734453E9, -589.2885562181473, -710.4014763832092, -551.7100414633751, -413.84236949682236
 1.7063879368889303E9, -563.6777213215828, -709.6834155917168, -550.034566283226, -431.7938892841339
 1.7063879368889303E9, -472.24464720487595, -712.7950123548508, -566.0712572932243, -282.9159518480301
 1.7063879368896532E9, -549.3165054917336, -707.0505260229111, -563.1990141272545, -356.15815258026123
 1.7063879368896532E9, -601.7349432706833, -724.5233386158943, -555.3003454208374, -469.8511112332344
 1.7063879369032571E9, -489.95681339502335, -711.1195371747017, -558.1725885868073, -322.16994178295135
 1.7063879369032571E9, -501.92449325323105, -701.0666860938072, -560.3267709612846, -302.30359321832657
 1.706387936918988E9, -595.5117497444153, -701.0666860938072, -541.1784831881523, -454.53248101472855
 1.706387936918988E9, -520.1153666377068, -705.8537580370903, -550.9919806718826, -387.27412021160126
 1.706387936919644E9, -462.6705033183098, -691.9712494015694, -557.6938813924789, -272.8631007671356
 1.706387936919644E9, -580.4324731230736, -703.6995756626129, -545.9655551314354, -412.88495510816574
 1.7063879369335716E9, -573.251865208149, -721.8904490470886, -552.9068094491959, -434.9054860472679
 1.7063879369335716E9, -467.9362824559212, -710.1621227860451, -566.5499644875526, -287.22431659698486
 1.7063879369491434E9, -543.3326655626297, -701.3060396909714, -553.3855166435242, -354.96138459444046
 1.7063879369491434E9, -605.0858936309814, -720.6936810612679, -555.7790526151657, -469.8511112332344
 1.706387936949656E9, -490.91422778367996, -714.4704875349998, -558.6512957811356, -324.32412415742874
 1.706387936949656E9, -503.360614836216, -703.6995756626129, -562.0022461414337, -304.2184219956398
 1.706387936963313E9, -612.5058551430702, -719.2575594782829, -548.1197375059128, -459.79826015233994
 1.706387936963313E9, -532.0830464959145, -719.2575594782829, -556.4971134066582, -385.83799862861633
 1.7063879369788735E9, -477.51042634248734, -700.1092717051506, -562.0022461414337, -280.04370868206024
 1.7063879369788735E9, -584.9801914691925, -713.9917803406715, -557.2151741981506, -420.3049166202545
 1.7063879369796467E9, -562.7203069329262, -710.1621227860451, -541.6571903824806, -427.96423172950745
