 Timestamp, EXG Channel 0, EXG Channel 1, EXG Channel 2, EXG Channel 3
 1.7063901118890855E9, -384.16252344846725, -326.238952934742, -221.64143097400665, -122.30968815088272
 1.7063901118890855E9, -374.82773315906525, -325.5208921432495, -208.71633672714233, -153.90436297655106
 1.7063901119011707E9, -288.1817309856415, -346.8233622908592, -255.62964177131653, -85.449234187603
 1.7063901119011707E9, -354.7220309972763, -338.44598639011383, -239.5929507613182, -103.1614003777504
 1.7063901119178307E9, -404.02887201309204, -325.28153854608536, -209.4343975186348, -162.5210924744606
 1.7063901119178307E9, -308.5267867445946, -335.3343896269798, -236.24200040102005, -103.6401075720787
 1.7063901119186168E9, -318.8189914226532, -343.7117655277252, -250.6032162308693, -78.26862627267838
 1.7063901119186168E9, -403.3108112215996, -321.21252739429474, -210.3918119072914, -144.3302190899849
 1.7063901119309945E9, -332.9408536553383, -322.4092953801155, -209.67375111579895, -132.60189282894135
 1.7063901119309945E9, -283.3946590423584, -339.6427543759346, -247.73097306489944, -67.7370679974556
 1.7063901119467435E9, -378.89674431085587, -328.39313530921936, -223.07755255699158, -119.43744498491287
 1.7063901119467435E9, -371.9554899930954, -320.73382019996643, -206.56215435266495, -155.10113096237183
 1.706390111947312E9, -282.67659825086594, -338.685339987278, -246.29485148191452, -87.36406296491623
 1.706390111947312E9, -343.7117655277252, -338.2066327929497, -245.3374370932579, -99.81045001745224
 1.7063901119612613E9, -391.3431313633919, -313.79256588220596, -202.01443600654602, -161.56367808580399
 1.7063901119612613E9, -299.910057246685, -332.2227928638458, -236.72070759534836, -106.99105793237686
 1.7063901119770217E9, -310.4416155219078, -339.40340077877045, -252.03933781385422, -78.50797986984253
 1.7063901119770217E9, -397.80567848682404, -318.3402842283249, -203.2112039923668, -140.26120793819427
 1.7063901119774797E9, -327.43572092056274, -315.46804106235504, -204.88667917251587, -125.89999210834503
 1.7063901119774797E9, -280.04370868206024, -335.3343896269798, -245.8161442875862, -66.06159281730652
 1.7063901119912117E9, -375.78514754772186, -317.6222234368324, -209.19504392147064, -114.41101944446564
 1.7063901119912117E9, -361.6632853150368, -305.41518998146057, -193.39770650863647, -143.61215829849243
 1.7063901120066648E9, -271.905686378479, -327.1963673233986, -228.82203888893127, -74.67832231521606
 1.7063901120066648E9, -337.0098648071289, -323.84541696310043, -227.6252709031105, -89.03953814506531
 1.706390112007316E9, -390.6250705718994, -312.5957978963852, -188.6106345653534, -147.68116945028305
 1.706390112007316E9, -298.9526428580284, -324.5634777545929, -226.42850291728973, -101.00721800327301
 1.706390112021115E9, -308.2874331474304, -331.02602487802505, -241.26842594146729, -70.60931116342545
 1.706390112021115E9, -394.9334353208542, -315.2286874651909, -198.18477845191956, -136.67090398073196
 1.706390112036784E9, -335.81309682130814, -324.5634777545929, -212.0672870874405, -129.7296496629715
 1.706390112036784E9, -286.26690220832825, -340.1214615702629, -249.64580184221268, -72.28478634357452
 1.7063901120376625E9, -370.04066121578217, -319.2976986169815, -222.83819895982742, -118.71938419342041
 1.7063901120376625E9, -355.6794453859329, -304.45777559280396, -197.4667176604271, -142.89409750699997
 1.7063901120510027E9, -269.03344321250916, -328.39313530921936, -245.8161442875862, -82.337637424469
 1.7063901120510027E9, -332.46214646101, -325.28153854608536, -237.67812198400497, -92.15113490819931
 1.7063901120666332E9, -384.4018770456314, -308.7661403417587, -191.96158492565155, -152.46824139356613
 1.7063901120666332E9, -293.9262173175812, -322.4092953801155, -230.49751406908035, -102.20398598909378
 1.7063901120673296E9, -303.2610076069832, -335.3343896269798, -244.8587298989296, -74.91767591238022
 1.7063901120673296E9, -387.5134738087654, -309.0054939389229, -205.36538636684418, -141.45797592401505
 1.7063901120973618E9, -322.4092953801155, -311.3990299105644, -209.19504392147064, -124.46387052536011
 1.7063901120973618E9, -264.96443206071854, -325.0421849489212, -247.01291227340698, -64.14676403999329
 1.7063901120981753E9, -356.15815258026123, -308.04807955026627, -207.2802151441574, -110.10265469551086
 1.7063901120981753E9, -348.4988374710083, -300.86747163534164, -194.59447449445724, -139.78250074386597
 1.7063901120988898E9, -267.8366752266884, -324.32412415742874, -235.76329320669174, -74.67832231521606
 1.7063901120988898E9, -324.32412415742874, -315.2286874651909, -226.42850291728973, -84.73117339611053
 1.7063901121109865E9, -379.6148051023483, -303.7397148013115, -192.2009385228157, -145.52698707580566
 1.7063901121109865E9, -290.8146205544472, -319.53705221414566, -224.0349669456482, -100.76786440610886
 1.7063901121267636E9, -307.3300187587738, -334.13762164115906, -241.7471331357956, -72.28478634357452
 1.7063901121267636E9, -397.80567848682404, -319.2976986169815, -204.88667917251587, -140.26120793819427
 1.7063901121273787E9, -332.2227928638458, -320.9731737971306, -213.50340867042542, -123.02774894237518
 1.7063901121273787E9, -281.47983026504517, -337.24921840429306, -250.12450903654099, -65.82223922014236
 1.706390112141088E9, -374.1096723675728, -322.16994178295135, -213.26405507326126, -110.34200829267502
 1.706390112141088E9, -362.1419925093651, -310.4416155219078, -193.63706010580063, -140.02185434103012
 1.706390112172963E9, -278.84694069623947, -331.7440856695175, -240.07165795564651, -74.91767591238022
 1.706390112172963E9, -336.5311576128006, -326.7176601290703, -227.6252709031105, -82.09828382730484
 1.7063901121736858E9, -389.6676561832428, -311.6383835077286, -192.2009385228157, -150.79276621341705
 1.7063901121736858E9, -300.86747163534164, -329.350549697876, -225.47108852863312, -98.13497483730316
 1.706390112174434E9, -306.3726043701172, -335.81309682130814, -243.42260831594467, -68.2157751917839
 1.706390112174434E9, -393.49731373786926, -317.6222234368324, -198.18477845191956, -132.8412464261055
 1.7063901121752336E9, -335.81309682130814, -318.10093063116074, -211.58857989311218, -123.9851633310318
 1.7063901121752336E9, -285.0701342225075, -337.24921840429306, -251.5606306195259, -72.76349353790283
 1.7063901121862302E9, -372.67355078458786, -321.69123458862305, -223.07755255699158, -117.52261620759964
 1.7063901121862302E9, -369.3226004242897, -317.8615770339966, -207.75892233848572, -151.75018060207367
 1.706390112200982E9, -275.017283141613, -331.2653784751892, -242.94390112161636, -82.09828382730484
 1.706390112200982E9, -333.4195608496666, -330.7866712808609, -232.17298924922943, -88.560830950737
 1.7063901122166307E9, -388.94959539175034, -310.20226192474365, -188.37128096818924, -150.0747054219246
 1.7063901122166307E9, -298.23458206653595, -321.4518809914589, -224.5136741399765, -102.68269318342209
 1.7063901122173352E9, -307.3300187587738, -332.9408536553383, -247.9703266620636, -74.91767591238022
 1.7063901122173352E9, -395.65149611234665, -315.46804106235504, -192.2009385228157, -139.5431471467018
 1.706390112231197E9, -339.1640471816063, -320.9731737971306, -214.46082305908203, -130.92641764879227
 1.706390112231197E9, -291.7720349431038, -339.1640471816063, -251.5606306195259, -70.8486647605896
 1.7063901122466252E9, -377.2212691307068, -325.28153854608536, -223.07755255699158, -122.54904174804688
 1.7063901122466252E9, -366.2110036611557, -314.5106266736984, -196.50930327177048, -146.72375506162643
 1.7063901122473812E9, -280.2830622792244, -333.4195608496666, -241.26842594146729, -83.05569821596146
 1.7063901122473812E9, -339.88210797309875, -330.3079640865326, -235.76329320669174, -91.672427713871
 1.7063901122611284E9, -399.9598608613014, -321.21252739429474, -202.73249679803848, -151.51082700490952
 1.7063901122611284E9, -305.6545435786247, -329.1111961007118, -225.47108852863312, -104.35816836357117
 1.706390112277033E9, -313.31385868787766, -343.9511191248894, -250.36386263370514, -78.98668706417084
 1.706390112277033E9, -394.2153745293617, -319.7764058113098, -199.38154643774033, -136.19219678640366
 1.7063901122774835E9, -337.4885720014572, -319.05834501981735, -215.6575910449028, -131.16577124595642
 1.7063901122774835E9, -285.5488414168358, -340.36081516742706, -254.6722273826599, -73.00284713506699
 1.706390112291095E9, -371.71613639593124, -324.0847705602646, -213.0247014760971, -118.48003059625626
 1.706390112291095E9, -363.57811409235, -311.3990299105644, -202.25378960371017, -145.04827988147736
 1.7063901123066435E9, -271.66633278131485, -328.87184250354767, -250.6032162308693, -86.16729497909546
 1.7063901123066435E9, -329.58990329504013, -327.1963673233986, -235.28458601236343, -87.60341656208038
 1.7063901123073509E9, -375.30644035339355, -303.50036120414734, -186.93515938520432, -145.52698707580566
 1.7063901123073509E9, -293.2081565260887, -320.73382019996643, -225.23173493146896, -104.59752196073532
 1.706390112321237E9, -297.75587487220764, -325.28153854608536, -241.7471331357956, -71.08801835775375
 1.706390112321237E9, -383.68381625413895, -309.72355473041534, -202.49314320087433, -134.27736800909042
 1.7063901123370268E9, -334.8556824326515, -319.05834501981735, -207.04086154699326, -127.81482088565826
 1.7063901123370268E9, -303.02165400981903, -350.41366624832153, -261.6134817004204, -76.11444389820099
 1.706390112337472E9, -396.60891050100327, -348.4988374710083, -247.01291227340698, -140.26120793819427
 1.706390112337472E9, -370.7587220072746, -319.7764058113098, -213.50340867042542, -165.39333564043045
 1.7063901123510396E9, -277.1714655160904, -337.72792559862137, -256.10834896564484, -99.09238922595978
 1.7063901123510396E9, -337.4885720014572, -336.29180401563644, -252.27869141101837, -99.57109642028809
 1.7063901123669286E9, -392.53989934921265, -320.4944666028023, -208.47698312997818, -165.6326892375946
 1.7063901123669286E9, -301.1068252325058, -337.4885720014572, -237.19941478967667, -123.74580973386765
 1.7063901123675108E9, -311.6383835077286, -349.69560545682907, -268.55473601818085, -105.79428994655609
 1.7063901123675108E9, -399.4811536669731, -331.02602487802505, -223.55625975131989, -163.71786046028137
 1.706390112381306E9, -336.5311576128006, -334.13762164115906, -226.18914932012558, -155.34048455953598
 1.706390112381306E9, -290.8146205544472, -354.00397020578384, -277.88952630758286, -103.1614003777504
 1.7063901123966615E9, -376.5032083392143, -342.99370473623276, -240.78971874713898, -147.68116945028305
 1.7063901123966615E9, -369.801307618618, -329.1111961007118, -224.5136741399765, -175.20683312416077
 1.7063901123973193E9, -284.8307806253433, -348.02013027668, -270.4695647954941, -108.66653311252594
 1.7063901123973193E9, -345.62659430503845, -343.47241193056107, -258.02317774295807, -119.19809138774872
 1.7063901124112897E9, -391.3431313633919, -321.21252739429474, -213.98211586475372, -180.47261226177216
 1.7063901124112897E9, -305.6545435786247, -340.83952236175537, -241.98648673295975, -133.79866081476212
 1.70639011242696E9, -302.5429468154907, -340.6001687645912, -262.33154249191284, -95.98079246282578
 1.70639011242696E9, -397.80567848682404, -326.4783065319061, -224.5136741399765, -166.59010362625122
 1.7063901124274027E9, -331.50473207235336, -322.8880025744438, -218.7691878080368, -150.31405901908875
 1.7063901124274027E9, -279.56500148773193, -344.1904727220535, -260.65606731176376, -92.86919569969177
 1.7063901124411268E9, -370.2800148129463, -328.6324889063835, -233.8484644293785, -138.1070255637169
 1.7063901124411268E9, -364.29617488384247, -319.53705221414566, -213.74276226758957, -174.9674795269966
 1.7063901124730232E9, -283.3946590423584, -339.88210797309875, -251.79998421669006, -101.96463239192963
 1.7063901124730232E9, -344.1904727220535, -342.7543511390686, -253.95416659116745, -114.17166584730148
 1.7063901124737153E9, -389.1889489889145, -316.6648090481758, -209.19504392147064, -170.18040758371353
 1.7063901124737153E9, -302.30359321832657, -331.2653784751892, -241.26842594146729, -127.0967600941658
 1.7063901124744613E9, -304.93648278713226, -343.47241193056107, -264.0070176720619, -98.85303562879562
 1.7063901124744613E9, -396.8482640981674, -329.350549697876, -225.94979572296143, -168.7442860007286
 1.7063901124752395E9, -338.44598639011383, -325.0421849489212, -230.97622126340866, -157.97337412834167
 1.7063901124752395E9, -289.6178525686264, -348.02013027668, -269.7515040040016, -92.86919569969177
 1.7063901124859393E9, -375.78514754772186, -335.3343896269798, -244.3800227046013, -145.04827988147736
 1.7063901124859393E9, -380.09351229667664, -329.8292568922043, -217.8117734193802, -177.121661901474
 1.7063901125013552E9, -292.7294493317604, -351.84978783130646, -267.3579680323601, -114.65037304162979
 1.7063901125013552E9, -347.0627158880234, -347.5414230823517, -257.3051169514656, -117.28326261043549
 1.706390112516756E9, -402.35339683294296, -327.91442811489105, -216.37565183639526, -176.88230830430984
 1.706390112516756E9, -309.9629083275795, -339.1640471816063, -250.6032162308693, -134.99542880058289
 1.7063901125174713E9, -314.0319194793701, -347.30206948518753, -257.7838241457939, -95.74143886566162
 1.7063901125174713E9, -398.28438568115234, -326.7176601290703, -215.6575910449028, -161.32432448863983
 1.7063901125309317E9, -337.72792559862137, -325.0421849489212, -223.07755255699158, -150.0747054219246
 1.7063901125309317E9, -284.59142702817917, -346.3446550965309, -263.5283104777336, -94.54467087984085
 1.7063901125466413E9, -370.9980756044388, -330.54731768369675, -235.76329320669174, -132.8412464261055
 1.7063901125466413E9, -362.38134610652924, -314.27127307653427, -204.64732557535172, -159.4094957113266
 1.7063901125473475E9, -278.128879904747, -338.2066327929497, -250.12450903654099, -97.89562124013901
 1.7063901125473475E9, -337.72792559862137, -338.44598639011383, -248.20968025922775, -103.87946116924286
 1.7063901125612593E9, -393.7366673350334, -320.01575940847397, -202.01443600654602, -168.02622520923615
 1.7063901125612593E9, -297.27716767787933, -328.6324889063835, -233.3697572350502, -123.9851633310318
 1.7063901125768852E9, -306.8513115644455, -344.908533513546, -255.15093457698822, -89.75759893655777
 1.7063901125768852E9, -392.3005457520485, -323.3667097687721, -210.3918119072914, -153.1863021850586
 1.7063901125774205E9, -340.6001687645912, -327.43572092056274, -222.12013816833496, -148.87793743610382
 1.7063901125774205E9, -285.78819501399994, -347.0627158880234, -260.65606731176376, -91.43307411670685
 1.70639011259112E9, -373.15225797891617, -330.06861048936844, -231.21557486057281, -130.2083568572998
 1.70639011259112E9, -372.19484359025955, -320.4944666028023, -207.2802151441574, -160.36691009998322
 1.7063901126068552E9, -287.463670194149, -342.99370473623276, -248.68838745355606, -94.3053172826767
 1.7063901126068552E9, -342.99370473623276, -340.36081516742706, -242.2258403301239, -99.09238922595978
 1.7063901126074677E9, -399.4811536669731, -320.4944666028023, -206.8015079498291, -165.6326892375946
 1.7063901126074677E9, -308.7661403417587, -336.5311576128006, -232.17298924922943, -113.93231225013733
 1.7063901126211996E9, -313.0745050907135, -348.25948387384415, -254.43287378549576, -83.05569821596146
 1.7063901126211996E9, -404.02887201309204, -325.0421849489212, -211.58857989311218, -146.48440146446228
 1.7063901126532307E9, -343.2330583333969, -333.4195608496666, -222.83819895982742, -145.2876334786415
 1.7063901126532307E9, -294.4049245119095, -351.37108063697815, -262.81024968624115, -91.43307411670685
 1.706390112653787E9, -386.5560594201088, -344.1904727220535, -241.50777953863144, -137.86767196655273
 1.706390112653787E9, -383.9231698513031, -329.8292568922043, -221.64143097400665, -166.59010362625122
 1.7063901126547992E9, -298.4739356637001, -354.96138459444046, -262.33154249191284, -110.34200829267502
 1.7063901126547992E9, -355.9187989830971, -351.37108063697815, -255.15093457698822, -113.69295865297318
 1.706390112655435E9, -406.4224079847336, -329.1111961007118, -209.9131047129631, -165.6326892375946
 1.706390112655435E9, -308.7661403417587, -340.1214615702629, -239.83230435848236, -121.83098095655441
 1.7063901126660044E9, -313.31385868787766, -345.14788711071014, -252.99675220251083, -86.40664857625961
 1.7063901126660044E9, -400.1992144584656, -325.5208921432495, -214.46082305908203, -153.1863021850586
 1.7063901126809664E9, -343.7117655277252, -323.6060633659363, -215.6575910449028, -137.62831836938858
 1.7063901126809664E9, -288.42108458280563, -342.2756439447403, -254.1935201883316, -80.42280864715576
 1.7063901126968524E9, -375.30644035339355, -330.7866712808609, -225.94979572296143, -117.7619698047638
 1.7063901126968524E9, -374.82773315906525, -319.05834501981735, -201.5357288122177, -154.62242376804352
 1.706390112697373E9, -283.3946590423584, -341.796936750412, -250.36386263370514, -91.672427713871
 1.706390112697373E9, -337.4885720014572, -339.88210797309875, -245.09808349609375, -98.85303562879562
 1.7063901127111516E9, -402.5927504301071, -325.76024574041367, -202.01443600654602, -161.56367808580399
 1.7063901127111516E9, -319.05834501981735, -346.3446550965309, -241.50777953863144, -128.29352807998657
 1.7063901127266588E9, -322.64864897727966, -353.52526301145554, -261.13477450609207, -88.08212375640869
 1.7063901127266588E9, -412.40624791383743, -339.1640471816063, -218.2904806137085, -151.75018060207367
 1.7063901127273111E9, -359.74845653772354, -340.6001687645912, -228.82203888893127, -152.46824139356613
 1.7063901127273111E9, -303.50036120414734, -361.18457812070847, -269.2727968096733, -92.62984210252762
 1.7063901127410216E9, -383.9231698513031, -344.908533513546, -233.3697572350502, -129.01158887147903
 1.7063901127410216E9, -384.4018770456314, -335.0950360298157, -215.89694464206696, -165.87204283475876
 1.7063901127567575E9, -296.55910688638687, -354.48267740011215, -251.5606306195259, -98.13497483730316
 1.7063901127567575E9, -349.9349590539932, -353.2859094142914, -252.51804500818253, -109.14524030685425
 1.7063901127573657E9, -404.50757920742035, -331.02602487802505, -208.71633672714233, -166.82945722341537
 1.7063901127573657E9, -313.5532122850418, -339.6427543759346, -239.35359716415405, -122.07033455371857
 1.7063901127711706E9, -318.3402842283249, -350.41366624832153, -258.5018849372864, -89.75759893655777
 1.7063901127711706E9, -404.50757920742035, -329.8292568922043, -219.48724859952927, -151.51082700490952
 1.7063901127866547E9, -345.8659479022026, -330.7866712808609, -224.0349669456482, -142.41539031267166
 1.7063901127866547E9, -291.0539741516113, -346.58400869369507, -258.02317774295807, -81.85893023014069
 1.706390112787316E9, -376.024501144886, -331.7440856695175, -228.58268529176712, -119.91615217924118
 1.706390112787316E9, -373.6309651732445, -320.73382019996643, -207.51956874132156, -156.05854535102844
 1.7063901128009021E9, -285.30948781967163, -339.40340077877045, -247.73097306489944, -91.91178131103516
 1.7063901128009021E9, -339.6427543759346, -340.1214615702629, -241.50777953863144, -96.22014605998993
 1.7063901128166125E9, -397.0876176953316, -321.21252739429474, -203.45055758953094, -157.49466693401337
 1.7063901128166125E9, -312.5957978963852, -334.13762164115906, -235.76329320669174, -119.67679858207703
 1.7063901128173087E9, -309.4842011332512, -345.3872407078743, -250.36386263370514, -82.09828382730484
 1.7063901128173087E9, -397.5663248896599, -321.4518809914589, -209.4343975186348, -142.89409750699997
 1.7063901128309455E9, -350.1743126511574, -328.1537817120552, -216.85435903072357, -140.50056153535843
 1.7063901128309455E9, -293.9262173175812, -348.73819106817245, -254.43287378549576, -76.11444389820099
 1.70639011286317E9, -376.26385474205017, -330.3079640865326, -229.06139248609543, -117.7619698047638
 1.70639011286317E9, -376.26385474205017, -330.06861048936844, -215.89694464206696, -154.1437165737152
 1.706390112863764E9, -286.26690220832825, -332.46214646101, -236.0026468038559, -78.74733346700668
 1.706390112863764E9, -322.64864897727966, -315.94674825668335, -219.48724859952927, -76.11444389820099
 1.7063901128647199E9, -369.3226004242897, -294.4049245119095, -182.3874410390854, -134.99542880058289
 1.7063901128647199E9, -294.4049245119095, -317.8615770339966, -215.89694464206696, -88.08212375640869
 1.7063901128653896E9, -265.682492852211, -293.44751012325287, -205.36538636684418, -26.328895688056946
 1.7063901128653896E9, -351.84978783130646, -264.4857248663902, -168.7442860007286, -91.91178131103516
 1.7063901128918223E9, -224.5136741399765, -268.794089615345, -199.14219284057617, -13.882508635520935
 1.7063901128918223E9, -290.8146205544472, -238.6355363726616, -155.34048455953598, -45.716537058353424
 1.706390112892454E9, -281.240476667881, -217.8117734193802, -121.59162735939026, -66.06159281730652
 1.706390112892454E9, -189.56804895401, -232.41234284639359, -159.4094957113266, 2.3935359716415405
 1.7063901129065528E9, -234.80587881803513, -222.12013816833496, -151.75018060207367, 5.744486331939697
 1.7063901129065528E9, -301.82488602399826, -210.15245831012726, -114.88972663879395, -64.6254712343216
 1.7063901129216647E9, -221.4020773768425, -227.1465637087822, -146.72375506162643, -20.10570216178894
 1.7063901129216647E9, -232.41234284639359, -252.75739860534668, -176.40360110998154, 1.4361215829849243
 1.7063901129223292E9, -324.5634777545929, -236.24200040102005, -143.13345110416412, -72.04543274641037
 1.7063901129223292E9, -279.8043550848961, -249.88515543937683, -153.6650093793869, -76.83250468969345
 1.7063901129361582E9, -230.49751406908035, -274.77792954444885, -203.6899111866951, -26.807602882385254
 1.7063901129361582E9, -327.91442811489105, -273.5811615586281, -179.27584427595139, -72.04543274641037
 1.7063901129516728E9, -332.70150005817413, -268.55473601818085, -162.0423852801323, -114.41101944446564
 1.7063901129516728E9, -246.77355867624283, -288.42108458280563, -208.9556903243065, -56.72680252790451
 1.7063901129524093E9, -309.4842011332512, -298.23458206653595, -215.41823744773865, -67.49771440029144
 1.7063901129524093E9, -374.82773315906525, -288.6604381799698, -177.83972269296646, -139.78250074386597
 1.7063901129659815E9, -293.686863720417, -312.35644429922104, -221.16272377967834, -108.18782591819763
 1.7063901129659815E9, -296.55910688638687, -324.0847705602646, -240.78971874713898, -77.31121188402176
 1.7063901129819992E9, -387.0347666144371, -310.20226192474365, -202.73249679803848, -140.97926872968674
 1.7063901129819992E9, -342.99370473623276, -315.2286874651909, -212.78534787893295, -142.89409750699997
 1.7063901129824364E9, -290.8146205544472, -347.0627158880234, -258.2625313401222, -90.47565972805023
 1.7063901129824364E9, -374.82773315906525, -330.3079640865326, -227.1465637087822, -123.02774894237518
 1.7063901129959495E9, -385.11993783712387, -329.58990329504013, -216.37565183639526, -168.50493240356445
 1.7063901129959495E9, -299.19199645519257, -348.02013027668, -256.8264097571373, -102.92204678058624
 1.706390113011633E9, -349.9349590539932, -350.1743126511574, -252.99675220251083, -106.2729971408844
 1.706390113011633E9, -412.1668943166733, -329.58990329504013, -211.58857989311218, -166.59010362625122
 1.7063901130123296E9, -320.2551130056381, -342.51499754190445, -240.55036514997482, -121.83098095655441
 1.7063901130123296E9, -323.3667097687721, -351.131727039814, -260.17736011743546, -96.45949965715408
 1.7063901130264697E9, -400.43856805562973, -328.87184250354767, -216.61500543355942, -157.01595973968506
 1.7063901130264697E9, -347.30206948518753, -326.95701372623444, -218.52983421087265, -146.48440146446228
 1.7063901130416284E9, -296.798460483551, -352.8072022199631, -262.81024968624115, -93.34790289402008
 1.7063901130416284E9, -381.05092668533325, -342.51499754190445, -235.28458601236343, -135.9528431892395
 1.706390113042434E9, -389.1889489889145, -332.46214646101, -218.2904806137085, -169.46234679222107
 1.706390113042434E9, -300.38876444101334, -354.7220309972763, -260.17736011743546, -106.75170433521271
 1.706390113056035E9, -353.52526301145554, -351.131727039814, -257.54447054862976, -110.82071548700333
 1.706390113056035E9, -418.8687950372696, -336.5311576128006, -216.61500543355942, -178.79713708162308
 1.7063901130715969E9, -326.4783065319061, -345.14788711071014, -248.4490338563919, -136.19219678640366
 1.7063901130715969E9, -325.76024574041367, -360.22716373205185, -266.1612000465393, -101.00721800327301
 1.7063901130723062E9, -412.40624791383743, -339.6427543759346, -221.16272377967834, -162.5210924744606
 1.7063901130723062E9, -348.73819106817245, -328.1537817120552, -216.1362982392311, -143.85151189565659
 1.7063901130864813E9, -290.0965597629547, -347.30206948518753, -252.27869141101837, -84.73117339611053
 1.7063901130864813E9, -375.0670867562294, -331.98343926668167, -230.49751406908035, -127.33611369132996
 1.7063901131019547E9, -381.7689874768257, -319.7764058113098, -207.75892233848572, -161.80303168296814
 1.7063901131019547E9, -297.5165212750435, -343.2330583333969, -253.7148129940033, -103.6401075720787
 1.7063901131024148E9, -346.58400869369507, -341.3182295560837, -250.6032162308693, -107.70911872386932
 1.7063901131024148E9, -413.6030158996582, -325.28153854608536, -216.61500543355942, -167.54751801490784
 1.7063901131161084E9, -321.69123458862305, -338.44598639011383, -239.83230435848236, -127.33611369132996
 1.7063901131161084E9, -329.58990329504013, -361.6632853150368, -264.7250784635544, -88.08212375640869
 1.7063901131316729E9, -417.43267345428467, -338.685339987278, -221.4020773768425, -154.62242376804352
 1.7063901131316729E9, -369.3226004242897, -341.796936750412, -228.82203888893127, -158.69143491983414
 1.706390113132346E9, -314.0319194793701, -363.57811409235, -272.62374716997147, -97.65626764297485
 1.706390113132346E9, -397.3269712924957, -347.0627158880234, -233.3697572350502, -129.96900326013565
 1.7063901131459415E9, -398.76309287548065, -338.685339987278, -219.48724859952927, -171.13782197237015
 1.7063901131459415E9, -302.30359321832657, -349.21689826250076, -252.27869141101837, -105.07622915506363
 1.706390113161646E9, -353.7646166086197, -351.6104342341423, -256.8264097571373, -108.42717951536179
 1.706390113161646E9, -411.20947992801666, -330.54731768369675, -218.7691878080368, -175.44618672132492
 1.7063901131623502E9, -325.28153854608536, -344.4298263192177, -247.25226587057114, -132.12318563461304
 1.7063901131623502E9, -324.5634777545929, -357.59427416324615, -271.905686378479, -100.5285108089447
 1.7063901131761844E9, -410.0127119421959, -338.44598639011383, -224.27432054281235, -159.4094957113266
 1.7063901131761844E9, -354.96138459444046, -337.0098648071289, -227.6252709031105, -156.53725254535675
 1.7063901132082183E9, -304.93648278713226, -355.2007381916046, -269.2727968096733, -98.61368203163147
 1.7063901132082183E9, -379.6148051023483, -334.13762164115906, -233.13040363788605, -125.66063851118088
 1.7063901132091048E9, -380.8115730881691, -322.4092953801155, -210.15245831012726, -158.21272772550583
 1.7063901132091048E9, -298.71328926086426, -347.0627158880234, -257.54447054862976, -106.2729971408844
 1.7063901132096217E9, -347.30206948518753, -344.908533513546, -256.10834896564484, -114.65037304162979
 1.7063901132096217E9, -399.72050726413727, -318.57963782548904, -202.49314320087433, -157.73402053117752
 1.706390113210443E9, -320.4944666028023, -335.3343896269798, -239.1142435669899, -123.9851633310318
 1.706390113210443E9, -315.7073946595192, -349.69560545682907, -258.02317774295807, -86.64600217342377
 1.706390113221244E9, -411.4488335251808, -333.65891444683075, -216.61500543355942, -153.42565578222275
 1.706390113221244E9, -357.59427416324615, -336.0524504184723, -221.4020773768425, -147.20246225595474
 1.7063901132359068E9, -301.1068252325058, -349.69560545682907, -268.07602882385254, -85.20988059043884
 1.7063901132359068E9, -382.72640186548233, -335.573743224144, -237.43876838684082, -127.57546728849411
 1.7063901132519705E9, -394.9334353208542, -332.2227928638458, -208.9556903243065, -162.9997996687889
 1.7063901132519705E9, -304.6971291899681, -351.84978783130646, -259.21994572877884, -105.31558275222778
 1.7063901132524064E9, -356.8762133717537, -356.15815258026123, -264.7250784635544, -111.53877627849579
 1.7063901132524064E9, -418.8687950372696, -337.0098648071289, -222.35949176549911, -171.13782197237015
 1.706390113266284E9, -324.32412415742874, -343.9511191248894, -247.25226587057114, -127.33611369132996
 1.706390113266284E9, -325.9995993375778, -356.63685977458954, -268.55473601818085, -95.98079246282578
 1.70639011328167E9, -416.95396625995636, -339.40340077877045, -230.7368676662445, -159.64884930849075
 1.70639011328167E9, -356.63685977458954, -335.3343896269798, -223.31690615415573, -147.68116945028305
 1.7063901132825365E9, -301.82488602399826, -352.32849502563477, -261.85283529758453, -86.16729497909546
 1.7063901132825365E9, -386.0773522257805, -342.7543511390686, -232.17298924922943, -127.57546728849411
 1.7063901132959523E9, -382.9657554626465, -320.9731737971306, -211.34922629594803, -158.9307885169983
 1.7063901132959523E9, -291.7720349431038, -338.685339987278, -244.3800227046013, -97.89562124013901
 1.7063901133117547E9, -344.66917991638184, -339.6427543759346, -245.09808349609375, -96.93820685148239
 1.7063901133117547E9, -409.77335834503174, -323.3667097687721, -211.10987269878387, -161.08497089147568
 1.7063901133125792E9, -312.5957978963852, -329.58990329504013, -231.45492845773697, -118.2406769990921
 1.7063901133125792E9, -308.04807955026627, -336.5311576128006, -249.16709464788437, -79.7047478556633
 1.706390113325961E9, -394.9334353208542, -318.57963782548904, -205.36538636684418, -134.51672160625458
 1.706390113325961E9, -351.6104342341423, -324.80283135175705, -219.2478950023651, -136.91025757789612
 1.7063901133417804E9, -299.6707036495209, -349.9349590539932, -257.3051169514656, -84.01311260461807
 1.7063901133417804E9, -379.8541586995125, -333.8982680439949, -226.90721011161804, -116.32584822177887
 1.7063901133423235E9, -382.00834107398987, -324.32412415742874, -205.60473996400833, -154.86177736520767
 1.7063901133423235E9, -296.08039969205856, -342.2756439447403, -244.8587298989296, -92.62984210252762
 1.706390113355974E9, -341.55758315324783, -339.6427543759346, -244.61937630176544, -97.17756044864655
 1.706390113355974E9, -405.2256399989128, -320.73382019996643, -209.4343975186348, -159.4094957113266
 1.7063901133716693E9, -314.27127307653427, -328.6324889063835, -225.47108852863312, -113.93231225013733
 1.7063901133716693E9, -310.9203227162361, -339.88210797309875, -253.7148129940033, -74.67832231521606
 1.706390113372376E9, -399.9598608613014, -319.05834501981735, -204.1686183810234, -138.1070255637169
 1.706390113372376E9, -349.4562518596649, -320.4944666028023, -213.50340867042542, -139.5431471467018
 1.7063901133859532E9, -290.8146205544472, -345.14788711071014, -263.5283104777336, -78.50797986984253
 1.7063901133859532E9, -380.57221949100494, -333.4195608496666, -237.43876838684082, -122.78839534521103
 1.7063901134018698E9, -381.2902802824974, -316.6648090481758, -204.40797197818756, -156.05854535102844
 1.7063901134018698E9, -294.64427810907364, -337.72792559862137, -243.18325471878052, -93.58725649118423
 1.706390113402404E9, -337.0098648071289, -334.3769752383232, -247.9703266620636, -92.39048850536346
 1.706390113402404E9, -398.76309287548065, -316.6648090481758, -206.8015079498291, -157.01595973968506
 1.706390113416108E9, -306.61195796728134, -325.5208921432495, -227.86462450027466, -111.53877627849579
 1.706390113416108E9, -311.15967631340027, -341.796936750412, -248.68838745355606, -76.83250468969345
 1.7063901134320607E9, -404.02887201309204, -325.0421849489212, -213.26405507326126, -143.61215829849243
 1.7063901134320607E9, -352.0891414284706, -325.28153854608536, -215.41823744773865, -136.67090398073196
 1.7063901134324276E9, -293.686863720417, -347.5414230823517, -255.39028817415237, -75.87509030103683
 1.7063901134324276E9, -380.09351229667664, -332.9408536553383, -223.79561334848404, -109.3845939040184
 1.7063901134459305E9, -382.247694671154, -319.7764058113098, -207.2802151441574, -153.90436297655106
 1.7063901134459305E9, -296.3197532892227, -343.9511191248894, -244.8587298989296, -91.91178131103516
 1.7063901134616008E9, -339.40340077877045, -341.0788759589195, -241.50777953863144, -89.75759893655777
 1.7063901134616008E9, -410.4914191365242, -325.5208921432495, -212.0672870874405, -159.64884930849075
 1.7063901134623344E9, -312.35644429922104, -328.1537817120552, -229.7794532775879, -111.53877627849579
 1.7063901134623344E9, -315.46804106235504, -347.30206948518753, -256.347702562809, -79.94410145282745
 1.7063901134759493E9, -404.2682256102562, -327.6750745177269, -215.6575910449028, -142.41539031267166
 1.7063901134759493E9, -345.62659430503845, -318.57963782548904, -205.36538636684418, -134.51672160625458
 1.7063901134918685E9, -293.686863720417, -345.62659430503845, -256.347702562809, -79.7047478556633
 1.7063901134918685E9, -379.13609790802, -336.29180401563644, -224.5136741399765, -115.84714102745056
 1.7063901134925375E9, -386.5560594201088, -321.21252739429474, -210.15245831012726, -157.2553133368492
 1.7063901134925375E9, -292.01138854026794, -337.24921840429306, -243.90131551027298, -91.1937205195427
 1.7063901135061493E9, -342.2756439447403, -338.2066327929497, -237.43876838684082, -89.99695253372192
 1.7063901135061493E9, -407.8585295677185, -319.05834501981735, -196.03059607744217, -156.7766061425209
 1.7063901135216289E9, -312.83515149354935, -328.6324889063835, -227.1465637087822, -111.29942268133163
 1.7063901135216289E9, -308.5267867445946, -338.685339987278, -245.8161442875862, -73.00284713506699
 1.7063901135223267E9, -399.72050726413727, -321.69123458862305, -212.30664068460464, -137.14961117506027
 1.7063901135223267E9, -349.9349590539932, -319.2976986169815, -211.10987269878387, -136.4315503835678
 1.7063901135362158E9, -292.2507421374321, -346.3446550965309, -256.58705615997314, -77.31121188402176
 1.7063901135362158E9, -379.6148051023483, -333.4195608496666, -230.49751406908035, -118.71938419342041
 1.7063901135517516E9, -386.79541301727295, -323.12735617160797, -208.71633672714233, -157.49466693401337
 1.7063901135517516E9, -301.5855324268341, -343.9511191248894, -245.3374370932579, -95.74143886566162
 1.7063901135524251E9, -347.0627158880234, -344.4298263192177, -242.7045475244522, -95.98079246282578
 1.7063901135524251E9, -411.20947992801666, -317.8615770339966, -204.88667917251587, -156.05854535102844
 1.7063901135660725E9, -318.10093063116074, -330.7866712808609, -225.94979572296143, -113.21425145864487
 1.7063901135660725E9, -316.1861018538475, -342.99370473623276, -252.99675220251083, -80.66216224431992
 1.7063901135820415E9, -399.0024464726448, -323.3667097687721, -213.74276226758957, -143.13345110416412
 1.7063901135820415E9, -352.0891414284706, -322.64864897727966, -210.15245831012726, -140.97926872968674
 1.7063901135824404E9, -293.2081565260887, -340.6001687645912, -250.6032162308693, -78.98668706417084
 1.7063901135824404E9, -373.3916115760803, -328.87184250354767, -227.38591730594635, -118.95873779058456
 1.7063901135960984E9, -380.8115730881691, -316.90416264533997, -200.0996072292328, -150.31405901908875
 1.7063901135960984E9, -290.33591336011887, -334.13762164115906, -238.87488996982574, -84.73117339611053
 1.7063901136116393E9, -336.0524504184723, -332.46214646101, -241.50777953863144, -90.23630613088608
 1.7063901136116393E9, -401.1566288471222, -312.5957978963852, -189.56804895401, -153.90436297655106
 1.7063901136123483E9, -310.4416155219078, -321.9305881857872, -217.33306622505188, -109.14524030685425
 1.7063901136123483E9, -306.3726043701172, -331.02602487802505, -244.61937630176544, -73.00284713506699
 1.70639011362597E9, -405.46499359607697, -327.6750745177269, -214.22146946191788, -148.63858383893967
 1.70639011362597E9, -357.354920566082, -326.238952934742, -211.34922629594803, -138.1070255637169
 1.7063901136416554E9, -284.11271983385086, -333.18020725250244, -245.3374370932579, -65.58288562297821
 1.7063901136416554E9, -371.71613639593124, -318.10093063116074, -214.46082305908203, -91.91178131103516
 1.7063901136423428E9, -397.5663248896599, -322.64864897727966, -207.75892233848572, -150.0747054219246
 1.7063901136423428E9, -292.7294493317604, -320.2551130056381, -224.0349669456482, -62.949996054172516
 1.7063901136559963E9, -356.8762133717537, -335.3343896269798, -238.39618277549744, -77.55056548118591
 1.7063901136559963E9, -399.4811536669731, -291.7720349431038, -169.70170038938522, -113.21425145864487
 1.7063901136715996E9, -327.6750745177269, -316.1861018538475, -210.87051910161972, -81.38022303581238
 1.7063901136715996E9, -305.6545435786247, -308.7661403417587, -214.70017665624619, -32.07338201999664
 1.7063901136723137E9, -393.7366673350334, -288.42108458280563, -177.121661901474, -95.50208526849747
 1.7063901136723137E9, -353.7646166086197, -300.1494108438492, -190.52546334266663, -103.87946116924286
 1.7063901136862476E9, -294.64427810907364, -319.2976986169815, -233.60911083221436, -44.2804154753685
 1.7063901136862476E9, -383.9231698513031, -312.1170907020569, -218.05112701654434, -87.60341656208038
 1.7063901137016027E9, -393.2579601407051, -303.50036120414734, -184.54162341356277, -125.89999210834503
 1.7063901137016027E9, -299.19199645519257, -320.4944666028023, -229.06139248609543, -62.949996054172516
 1.70639011370235E9, -344.908533513546, -319.53705221414566, -227.38591730594635, -63.66805684566498
 1.70639011370235E9, -415.51784467697144, -307.09066516160965, -191.2435241341591, -133.79866081476212
 1.7063901137160287E9, -325.76024574041367, -313.79256588220596, -213.98211586475372, -93.58725649118423
 1.7063901137160287E9, -315.46804106235504, -328.39313530921936, -236.24200040102005, -52.17908418178558
 1.70639011373184E9, -405.2256399989128, -309.0054939389229, -194.11576730012894, -109.62394750118256
 1.70639011373184E9, -356.8762133717537, -312.5957978963852, -197.9454248547554, -116.08649462461472
 1.7063901137324257E9, -295.60169249773026, -332.9408536553383, -243.18325471878052, -55.769388139247894
 1.7063901137324257E9, -388.7102417945862, -325.28153854608536, -221.8807845711708, -96.69885325431824
 1.7063901137625012E9, -399.4811536669731, -315.7073946595192, -191.2435241341591, -137.14961117506027
 1.7063901137625012E9, -307.56937235593796, -331.7440856695175, -236.72070759534836, -77.31121188402176
 1.7063901137630572E9, -355.9187989830971, -333.8982680439949, -234.80587881803513, -74.67832231521606
 1.7063901137630572E9, -416.2359054684639, -314.0319194793701, -191.7222313284874, -135.9528431892395
 1.7063901137637932E9, -328.87184250354767, -323.6060633659363, -214.93953025341034, -92.15113490819931
 1.7063901137637932E9, -323.12735617160797, -335.0950360298157, -238.87488996982574, -59.59904569387436
 1.706390113775939E9, -411.20947992801666, -313.5532122850418, -202.49314320087433, -118.00132340192795
 1.706390113775939E9, -367.8864788413048, -317.8615770339966, -198.18477845191956, -119.43744498491287
 1.706390113791645E9, -304.6971291899681, -339.40340077877045, -246.77355867624283, -56.00874173641205
 1.706390113791645E9, -386.31670582294464, -323.84541696310043, -218.2904806137085, -95.50208526849747
 1.7063901137923672E9, -399.24180006980896, -313.79256588220596, -193.63706010580063, -138.5857327580452
 1.7063901137923672E9, -302.0642396211624, -331.7440856695175, -230.01880687475204, -70.36995756626129
 1.7063901138063128E9, -348.02013027668, -329.1111961007118, -229.30074608325958, -71.80607914924622
 1.7063901138063128E9, -408.57659035921097, -303.02165400981903, -182.3874410390854, -131.64447844028473
 1.7063901138216715E9, -319.53705221414566, -317.8615770339966, -208.23762953281403, -94.3053172826767
 1.7063901138216715E9, -313.79256588220596, -333.65891444683075, -241.7471331357956, -59.59904569387436
 1.7063901138223968E9, -405.9437007904053, -319.7764058113098, -204.88667917251587, -123.26710253953934
 1.7063901138223968E9, -357.354920566082, -309.24484753608704, -203.2112039923668, -117.52261620759964
 1.706390113835996E9, -293.9262173175812, -338.685339987278, -240.78971874713898, -59.359692096710205
 1.706390113835996E9, -374.5883795619011, -315.46804106235504, -206.08344715833664, -86.40664857625961
 1.7063901138517823E9, -380.3328658938408, -298.23458206653595, -174.72812592983246, -117.28326261043549
 1.7063901138517823E9, -280.7617694735527, -315.2286874651909, -218.7691878080368, -57.44486331939697
 1.7063901138524284E9, -318.3402842283249, -305.8938971757889, -208.71633672714233, -49.54619461297989
 1.7063901138524284E9, -395.4121425151825, -302.0642396211624, -181.43002665042877, -123.02774894237518
 1.706390113865973E9, -287.9423773884773, -283.63401263952255, -182.8661482334137, -57.20550972223282
 1.706390113865973E9, -267.3579680323601, -277.6501727104187, -190.76481693983078, -3.1115967631340027
 1.7063901138980446E9, -354.48267740011215, -261.6134817004204, -154.1437165737152, -69.89125037193298
 1.7063901138980446E9, -296.3197532892227, -247.25226587057114, -140.50056153535843, -56.487448930740356
 1.7063901138986533E9, -305.1758363842964, -245.3374370932579, -150.79276621341705, -13.643155038356781
 1.7063901138986533E9, -314.5106266736984, -229.7794532775879, -119.91615217924118, -51.46102339029312
 1.706390113911394E9, -220.9233701825142, -251.0819234251976, -162.9997996687889, 9.095436692237854
 1.706390113911394E9, -284.11271983385086, -266.6399072408676, -173.77071154117584, -6.462547123432159
 1.7063901139274693E9, -349.21689826250076, -243.90131551027298, -134.03801441192627, -76.11444389820099
 1.7063901139274693E9, -275.4959903359413, -265.92184644937515, -167.786871612072, -41.647525906562805
 1.7063901139279904E9, -264.7250784635544, -276.6927583217621, -193.15835291147232, -3.3509503602981567
 1.7063901139279904E9, -360.466517329216, -270.4695647954941, -152.22888779640198, -74.67832231521606
 1.7063901139287312E9, -322.16994178295135, -273.1024543642998, -158.9307885169983, -75.63573670387268
 1.7063901139287312E9, -268.55473601818085, -302.0642396211624, -208.9556903243065, -21.541823744773865
 1.7063901139411144E9, -359.26974934339523, -297.9952284693718, -187.65322017669678, -62.47128885984421
 1.7063901139411144E9, -375.0670867562294, -290.8146205544472, -167.786871612072, -110.82071548700333
 1.706390113956617E9, -277.88952630758286, -307.56937235593796, -205.36538636684418, -50.503609001636505
 1.706390113956617E9, -338.685339987278, -320.73382019996643, -221.4020773768425, -61.51387447118759
 1.706390113957374E9, -404.7469328045845, -302.5429468154907, -183.8235626220703, -138.34637916088104
 1.706390113957374E9, -322.4092953801155, -321.9305881857872, -213.74276226758957, -101.24657160043716
 1.7063901139710093E9, -317.8615770339966, -333.8982680439949, -241.98648673295975, -66.54030001163483
 1.7063901139710093E9, -409.0552975535393, -320.2551130056381, -209.19504392147064, -131.88383203744888
 1.7063901139870405E9, -361.4239317178726, -317.6222234368324, -204.1686183810234, -131.64447844028473
 1.7063901139870405E9, -298.4739356637001, -343.9511191248894, -249.16709464788437, -73.72090792655945
 1.7063901139874945E9, -384.8805842399597, -335.573743224144, -232.17298924922943, -113.21425145864487
 1.7063901139874945E9, -399.72050726413727, -325.9995993375778, -205.84409356117249, -156.05854535102844
 1.7063901140009732E9, -308.2874331474304, -346.3446550965309, -247.73097306489944, -95.02337807416916
 1.7063901140009732E9, -357.354920566082, -344.908533513546, -245.09808349609375, -94.784024477005
 1.7063901140166588E9, -418.3900878429413, -329.8292568922043, -205.36538636684418, -157.2553133368492
 1.7063901140166588E9, -333.4195608496666, -338.2066327929497, -226.90721011161804, -115.1290802359581
 1.7063901140173628E9, -320.01575940847397, -345.3872407078743, -251.5606306195259, -76.5931510925293
 1.7063901140173628E9, -414.0817230939865, -329.350549697876, -210.3918119072914, -134.75607520341873
 1.706390114031021E9, -365.2535892724991, -325.9995993375778, -210.3918119072914, -146.72375506162643
 1.706390114031021E9, -306.8513115644455, -356.63685977458954, -260.65606731176376, -87.84277015924454
 1.7063901140468798E9, -389.6676561832428, -344.1904727220535, -231.93363565206528, -124.70322412252426
 1.7063901140468798E9, -404.98628640174866, -331.7440856695175, -210.63116550445557, -164.19656765460968
 1.7063901140474272E9, -312.35644429922104, -350.6530198454857, -257.7838241457939, -103.87946116924286
 1.7063901140474272E9, -357.354920566082, -350.1743126511574, -257.7838241457939, -103.1614003777504
 1.7063901140609176E9, -418.62944144010544, -336.29180401563644, -210.15245831012726, -165.6326892375946
 1.7063901140609176E9, -336.5311576128006, -344.66917991638184, -236.4813539981842, -126.6180528998375
 1.7063901140765908E9, -329.350549697876, -357.8336277604103, -260.4167137145996, -85.9279413819313
 1.7063901140765908E9, -417.6720270514488, -334.61632883548737, -211.58857989311218, -143.85151189565659
 1.7063901140773242E9, -371.4767827987671, -335.3343896269798, -218.7691878080368, -148.15987664461136
 1.7063901140773242E9, -308.5267867445946, -358.55168855190277, -257.54447054862976, -85.20988059043884
 1.7063901140911376E9, -387.0347666144371, -342.7543511390686, -231.21557486057281, -123.02774894237518
 1.7063901140911376E9, -401.6353360414505, -331.7440856695175, -212.5459942817688, -162.28173887729645
 1.7063901141066089E9, -310.20226192474365, -353.0465558171272, -256.10834896564484, -105.79428994655609
 1.7063901141066089E9, -347.5414230823517, -346.8233622908592, -252.03933781385422, -99.81045001745224
 1.7063901141073453E9, -413.84236949682236, -326.95701372623444, -205.60473996400833, -163.47850686311722
 1.7063901141073453E9, -332.9408536553383, -337.9672791957855, -231.21557486057281, -126.37869930267334
 1.7063901141209478E9, -322.8880025744438, -357.8336277604103, -253.47545939683914, -81.85893023014069
 1.7063901141209478E9, -409.29465115070343, -335.81309682130814, -210.63116550445557, -138.82508635520935
 1.7063901141366043E9, -369.3226004242897, -331.98343926668167, -214.93953025341034, -143.13345110416412
 1.7063901141366043E9, -309.0054939389229, -358.55168855190277, -259.9380065202713, -88.08212375640869
 1.706390114137359E9, -390.86442416906357, -344.908533513546, -237.43876838684082, -122.30968815088272
 1.706390114137359E9, -402.35339683294296, -330.06861048936844, -215.1788838505745, -163.71786046028137
 1.7063901141509304E9, -312.83515149354935, -353.0465558171272, -262.33154249191284, -104.11881476640701
 1.7063901141509304E9, -359.5091029405594, -355.6794453859329, -253.236105799675, -97.89562124013901
 1.70639011416692E9, -423.8952205777168, -332.9408536553383, -213.98211586475372, -160.12755650281906
 1.70639011416692E9, -330.54731768369675, -335.0950360298157, -233.8484644293785, -126.6180528998375
 1.7063901141677787E9, -319.53705221414566, -348.73819106817245, -251.32127702236176, -81.61957663297653
 1.7063901141677787E9, -414.5604302883148, -333.18020725250244, -210.15245831012726, -139.30379354953766
 1.7063901141809185E9, -369.801307618618, -331.7440856695175, -209.9131047129631, -146.00569427013397
 1.7063901141809185E9, -304.6971291899681, -353.7646166086197, -255.86899536848068, -82.337637424469
 1.7063901141970313E9, -387.0347666144371, -342.51499754190445, -235.28458601236343, -117.52261620759964
 1.7063901141970313E9, -399.4811536669731, -327.6750745177269, -198.66348564624786, -154.1437165737152
 1.7063901141974013E9, -306.61195796728134, -340.6001687645912, -244.14066910743713, -89.27889174222946
 1.7063901141974013E9, -352.32849502563477, -349.21689826250076, -251.5606306195259, -94.784024477005
 1.7063901142109704E9, -416.2359054684639, -325.76024574041367, -198.18477845191956, -154.62242376804352
 1.7063901142109704E9, -341.3182295560837, -342.7543511390686, -232.8910500407219, -121.3522737622261
 1.706390114226594E9, -332.9408536553383, -359.26974934339523, -264.4857248663902, -85.68858778476715
 1.706390114226594E9, -413.1243087053299, -336.5311576128006, -214.22146946191788, -140.02185434103012
 1.7063901142272985E9, -373.15225797891617, -333.18020725250244, -213.50340867042542, -146.9631086587906
 1.7063901142272985E9, -298.71328926086426, -348.9775446653366, -255.39028817415237, -80.66216224431992
 1.706390114240958E9, -383.9231698513031, -336.29180401563644, -235.04523241519928, -113.93231225013733
 1.706390114240958E9, -397.3269712924957, -319.53705221414566, -205.12603276968002, -154.62242376804352
 1.706390114256627E9, -305.6545435786247, -341.796936750412, -244.8587298989296, -95.02337807416916
 1.706390114256627E9, -348.25948387384415, -341.796936750412, -241.7471331357956, -86.88535577058792
 1.7063901142573388E9, -414.32107669115067, -321.21252739429474, -199.14219284057617, -156.53725254535675
 1.7063901142573388E9, -330.3079640865326, -336.29180401563644, -221.64143097400665, -120.15550577640533
 1.7063901142711065E9, -324.32412415742874, -355.2007381916046, -258.9805921316147, -84.25246620178223
 1.7063901142711065E9, -402.5927504301071, -325.28153854608536, -210.15245831012726, -137.62831836938858
 1.7063901142867556E9, -364.5355284810066, -323.6060633659363, -207.51956874132156, -141.2186223268509
 1.7063901142867556E9, -297.75587487220764, -348.02013027668, -254.6722273826599, -79.94410145282745
 1.7063901142874022E9, -378.89674431085587, -331.98343926668167, -227.38591730594635, -111.06006908416748
 1.7063901142874022E9, -391.8218385577202, -323.84541696310043, -206.08344715833664, -161.56367808580399
 1.7063901143176112E9, -296.3197532892227, -336.29180401563644, -241.7471331357956, -93.82661008834839
 1.7063901143176112E9, -340.36081516742706, -339.88210797309875, -246.29485148191452, -90.47565972805023
 1.7063901143181596E9, -407.8585295677185, -317.8615770339966, -193.15835291147232, -152.94694858789444
 1.7063901143181596E9, -324.5634777545929, -330.7866712808609, -226.42850291728973, -113.69295865297318
 1.706390114318898E9, -311.15967631340027, -346.8233622908592, -246.29485148191452, -76.5931510925293
 1.706390114318898E9, -403.3108112215996, -327.1963673233986, -207.75892233848572, -135.71348959207535
 1.7063901143309617E9, -358.55168855190277, -320.73382019996643, -202.97185039520264, -141.93668311834335
 1.7063901143309617E9, -291.2933277487755, -338.92469358444214, -249.64580184221268, -75.87509030103683
 1.7063901143469107E9, -371.23742920160294, -324.0847705602646, -221.8807845711708, -108.42717951536179
 1.7063901143469107E9, -382.9657554626465, -310.20226192474365, -195.79124248027802, -148.87793743610382
 1.70639011434742E9, -292.2507421374321, -335.3343896269798, -233.13040363788605, -91.1937205195427
 1.70639011434742E9, -333.4195608496666, -335.0950360298157, -235.76329320669174, -81.14086943864822
 1.706390114361108E9, -410.4914191365242, -322.8880025744438, -201.77508240938187, -151.51082700490952
 1.706390114361108E9, -327.1963673233986, -332.46214646101, -225.23173493146896, -117.7619698047638
 1.7063901143770278E9, -309.9629083275795, -344.1904727220535, -246.29485148191452, -77.55056548118591
 1.7063901143770278E9, -401.87468963861465, -327.1963673233986, -205.36538636684418, -136.19219678640366
 1.7063901143916435E9, -354.243323802948, -321.4518809914589, -202.01443600654602, -136.19219678640366
 1.7063901143916435E9, -289.1391453742981, -347.0627158880234, -257.54447054862976, -83.53440541028976
 1.7063901143923388E9, -368.60453963279724, -332.70150005817413, -233.60911083221436, -112.97489786148071
 1.7063901143923388E9, -384.8805842399597, -317.6222234368324, -201.77508240938187, -161.80303168296814
 1.706390114406623E9, -293.2081565260887, -335.3343896269798, -243.90131551027298, -101.72527879476547
 1.706390114406623E9, -335.573743224144, -337.72792559862137, -246.29485148191452, -95.50208526849747
 1.7063901144073591E9, -406.9011151790619, -319.53705221414566, -197.70607125759125, -153.6650093793869
 1.7063901144073591E9, -319.53705221414566, -325.28153854608536, -227.6252709031105, -117.7619698047638
 1.7063901144210963E9, -312.5957978963852, -345.14788711071014, -251.5606306195259, -74.19961512088776
 1.7063901144210963E9, -392.53989934921265, -320.4944666028023, -207.51956874132156, -133.08060002326965
 1.7063901144368072E9, -357.8336277604103, -327.1963673233986, -200.33896082639694, -143.13345110416412
 1.7063901144368072E9, -287.22431659698486, -346.3446550965309, -252.03933781385422, -78.98668706417084
 1.7063901144374042E9, -368.8438932299614, -331.50473207235336, -227.38591730594635, -111.06006908416748
 1.7063901144374042E9, -384.8805842399597, -319.53705221414566, -201.5357288122177, -154.62242376804352
 1.7063901144509912E9, -298.23458206653595, -339.88210797309875, -239.5929507613182, -92.86919569969177
 1.7063901144509912E9, -338.44598639011383, -337.4885720014572, -244.14066910743713, -89.51824533939362
 1.7063901144667964E9, -409.77335834503174, -320.4944666028023, -204.40797197818756, -162.9997996687889
 1.7063901144667964E9, -322.4092953801155, -332.46214646101, -229.30074608325958, -119.67679858207703
 1.7063901144674828E9, -309.72355473041534, -347.0627158880234, -250.12450903654099, -80.42280864715576
 1.7063901144674828E9, -400.6779216527939, -326.7176601290703, -208.23762953281403, -136.67090398073196
 1.7063901144809575E9, -359.5091029405594, -327.1963673233986, -210.63116550445557, -141.45797592401505
 1.7063901144809575E9, -294.8836317062378, -349.9349590539932, -262.570896089077, -83.29505181312561
 1.706390114496659E9, -372.912904381752, -335.81309682130814, -236.24200040102005, -111.77812987565994
 1.706390114496659E9, -395.4121425151825, -327.43572092056274, -210.3918119072914, -161.32432448863983
 1.7063901144973452E9, -293.686863720417, -338.2066327929497, -249.16709464788437, -94.54467087984085
 1.7063901144973452E9, -341.0788759589195, -343.9511191248894, -256.347702562809, -86.88535577058792
 1.706390114527609E9, -405.46499359607697, -314.0319194793701, -199.14219284057617, -148.87793743610382
 1.706390114527609E9, -319.2976986169815, -326.238952934742, -224.27432054281235, -112.0174834728241
 1.7063901145282092E9, -299.6707036495209, -336.29180401563644, -244.8587298989296, -72.04543274641037
 1.7063901145282092E9, -396.8482640981674, -322.4092953801155, -213.74276226758957, -137.38896477222443
 1.7063901145288417E9, -347.5414230823517, -314.98933386802673, -202.73249679803848, -138.34637916088104
 1.7063901145288417E9, -278.84694069623947, -333.4195608496666, -240.78971874713898, -67.25836080312729
 1.706390114540916E9, -365.2535892724991, -328.39313530921936, -225.94979572296143, -105.79428994655609
 1.706390114540916E9, -383.4444626569748, -316.42545545101166, -195.55188888311386, -147.20246225595474
 1.706390114556602E9, -299.19199645519257, -336.77051120996475, -247.4916194677353, -89.03953814506531
 1.706390114556602E9, -339.40340077877045, -340.36081516742706, -245.57679069042206, -84.49181979894638
 1.706390114557325E9, -410.73077273368835, -327.1963673233986, -200.81766802072525, -149.59599822759628
 1.706390114557325E9, -322.16994178295135, -332.46214646101, -221.16272377967834, -118.71938419342041
 1.7063901145713108E9, -309.4842011332512, -345.8659479022026, -261.13477450609207, -78.74733346700668
 1.7063901145713108E9, -398.5237392783165, -326.95701372623444, -213.74276226758957, -140.02185434103012
 1.7063901145867202E9, -358.3123349547386, -323.3667097687721, -214.70017665624619, -142.1760367155075
 1.7063901145867202E9, -287.463670194149, -339.1640471816063, -249.64580184221268, -72.52413994073868
 1.7063901145874207E9, -367.40777164697647, -328.6324889063835, -227.1465637087822, -104.35816836357117
 1.7063901145874207E9, -387.27412021160126, -321.4518809914589, -204.1686183810234, -152.94694858789444
 1.7063901146009903E9, -300.1494108438492, -339.1640471816063, -241.26842594146729, -94.54467087984085
 1.7063901146009903E9, -334.61632883548737, -341.55758315324783, -244.61937630176544, -85.9279413819313
 1.7063901146170862E9, -406.66176158189774, -323.12735617160797, -197.4667176604271, -150.5534126162529
 1.7063901146170862E9, -324.80283135175705, -334.8556824326515, -230.97622126340866, -119.19809138774872
 1.7063901146319747E9, -307.56937235593796, -343.9511191248894, -253.7148129940033, -76.11444389820099
 1.7063901146319747E9, -392.06119215488434, -320.4944666028023, -216.1362982392311, -130.6870640516281
 1.7063901146326408E9, -357.59427416324615, -319.2976986169815, -209.9131047129631, -138.34637916088104
 1.7063901146326408E9, -288.89979177713394, -340.6001687645912, -252.75739860534668, -76.83250468969345
 1.7063901146630094E9, -370.04066121578217, -332.9408536553383, -228.34333169460297, -109.14524030685425
 1.7063901146630094E9, -384.8805842399597, -317.3828698396683, -203.6899111866951, -153.1863021850586
 1.7063901146637127E9, -294.8836317062378, -339.6427543759346, -248.92774105072021, -99.33174282312393
 1.7063901146637127E9, -328.87184250354767, -335.3343896269798, -243.42260831594467, -89.51824533939362
 1.7063901146644692E9, -405.7043471932411, -316.6648090481758, -208.23762953281403, -156.7766061425209
 1.7063901146644692E9, -321.69123458862305, -327.1963673233986, -226.18914932012558, -124.22451692819595
 1.7063901146652153E9, -306.8513115644455, -342.03629034757614, -253.236105799675, -81.38022303581238
 1.7063901146652153E9, -390.86442416906357, -323.3667097687721, -211.58857989311218, -134.27736800909042
 1.7063901146759932E9, -356.3975061774254, -323.3667097687721, -205.60473996400833, -136.19219678640366
 1.7063901146759932E9, -287.463670194149, -343.47241193056107, -250.84256982803345, -73.24220073223114
 1.7063901146912153E9, -366.45035725831985, -324.32412415742874, -225.71044212579727, -102.20398598909378
 1.7063901146912153E9, -389.42830258607864, -313.31385868787766, -194.3551208972931, -142.65474390983582
 1.7063901147066588E9, -297.0378140807152, -336.29180401563644, -239.83230435848236, -88.560830950737
 1.7063901147066588E9, -326.238952934742, -328.6324889063835, -232.65169644355774, -74.43896871805191
 1.7063901147073843E9, -396.8482640981674, -307.3300187587738, -191.48287773132324, -140.50056153535843
 1.7063901147073843E9, -308.2874331474304, -312.83515149354935, -206.3228007555008, -98.13497483730316
 1.706390114721122E9, -297.27716767787933, -329.58990329504013, -239.1142435669899, -63.66805684566498
 1.706390114721122E9, -385.5986450314522, -311.15967631340027, -203.6899111866951, -119.19809138774872
 1.7063901147366943E9, -349.4562518596649, -314.0319194793701, -201.5357288122177, -132.60189282894135
 1.7063901147366943E9, -286.74560940265656, -337.4885720014572, -240.31101155281067, -62.71064245700836
 1.7063901147374043E9, -372.19484359025955, -330.3079640865326, -223.55625975131989, -102.20398598909378
 1.7063901147374043E9, -389.90700978040695, -317.1435162425041, -195.07318168878555, -148.87793743610382
 1.706390114751387E9, -302.0642396211624, -340.1214615702629, -241.7471331357956, -85.68858778476715
 1.706390114751387E9, -335.81309682130814, -337.4885720014572, -241.7471331357956, -78.74733346700668
 1.706390114766652E9, -402.1140432357788, -314.7499802708626, -202.49314320087433, -145.04827988147736
 1.706390114766652E9, -320.01575940847397, -324.5634777545929, -216.1362982392311, -110.58136188983917
 1.7063901147675257E9, -301.82488602399826, -335.81309682130814, -237.67812198400497, -63.90741044282913
 1.7063901147675257E9, -394.2153745293617, -315.7073946595192, -203.92926478385925, -125.89999210834503
 1.706390114781042E9, -355.44009178876877, -315.46804106235504, -202.49314320087433, -131.88383203744888
 1.706390114781042E9, -288.42108458280563, -338.92469358444214, -239.5929507613182, -71.32737195491791
 1.7063901147968771E9, -374.82773315906525, -337.0098648071289, -228.82203888893127, -99.81045001745224
 1.7063901147968771E9, -379.13609790802, -306.8513115644455, -189.80740255117416, -139.5431471467018
 1.7063901147974153E9, -266.40055364370346, -306.8513115644455, -209.19504392147064, -66.77965360879898
 1.7063901147974153E9, -307.09066516160965, -309.9629083275795, -212.78534787893295, -54.33326655626297
 1.7063901148273752E9, -373.3916115760803, -292.7294493317604, -165.39333564043045, -117.52261620759964
 1.7063901148273752E9, -299.19199645519257, -304.2184219956398, -198.18477845191956, -85.9279413819313
 1.7063901148281288E9, -283.15530544519424, -321.69123458862305, -229.7794532775879, -47.15265864133835
 1.7063901148281288E9, -370.04066121578217, -300.1494108438492, -188.13192737102509, -109.3845939040184
 1.7063901148289204E9, -340.1214615702629, -298.71328926086426, -184.54162341356277, -114.41101944446564
 1.7063901148289204E9, -266.6399072408676, -321.21252739429474, -231.21557486057281, -54.33326655626297
 1.7063901148409913E9, -350.89237344264984, -311.6383835077286, -215.1788838505745, -92.15113490819931
 1.7063901148409913E9, -372.19484359025955, -302.0642396211624, -186.69580578804016, -141.6973295211792
 1.7063901148569016E9, -284.11271983385086, -322.64864897727966, -224.5136741399765, -80.66216224431992
 1.7063901148569016E9, -323.84541696310043, -327.91442811489105, -233.60911083221436, -74.91767591238022
 1.7063901148574696E9, -396.60891050100327, -309.4842011332512, -193.87641370296478, -147.20246225595474
 1.7063901148574696E9, -316.90416264533997, -320.9731737971306, -221.64143097400665, -112.97489786148071
 1.7063901148712363E9, -297.27716767787933, -337.4885720014572, -249.16709464788437, -67.97642159461975
 1.7063901148712363E9, -388.2315346002579, -316.90416264533997, -207.2802151441574, -128.53288167715073
 1.7063901148859415E9, -355.2007381916046, -315.7073946595192, -208.23762953281403, -134.75607520341873
 1.7063901148859415E9, -284.352073431015, -337.9672791957855, -248.92774105072021, -72.76349353790283
 1.7063901149020638E9, -382.4870482683182, -312.1170907020569, -202.73249679803848, -149.59599822759628
 1.7063901149020638E9, -291.53268134593964, -333.8982680439949, -242.46519392728806, -94.54467087984085
 1.706390114902344E9, -324.32412415742874, -335.81309682130814, -238.6355363726616, -84.01311260461807
 1.706390114902344E9, -399.0024464726448, -313.5532122850418, -200.33896082639694, -150.5534126162529
 1.706390114916376E9, -316.1861018538475, -320.73382019996643, -220.9233701825142, -114.17166584730148
 1.706390114916376E9, -299.19199645519257, -340.1214615702629, -251.32127702236176, -75.63573670387268
 1.706390114931735E9, -391.3431313633919, -321.4518809914589, -213.50340867042542, -129.49029606580734
 1.706390114931735E9, -353.0465558171272, -317.3828698396683, -203.2112039923668, -136.19219678640366
 1.7063901149330852E9, -281.00112307071686, -339.1640471816063, -249.40644824504852, -73.24220073223114
 1.7063901149330852E9, -358.3123349547386, -325.5208921432495, -225.71044212579727, -101.00721800327301
 1.706390114946008E9, -378.6573907136917, -310.9203227162361, -193.63706010580063, -145.52698707580566
 1.706390114946008E9, -291.2933277487755, -332.70150005817413, -238.39618277549744, -97.4169140458107
 1.706390114962434E9, -331.50473207235336, -339.40340077877045, -248.68838745355606, -90.23630613088608
 1.706390114962434E9, -403.7895184159279, -320.9731737971306, -204.40797197818756, -156.05854535102844
 1.706390114962711E9, -324.5634777545929, -334.3769752383232, -227.38591730594635, -123.9851633310318
 1.706390114962711E9, -306.13325077295303, -347.5414230823517, -259.9380065202713, -79.22604066133499
 1.7063901149759748E9, -408.09788316488266, -333.8982680439949, -227.6252709031105, -138.5857327580452
 1.7063901149759748E9, -366.689710855484, -328.1537817120552, -221.64143097400665, -148.3992302417755
 1.7063901149916835E9, -287.9423773884773, -338.2066327929497, -253.7148129940033, -76.83250468969345
 1.7063901149916835E9, -367.40777164697647, -331.98343926668167, -232.17298924922943, -111.29942268133163
 1.7063901149925334E9, -389.1889489889145, -322.4092953801155, -201.29637521505356, -160.36691009998322
 1.7063901149925334E9, -293.9262173175812, -336.29180401563644, -241.98648673295975, -95.26273167133331
 1.7063901150059352E9, -324.5634777545929, -341.3182295560837, -243.42260831594467, -90.47565972805023
 1.7063901150059352E9, -400.91727524995804, -320.01575940847397, -208.23762953281403, -153.42565578222275
 1.7063901150220146E9, -319.53705221414566, -328.1537817120552, -225.71044212579727, -119.19809138774872
 1.7063901150220146E9, -305.6545435786247, -343.47241193056107, -254.6722273826599, -77.31121188402176
 1.7063901150224895E9, -398.5237392783165, -328.39313530921936, -219.48724859952927, -137.62831836938858
 1.7063901150224895E9, -359.74845653772354, -322.4092953801155, -213.50340867042542, -144.8089262843132
 1.7063901150359263E9, -289.37849897146225, -343.7117655277252, -250.84256982803345, -77.55056548118591
 1.7063901150359263E9, -372.67355078458786, -337.24921840429306, -235.76329320669174, -118.00132340192795
 1.7063901150519414E9, -392.53989934921265, -321.69123458862305, -208.71633672714233, -160.36691009998322
 1.7063901150519414E9, -307.56937235593796, -342.2756439447403, -246.77355867624283, -101.96463239192963
 1.7063901150526495E9, -342.7543511390686, -349.9349590539932, -255.39028817415237, -92.62984210252762
 1.7063901150526495E9, -418.62944144010544, -331.7440856695175, -213.74276226758957, -159.17014211416245
 1.706390115098902E9, -334.61632883548737, -337.0098648071289, -229.06139248609543, -120.39485937356949
 1.706390115098902E9, -310.4416155219078, -346.3446550965309, -255.86899536848068, -76.35379749536514
 1.7063901150995765E9, -406.1830543875694, -333.8982680439949, -216.37565183639526, -132.60189282894135
 1.7063901150995765E9, -381.2902802824974, -341.3182295560837, -218.2904806137085, -150.0747054219246
 1.7063901151003141E9, -287.70302379131317, -350.6530198454857, -254.91158097982407, -83.05569821596146
 1.7063901151003141E9, -350.89237344264984, -318.8189914226532, -224.27432054281235, -106.51235073804855
 1.706390115101078E9, -373.6309651732445, -309.4842011332512, -196.03059607744217, -150.0747054219246
 1.706390115101078E9, -283.8733662366867, -328.6324889063835, -234.32717162370682, -90.71501332521439
 1.7063901151116364E9, -319.53705221414566, -327.1963673233986, -243.90131551027298, -78.02927267551422
 1.7063901151116364E9, -393.7366673350334, -310.4416155219078, -192.44029211997986, -147.4418158531189
 1.706390115112349E9, -316.1861018538475, -324.0847705602646, -224.0349669456482, -120.15550577640533
 1.706390115112349E9, -294.16557091474533, -331.98343926668167, -250.84256982803345, -73.24220073223114
 1.706390115126162E9, -389.90700978040695, -324.0847705602646, -217.09371262788773, -136.19219678640366
 1.706390115126162E9, -352.0891414284706, -321.21252739429474, -207.99827593564987, -148.63858383893967
 1.7063901151416616E9, -281.7191838622093, -341.0788759589195, -245.8161442875862, -78.50797986984253
 1.7063901151416616E9, -357.59427416324615, -327.91442811489105, -229.7794532775879, -106.03364354372025
 1.7063901151423535E9, -374.1096723675728, -309.4842011332512, -202.97185039520264, -156.7766061425209
 1.7063901151423535E9, -280.04370868206024, -317.8615770339966, -228.58268529176712, -89.03953814506531
 1.7063901151562393E9, -318.10093063116074, -331.7440856695175, -242.2258403301239, -83.29505181312561
 1.7063901151562393E9, -393.97602093219757, -312.1170907020569, -202.73249679803848, -151.51082700490952
 1.7063901151718953E9, -314.0319194793701, -322.16994178295135, -218.05112701654434, -115.1290802359581
 1.7063901151718953E9, -297.75587487220764, -335.3343896269798, -248.92774105072021, -73.4815543293953
 1.7063901151724212E9, -388.2315346002579, -316.42545545101166, -206.56215435266495, -129.2509424686432
 1.7063901151724212E9, -348.73819106817245, -317.1435162425041, -210.87051910161972, -148.87793743610382
 1.7063901151861925E9, -280.2830622792244, -343.7117655277252, -250.84256982803345, -80.42280864715576
 1.7063901151861925E9, -357.8336277604103, -329.1111961007118, -228.34333169460297, -112.0174834728241
 1.7063901152016375E9, -381.2902802824974, -318.57963782548904, -204.88667917251587, -163.71786046028137
 1.7063901152016375E9, -289.37849897146225, -335.573743224144, -244.8587298989296, -102.44333958625793
 1.7063901152023516E9, -325.5208921432495, -340.6001687645912, -259.69865292310715, -97.89562124013901
 1.7063901152023516E9, -400.91727524995804, -320.4944666028023, -204.40797197818756, -160.36691009998322
 1.7063901152164853E9, -319.7764058113098, -330.54731768369675, -223.79561334848404, -120.63421297073364
 1.7063901152164853E9, -296.55910688638687, -337.0098648071289, -259.21994572877884, -74.19961512088776
 1.7063901152316635E9, -391.8218385577202, -322.16994178295135, -211.34922629594803, -126.13934570550919
 1.7063901152316635E9, -359.0303957462311, -320.2551130056381, -214.46082305908203, -136.19219678640366
 1.7063901152323916E9, -280.2830622792244, -333.8982680439949, -240.55036514997482, -70.8486647605896
 1.7063901152323916E9, -356.8762133717537, -324.5634777545929, -224.5136741399765, -101.72527879476547
 1.7063901152464848E9, -381.05092668533325, -310.9203227162361, -193.39770650863647, -151.0321198105812
 1.7063901152464848E9, -294.8836317062378, -337.24921840429306, -242.94390112161636, -92.62984210252762
 1.706390115261794E9, -332.9408536553383, -340.1214615702629, -248.92774105072021, -80.66216224431992
 1.706390115261794E9, -407.14046877622604, -319.05834501981735, -204.64732557535172, -152.94694858789444
 1.7063901152623324E9, -331.98343926668167, -335.81309682130814, -231.45492845773697, -127.33611369132996
 1.7063901152623324E9, -309.4842011332512, -347.78077667951584, -258.5018849372864, -78.98668706417084
 1.7063901152760923E9, -401.6353360414505, -333.4195608496666, -229.30074608325958, -141.2186223268509
 1.7063901152760923E9, -358.55168855190277, -326.238952934742, -216.37565183639526, -146.24504786729813
 1.706390115291649E9, -286.74560940265656, -347.5414230823517, -252.27869141101837, -79.7047478556633
 1.706390115291649E9, -368.60453963279724, -339.40340077877045, -235.76329320669174, -110.10265469551086
 1.7063901152926292E9, -394.4547281265259, -322.8880025744438, -199.86025363206863, -151.75018060207367
 1.7063901152926292E9, -297.9952284693718, -335.573743224144, -242.2258403301239, -92.86919569969177
 1.7063901153061688E9, -335.0950360298157, -340.36081516742706, -239.35359716415405, -81.38022303581238
 1.7063901153061688E9, -400.1992144584656, -317.3828698396683, -199.38154643774033, -142.65474390983582
 1.7063901153217456E9, -320.73382019996643, -325.28153854608536, -215.41823744773865, -109.3845939040184
 1.7063901153217456E9, -303.7397148013115, -342.2756439447403, -241.02907234430313, -64.6254712343216
 1.7063901153224633E9, -393.2579601407051, -324.5634777545929, -207.99827593564987, -121.59162735939026
 1.7063901153224633E9, -361.4239317178726, -324.0847705602646, -205.36538636684418, -135.23478239774704
 1.7063901153360708E9, -283.15530544519424, -338.44598639011383, -244.3800227046013, -66.54030001163483
 1.7063901153360708E9, -361.18457812070847, -327.6750745177269, -228.58268529176712, -100.5285108089447
 1.706390115351683E9, -386.31670582294464, -315.46804106235504, -198.18477845191956, -150.31405901908875
 1.706390115351683E9, -295.12298530340195, -335.573743224144, -239.35359716415405, -93.58725649118423
 1.7063901153523953E9, -328.1537817120552, -336.5311576128006, -243.42260831594467, -77.55056548118591
 1.7063901153523953E9, -401.87468963861465, -314.7499802708626, -200.5783144235611, -143.61215829849243
 1.7063901153660345E9, -324.5634777545929, -325.28153854608536, -223.07755255699158, -112.25683706998825
 1.7063901153660345E9, -306.3726043701172, -348.9775446653366, -247.9703266620636, -68.93383598327637
 1.7063901153819916E9, -391.8218385577202, -322.64864897727966, -213.50340867042542, -124.70322412252426
 1.7063901153819916E9, -360.70587092638016, -317.6222234368324, -206.3228007555008, -133.79866081476212
 1.706390115382468E9, -280.04370868206024, -333.18020725250244, -242.7045475244522, -64.14676403999329
 1.706390115382468E9, -357.354920566082, -327.91442811489105, -224.27432054281235, -101.48592519760132
 1.7063901153962858E9, -381.2902802824974, -312.35644429922104, -192.679645717144, -149.83535182476044
 1.7063901153962858E9, -288.42108458280563, -330.06861048936844, -236.4813539981842, -93.82661008834839
 1.7063901154281063E9, -322.64864897727966, -332.70150005817413, -246.53420507907867, -86.40664857625961
 1.7063901154281063E9, -399.0024464726448, -315.7073946595192, -203.2112039923668, -155.34048455953598
 1.7063901154287934E9, -317.1435162425041, -320.4944666028023, -217.09371262788773, -112.97489786148071
 1.7063901154287934E9, -301.5855324268341, -341.55758315324783, -256.58705615997314, -74.67832231521606
 1.7063901154294722E9, -391.1037777662277, -319.7764058113098, -216.1362982392311, -126.6180528998375
 1.7063901154294722E9, -365.7322964668274, -325.28153854608536, -211.10987269878387, -142.65474390983582
 1.706390115430251E9, -295.8410460948944, -349.4562518596649, -259.9380065202713, -79.94410145282745
 1.706390115430251E9, -369.801307618618, -341.796936750412, -240.31101155281067, -112.4961906671524
 1.7063901154412796E9, -398.0450320839882, -325.5208921432495, -208.47698312997818, -160.36691009998322
 1.7063901154412796E9, -297.75587487220764, -338.44598639011383, -243.66196191310883, -94.784024477005
 1.706390115456216E9, -342.7543511390686, -354.7220309972763, -261.13477450609207, -95.50208526849747
 1.706390115456216E9, -417.6720270514488, -328.1537817120552, -217.09371262788773, -160.60626369714737
 1.706390115472E9, -321.4518809914589, -322.64864897727966, -223.07755255699158, -114.65037304162979
 1.706390115472E9, -303.02165400981903, -342.03629034757614, -248.68838745355606, -72.76349353790283
 1.7063901154725733E9, -396.13020330667496, -326.95701372623444, -217.33306622505188, -130.6870640516281
 1.7063901154725733E9, -366.45035725831985, -327.43572092056274, -205.12603276968002, -140.50056153535843
 1.7063901154860888E9, -292.7294493317604, -343.7117655277252, -251.5606306195259, -77.78991907835007
 1.7063901154860888E9, -366.45035725831985, -334.3769752383232, -239.35359716415405, -97.89562124013901
 1.7063901155022826E9, -388.470888197422, -312.1170907020569, -197.4667176604271, -150.0747054219246
 1.7063901155022826E9, -293.686863720417, -327.6750745177269, -233.3697572350502, -86.16729497909546
 1.7063901155167427E9, -326.4783065319061, -334.61632883548737, -245.57679069042206, -71.80607914924622
 1.7063901155167427E9, -398.76309287548065, -314.7499802708626, -192.44029211997986, -133.3199536204338
 1.7063901155173955E9, -317.1435162425041, -314.98933386802673, -206.8015079498291, -103.87946116924286
 1.7063901155173955E9, -292.2507421374321, -330.06861048936844, -241.50777953863144, -56.487448930740356
 1.706390115531962E9, -381.52963387966156, -313.0745050907135, -204.88667917251587, -115.60778743028641
 1.706390115531962E9, -354.00397020578384, -314.0319194793701, -196.50930327177048, -132.3625392317772
 1.7063901155324328E9, -276.2140511274338, -328.1537817120552, -242.94390112161636, -64.14676403999329
 1.7063901155324328E9, -361.18457812070847, -327.6750745177269, -232.8910500407219, -96.22014605998993
 1.7063901155463345E9, -382.00834107398987, -308.04807955026627, -196.03059607744217, -143.61215829849243
 1.7063901155463345E9, -297.9952284693718, -331.7440856695175, -239.5929507613182, -93.34790289402008
 1.7063901155627663E9, -320.9731737971306, -328.39313530921936, -237.19941478967667, -72.28478634357452
 1.7063901155627663E9, -406.1830543875694, -317.6222234368324, -194.8338280916214, -143.85151189565659
 1.7063901155632632E9, -327.6750745177269, -321.69123458862305, -216.37565183639526, -111.77812987565994
 1.7063901155632632E9, -311.87773710489273, -350.6530198454857, -256.10834896564484, -73.9602615237236
 1.706390115575981E9, -393.49731373786926, -327.91442811489105, -217.57241982221603, -123.26710253953934
 1.706390115575981E9, -374.5883795619011, -330.54731768369675, -214.22146946191788, -142.89409750699997
 1.7063901155918095E9, -297.9952284693718, -351.84978783130646, -262.33154249191284, -80.42280864715576
 1.7063901155918095E9, -372.67355078458786, -340.36081516742706, -240.31101155281067, -110.34200829267502
 1.7063901155925076E9, -397.0876176953316, -327.43572092056274, -214.22146946191788, -157.2553133368492
 1.7063901155925076E9, -300.86747163534164, -334.61632883548737, -241.26842594146729, -95.98079246282578
 1.7063901156060417E9, -328.6324889063835, -335.0950360298157, -242.94390112161636, -76.83250468969345
 1.7063901156060417E9, -402.5927504301071, -313.31385868787766, -201.77508240938187, -144.56957268714905
 1.7063901156381965E9, -318.10093063116074, -319.53705221414566, -209.67375111579895, -107.70911872386932
 1.7063901156381965E9, -297.27716767787933, -333.4195608496666, -249.40644824504852, -65.1041784286499
 1.706390115638791E9, -387.9921810030937, -317.1435162425041, -208.9556903243065, -123.02774894237518
 1.706390115638791E9, -353.2859094142914, -313.0745050907135, -202.97185039520264, -135.23478239774704
 1.706390115639516E9, -276.2140511274338, -333.65891444683075, -247.4916194677353, -69.17318958044052
 1.706390115639516E9, -351.84978783130646, -319.7764058113098, -222.35949176549911, -96.22014605998993
 1.7063901156402483E9, -372.912904381752, -301.1068252325058, -196.03059607744217, -141.2186223268509
 1.7063901156402483E9, -281.240476667881, -318.8189914226532, -224.75302773714066, -81.61957663297653
 1.7063901156511264E9, -316.6648090481758, -323.84541696310043, -228.34333169460297, -67.49771440029144
 1.7063901156511264E9, -397.0876176953316, -303.7397148013115, -191.2435241341591, -136.4315503835678
 1.706390115666026E9, -322.4092953801155, -313.79256588220596, -208.9556903243065, -106.99105793237686
 1.706390115666026E9, -287.70302379131317, -322.4092953801155, -234.08781802654266, -56.00874173641205
 1.7063901156816964E9, -377.93932992219925, -309.0054939389229, -197.22736406326294, -114.41101944446564
 1.7063901156816964E9, -349.69560545682907, -305.8938971757889, -201.29637521505356, -123.02774894237518
 1.706390115682407E9, -278.84694069623947, -331.98343926668167, -244.3800227046013, -64.14676403999329
 1.706390115682407E9, -351.37108063697815, -319.05834501981735, -229.54009968042374, -88.80018454790115
 1.7063901156961627E9, -383.68381625413895, -308.2874331474304, -193.87641370296478, -140.97926872968674
 1.7063901156961627E9, -295.3623389005661, -330.7866712808609, -221.16272377967834, -83.05569821596146
 1.7063901157116864E9, -319.2976986169815, -325.76024574041367, -230.49751406908035, -63.90741044282913
 1.7063901157116864E9, -401.6353360414505, -313.5532122850418, -189.56804895401, -129.96900326013565
 1.7063901157268028E9, -319.05834501981735, -321.4518809914589, -217.8117734193802, -108.18782591819763
 1.7063901157268028E9, -290.8146205544472, -334.3769752383232, -252.27869141101837, -65.34353202581406
 1.7063901157274303E9, -380.09351229667664, -313.0745050907135, -206.56215435266495, -116.56520181894302
 1.7063901157274303E9, -355.2007381916046, -315.2286874651909, -207.04086154699326, -136.4315503835678
 1.706390115741696E9, -289.1391453742981, -344.1904727220535, -263.76766407489777, -74.43896871805191
 1.706390115741696E9, -351.84978783130646, -321.9305881857872, -226.18914932012558, -93.34790289402008
 1.706390115742416E9, -390.38571697473526, -318.10093063116074, -205.60473996400833, -147.20246225595474
 1.706390115742416E9, -295.3623389005661, -337.0098648071289, -244.3800227046013, -96.22014605998993
 1.7063901157562315E9, -309.9629083275795, -327.43572092056274, -234.08781802654266, -66.06159281730652
 1.7063901157562315E9, -396.60891050100327, -312.5957978963852, -201.0570216178894, -139.0644399523735
 1.70639011577171E9, -316.1861018538475, -315.94674825668335, -212.0672870874405, -108.42717951536179
 1.70639011577171E9, -293.2081565260887, -331.50473207235336, -239.83230435848236, -62.949996054172516
 1.706390115772426E9, -385.5986450314522, -318.3402842283249, -210.15245831012726, -117.52261620759964
 1.706390115772426E9, -356.3975061774254, -315.46804106235504, -195.79124248027802, -135.4741359949112
 1.7063901157863529E9, -273.3418079614639, -329.350549697876, -231.21557486057281, -63.18934965133667
 1.7063901157863529E9, -355.44009178876877, -330.7866712808609, -227.86462450027466, -93.10854929685593
 1.7063901158017354E9, -386.79541301727295, -310.20226192474365, -188.13192737102509, -141.2186223268509
 1.7063901158017354E9, -296.08039969205856, -332.46214646101, -238.87488996982574, -88.32147735357285
 1.706390115802457E9, -325.0421849489212, -333.18020725250244, -240.07165795564651, -75.63573670387268
 1.706390115802457E9, -401.39598244428635, -313.79256588220596, -200.33896082639694, -139.5431471467018
 1.7063901158160331E9, -320.9731737971306, -320.2551130056381, -208.47698312997818, -104.59752196073532
 1.7063901158160331E9, -299.19199645519257, -342.7543511390686, -245.8161442875862, -65.82223922014236
 1.7063901158320706E9, -395.8908497095108, -324.80283135175705, -216.85435903072357, -122.07033455371857
 1.7063901158320706E9, -365.2535892724991, -323.3667097687721, -208.23762953281403, -141.2186223268509
 1.706390115832528E9, -291.0539741516113, -345.3872407078743, -258.5018849372864, -78.98668706417084
 1.706390115832528E9, -364.5355284810066, -333.4195608496666, -230.7368676662445, -108.9058867096901
 1.7063901158465545E9, -390.6250705718994, -318.8189914226532, -209.4343975186348, -155.34048455953598
 1.7063901158465545E9, -300.6281180381775, -335.0950360298157, -247.9703266620636, -95.02337807416916
 1.7063901158616886E9, -332.70150005817413, -340.6001687645912, -252.27869141101837, -84.97052699327469
 1.7063901158616886E9, -406.4224079847336, -321.21252739429474, -205.84409356117249, -145.2876334786415
 1.7063901158624504E9, -332.46214646101, -333.18020725250244, -227.86462450027466, -119.91615217924118
 1.7063901158624504E9, -298.4739356637001, -338.44598639011383, -247.25226587057114, -67.25836080312729
 1.706390115876028E9, -386.5560594201088, -319.53705221414566, -215.89694464206696, -124.22451692819595
 1.706390115876028E9, -364.5355284810066, -319.2976986169815, -202.97185039520264, -140.02185434103012
 1.7063901158911924E9, -289.6178525686264, -340.83952236175537, -250.12450903654099, -73.9602615237236
 1.7063901158911924E9, -357.59427416324615, -322.64864897727966, -229.54009968042374, -95.02337807416916
 1.7063901159067328E9, -297.9952284693718, -328.6324889063835, -234.08781802654266, -86.88535577058792
 1.7063901159067328E9, -327.91442811489105, -330.06861048936844, -237.67812198400497, -67.25836080312729
 1.7063901159074821E9, -394.69408172369003, -302.0642396211624, -184.78097701072693, -128.53288167715073
 1.7063901159074821E9, -314.0319194793701, -311.87773710489273, -206.56215435266495, -98.37432843446732
 1.7063901159211535E9, -289.37849897146225, -327.43572092056274, -242.94390112161636, -56.00874173641205
 1.7063901159211535E9, -376.024501144886, -304.2184219956398, -196.98801046609879, -101.72527879476547
 1.7063901159366903E9, -336.77051120996475, -283.8733662366867, -177.83972269296646, -103.40075397491455
 1.7063901159366903E9, -251.79998421669006, -297.75587487220764, -213.0247014760971, -31.115967631340027
 1.7063901159373922E9, -326.7176601290703, -283.3946590423584, -185.9777449965477, -44.2804154753685
 1.7063901159373922E9, -342.51499754190445, -252.75739860534668, -146.00569427013397, -88.08212375640869
 1.7063901159514346E9, -240.78971874713898, -261.6134817004204, -177.83972269296646, -22.97794532775879
 1.7063901159514346E9, -265.682492852211, -261.3741281032562, -179.7545514702797, -3.1115967631340027
 1.7063901159835002E9, -339.88210797309875, -231.45492845773697, -131.64447844028473, -56.966156125068665
 1.7063901159835002E9, -247.01291227340698, -223.31690615415573, -138.1070255637169, -24.653420507907867
 1.7063901159839897E9, -230.7368676662445, -251.0819234251976, -179.03649067878723, 18.90893417596817
 1.7063901159839897E9, -310.9203227162361, -222.35949176549911, -136.19219678640366, -19.866348564624786
 1.706390115984745E9, -282.67659825086594, -219.00854140520096, -117.28326261043549, -32.07338201999664
 1.706390115984745E9, -196.50930327177048, -228.34333169460297, -151.75018060207367, 37.578514754772186
 1.7063901159853747E9, -259.459299325943, -211.58857989311218, -136.4315503835678, 16.51539820432663
 1.7063901159853747E9, -288.1817309856415, -190.28610974550247, -99.09238922595978, -22.259884536266327
 1.7063901159960108E9, -197.22736406326294, -209.67375111579895, -133.55930721759796, 25.37148129940033
 1.7063901159960108E9, -228.34333169460297, -212.78534787893295, -136.19219678640366, 44.519769072532654
 1.7063901160112543E9, -311.15967631340027, -201.5357288122177, -98.85303562879562, -35.663685977458954
 1.7063901160112543E9, -240.78971874713898, -220.9233701825142, -126.37869930267334, -11.010265469551086
 1.7063901160266552E9, -215.1788838505745, -233.3697572350502, -157.49466693401337, 30.876614034175873
 1.7063901160266552E9, -304.2184219956398, -220.68401658535004, -131.64447844028473, -34.70627158880234
 1.7063901160273674E9, -284.11271983385086, -218.52983421087265, -120.39485937356949, -43.80170828104019
 1.7063901160273674E9, -212.30664068460464, -244.8587298989296, -162.5210924744606, 30.876614034175873
 1.706390116041213E9, -290.33591336011887, -240.31101155281067, -150.79276621341705, -2.1541823744773865
 1.706390116041213E9, -313.79256588220596, -221.4020773768425, -112.4961906671524, -55.290680944919586
 1.706390116056838E9, -234.56652522087097, -249.16709464788437, -157.73402053117752, -7.65931510925293
 1.706390116056838E9, -258.9805921316147, -252.99675220251083, -173.5313579440117, 3.3509503602981567
 1.706390116057421E9, -346.8233622908592, -240.78971874713898, -136.91025757789612, -73.24220073223114
 1.706390116057421E9, -270.2302111983299, -251.0819234251976, -157.73402053117752, -46.67395144701004
 1.7063901160710196E9, -249.64580184221268, -275.73534393310547, -196.74865686893463, -3.829657554626465
 1.7063901160710196E9, -344.908533513546, -260.17736011743546, -162.28173887729645, -70.60931116342545
 1.7063901160867288E9, -319.2976986169815, -262.570896089077, -159.8882029056549, -89.51824533939362
 1.7063901160867288E9, -240.07165795564651, -281.00112307071686, -207.75892233848572, -24.414066910743713
 1.7063901160874705E9, -321.9305881857872, -278.6075870990753, -184.30226981639862, -53.61520576477051
 1.7063901160874705E9, -362.6206997036934, -276.6927583217621, -162.9997996687889, -114.41101944446564
 1.7063901161009877E9, -268.794089615345, -288.89979177713394, -205.36538636684418, -60.79581367969513
 1.7063901161009877E9, -304.2184219956398, -304.6971291899681, -223.07755255699158, -51.46102339029312
 1.7063901161169755E9, -387.27412021160126, -289.37849897146225, -178.79713708162308, -125.66063851118088
 1.7063901161169755E9, -306.3726043701172, -296.55910688638687, -195.3125352859497, -100.0498036146164
 1.7063901161174588E9, -285.78819501399994, -321.4518809914589, -245.57679069042206, -59.83839929103851
 1.7063901161174588E9, -378.89674431085587, -305.1758363842964, -199.86025363206863, -115.36843383312225
 1.70639011613097E9, -357.11556696891785, -305.1758363842964, -193.63706010580063, -127.57546728849411
 1.70639011613097E9, -283.3946590423584, -327.1963673233986, -241.50777953863144, -65.1041784286499
 1.706390116146786E9, -361.9026389122009, -326.95701372623444, -224.9923813343048, -94.54467087984085
 1.706390116146786E9, -393.2579601407051, -314.98933386802673, -189.0893417596817, -146.72375506162643
 1.706390116147368E9, -303.7397148013115, -335.0950360298157, -230.01880687475204, -93.34790289402008
 1.706390116147368E9, -329.350549697876, -342.51499754190445, -248.4490338563919, -83.29505181312561
 1.7063901161610117E9, -409.29465115070343, -322.8880025744438, -212.78534787893295, -156.7766061425209
 1.7063901161610117E9, -336.5311576128006, -329.58990329504013, -218.05112701654434, -121.59162735939026
 1.7063901161766465E9, -308.7661403417587, -345.3872407078743, -259.21994572877884, -69.41254317760468
 1.7063901161766465E9, -397.5663248896599, -337.4885720014572, -233.8484644293785, -134.27736800909042
 1.7063901161773438E9, -380.09351229667664, -331.2653784751892, -217.09371262788773, -149.59599822759628
 1.7063901161773438E9, -301.1068252325058, -354.48267740011215, -262.81024968624115, -90.71501332521439
 1.7063901161909506E9, -378.1786835193634, -349.9349590539932, -247.4916194677353, -115.1290802359581
 1.7063901161909506E9, -416.7146126627922, -335.573743224144, -215.89694464206696, -168.98363959789276
 1.706390116206839E9, -321.69123458862305, -357.11556696891785, -258.9805921316147, -112.73554426431656
 1.706390116206839E9, -344.66917991638184, -357.8336277604103, -256.10834896564484, -99.09238922595978
 1.706390116207402E9, -423.4165133833885, -337.24921840429306, -220.68401658535004, -158.69143491983414
 1.706390116207402E9, -348.73819106817245, -343.2330583333969, -233.3697572350502, -141.45797592401505
 1.7063901162210612E9, -319.2976986169815, -362.1419925093651, -269.51215040683746, -93.58725649118423
 1.7063901162210612E9, -414.5604302883148, -352.0891414284706, -243.42260831594467, -152.94694858789444
 1.7063901162366924E9, -394.2153745293617, -349.69560545682907, -241.02907234430313, -174.24941873550415
 1.7063901162366924E9, -316.1861018538475, -373.6309651732445, -271.4269791841507, -105.31558275222778
 1.7063901162374313E9, -385.359291434288, -362.1419925093651, -252.27869141101837, -122.78839534521103
 1.7063901162374313E9, -421.74103820323944, -348.02013027668, -227.38591730594635, -176.6429547071457
 1.706390116251445E9, -328.6324889063835, -362.86005330085754, -259.459299325943, -122.30968815088272
 1.706390116251445E9, -354.243323802948, -363.0994068980217, -268.55473601818085, -102.20398598909378
 1.7063901162668076E9, -427.7248781323433, -342.99370473623276, -229.30074608325958, -171.13782197237015
 1.7063901162668076E9, -349.4562518596649, -348.73819106817245, -238.15682917833328, -144.3302190899849
 1.7063901162675343E9, -321.69123458862305, -363.0994068980217, -270.4695647954941, -86.40664857625961
 1.7063901162675343E9, -406.1830543875694, -341.0788759589195, -234.80587881803513, -143.61215829849243
 1.7063901162811704E9, -382.72640186548233, -342.7543511390686, -229.30074608325958, -162.28173887729645
 1.7063901162811704E9, -302.7823004126549, -362.86005330085754, -268.07602882385254, -98.13497483730316
 1.7063901162971168E9, -376.26385474205017, -352.32849502563477, -255.86899536848068, -119.19809138774872
 1.7063901162971168E9, -413.1243087053299, -340.1214615702629, -229.06139248609543, -180.7119658589363
 1.7063901162974424E9, -324.32412415742874, -361.6632853150368, -264.7250784635544, -126.6180528998375
 1.7063901162974424E9, -349.9349590539932, -367.40777164697647, -271.18762558698654, -109.14524030685425
 1.706390116310956E9, -423.8952205777168, -342.99370473623276, -228.82203888893127, -171.61652916669846
 1.706390116310956E9, -348.02013027668, -345.62659430503845, -241.26842594146729, -143.85151189565659
 1.7063901163267016E9, -317.1435162425041, -362.6206997036934, -274.29922235012054, -89.03953814506531
 1.7063901163267016E9, -406.1830543875694, -342.03629034757614, -238.6355363726616, -141.93668311834335
 1.7063901163274205E9, -385.359291434288, -339.1640471816063, -226.6678565144539, -166.59010362625122
 1.7063901163274205E9, -307.09066516160965, -364.5355284810066, -277.6501727104187, -101.96463239192963
 1.7063901163574395E9, -373.3916115760803, -353.2859094142914, -255.39028817415237, -121.11292016506195
 1.7063901163574395E9, -417.1933198571205, -342.7543511390686, -226.42850291728973, -180.7119658589363
 1.706390116358156E9, -325.9995993375778, -359.9878101348877, -264.2463712692261, -124.22451692819595
 1.706390116358156E9, -350.41366624832153, -363.57811409235, -271.905686378479, -105.79428994655609
 1.7063901163588574E9, -427.96423172950745, -341.796936750412, -234.08781802654266, -175.68554031848907
 1.7063901163588574E9, -356.3975061774254, -352.0891414284706, -237.91747558116913, -146.24504786729813
 1.706390116371001E9, -320.73382019996643, -366.45035725831985, -276.45340472459793, -93.58725649118423
 1.706390116371001E9, -410.25206553936005, -346.58400869369507, -236.4813539981842, -146.48440146446228
 1.706390116386712E9, -380.3328658938408, -340.1214615702629, -221.8807845711708, -165.6326892375946
 1.706390116386712E9, -303.97906839847565, -358.3123349547386, -270.70891839265823, -98.37432843446732
 1.706390116387396E9, -371.23742920160294, -348.02013027668, -253.95416659116745, -118.00132340192795
 1.706390116387396E9, -402.35339683294296, -331.2653784751892, -211.82793349027634, -170.18040758371353
 1.7063901164013107E9, -314.7499802708626, -350.89237344264984, -253.7148129940033, -114.88972663879395
 1.7063901164013107E9, -339.1640471816063, -358.3123349547386, -272.3843935728073, -101.72527879476547
 1.7063901164167233E9, -416.95396625995636, -337.72792559862137, -224.75302773714066, -165.87204283475876
 1.7063901164167233E9, -345.8659479022026, -346.58400869369507, -237.43876838684082, -138.1070255637169
 1.706390116417415E9, -313.5532122850418, -363.0994068980217, -275.017283141613, -90.71501332521439
 1.706390116417415E9, -399.4811536669731, -339.1640471816063, -233.3697572350502, -143.37280470132828
 1.706390116431E9, -377.93932992219925, -335.81309682130814, -222.12013816833496, -162.0423852801323
 1.706390116431E9, -294.8836317062378, -350.6530198454857, -255.86899536848068, -87.60341656208038
 1.7063901164466932E9, -370.5193684101105, -352.8072022199631, -245.57679069042206, -114.17166584730148
 1.7063901164466932E9, -405.46499359607697, -335.81309682130814, -208.71633672714233, -170.18040758371353
 1.706390116447384E9, -310.20226192474365, -351.37108063697815, -256.58705615997314, -112.25683706998825
 1.706390116447384E9, -332.70150005817413, -354.7220309972763, -269.99085760116577, -100.76786440610886
 1.7063901164613268E9, -411.20947992801666, -331.98343926668167, -225.47108852863312, -165.39333564043045
 1.7063901164613268E9, -333.4195608496666, -336.29180401563644, -235.76329320669174, -143.61215829849243
 1.7063901164766467E9, -299.6707036495209, -353.52526301145554, -263.0496032834053, -86.40664857625961
 1.7063901164766467E9, -393.01860654354095, -338.44598639011383, -238.15682917833328, -140.50056153535843
 1.7063901164773784E9, -365.01423567533493, -330.54731768369675, -217.09371262788773, -153.6650093793869
 1.7063901164773784E9, -293.9262173175812, -355.44009178876877, -265.2037856578827, -95.26273167133331
 1.7063901164910443E9, -370.04066121578217, -348.4988374710083, -250.84256982803345, -113.21425145864487
 1.7063901164910443E9, -404.2682256102562, -330.7866712808609, -213.74276226758957, -166.35075002908707
 1.7063901165069163E9, -307.8087259531021, -345.3872407078743, -245.09808349609375, -111.77812987565994
 1.7063901165069163E9, -332.9408536553383, -347.30206948518753, -250.84256982803345, -85.20988059043884
 1.7063901165074053E9, -414.32107669115067, -330.7866712808609, -213.74276226758957, -154.86177736520767
 1.7063901165074053E9, -338.685339987278, -334.8556824326515, -224.5136741399765, -131.16577124595642
 1.7063901165374324E9, -312.1170907020569, -352.8072022199631, -257.3051169514656, -80.42280864715576
 1.7063901165374324E9, -397.3269712924957, -334.13762164115906, -221.4020773768425, -134.03801441192627
 1.7063901165381236E9, -380.3328658938408, -333.65891444683075, -216.85435903072357, -152.70759499073029
 1.7063901165381236E9, -299.910057246685, -355.6794453859329, -264.7250784635544, -90.47565972805023
 1.706390116538852E9, -363.33876049518585, -345.62659430503845, -245.3374370932579, -109.86330109834671
 1.706390116538852E9, -390.86442416906357, -318.3402842283249, -205.84409356117249, -157.49466693401337
 1.7063901165511084E9, -298.4739356637001, -331.98343926668167, -240.78971874713898, -102.92204678058624
 1.7063901165511084E9, -315.2286874651909, -334.8556824326515, -243.42260831594467, -82.57699102163315
 1.7063901165667355E9, -395.4121425151825, -310.4416155219078, -198.90283924341202, -146.48440146446228
 1.7063901165667355E9, -320.4944666028023, -319.05834501981735, -215.1788838505745, -121.59162735939026
 1.7063901165674312E9, -286.26690220832825, -333.4195608496666, -252.99675220251083, -69.17318958044052
 1.7063901165674312E9, -375.0670867562294, -317.6222234368324, -214.22146946191788, -122.54904174804688
 1.7063901165809934E9, -352.8072022199631, -311.15967631340027, -203.6899111866951, -142.41539031267166
 1.7063901165809934E9, -273.3418079614639, -330.54731768369675, -246.53420507907867, -82.337637424469
 1.7063901165963972E9, -351.84978783130646, -329.8292568922043, -232.8910500407219, -106.2729971408844
 1.7063901165963972E9, -388.94959539175034, -319.7764058113098, -208.23762953281403, -159.4094957113266
 1.7063901166120589E9, -301.1068252325058, -340.1214615702629, -247.25226587057114, -109.62394750118256
 1.7063901166120589E9, -321.4518809914589, -339.6427543759346, -253.95416659116745, -84.49181979894638
 1.7063901166125112E9, -406.4224079847336, -325.5208921432495, -210.87051910161972, -152.22888779640198
 1.7063901166125112E9, -328.39313530921936, -324.5634777545929, -229.30074608325958, -130.2083568572998
 1.706390116627068E9, -295.12298530340195, -341.0788759589195, -257.54447054862976, -73.4815543293953
 1.706390116627068E9, -380.09351229667664, -319.05834501981735, -217.33306622505188, -121.83098095655441
 1.7063901166274607E9, -359.0303957462311, -308.7661403417587, -205.36538636684418, -141.2186223268509
 1.7063901166274607E9, -276.2140511274338, -333.8982680439949, -251.0819234251976, -79.94410145282745
 1.7063901166410203E9, -347.0627158880234, -328.87184250354767, -231.21557486057281, -98.13497483730316
 1.7063901166410203E9, -385.83799862861633, -313.0745050907135, -200.33896082639694, -154.86177736520767
 1.7063901166567264E9, -293.9262173175812, -331.02602487802505, -245.3374370932579, -102.20398598909378
 1.7063901166567264E9, -326.7176601290703, -346.58400869369507, -259.9380065202713, -90.71501332521439
 1.7063901166574519E9, -402.83210402727127, -320.4944666028023, -210.87051910161972, -155.34048455953598
 1.7063901166574519E9, -327.1963673233986, -328.6324889063835, -225.23173493146896, -128.53288167715073
 1.7063901166712785E9, -298.9526428580284, -344.1904727220535, -257.7838241457939, -74.19961512088776
 1.7063901166712785E9, -386.0773522257805, -329.58990329504013, -224.9923813343048, -127.57546728849411
 1.7063901166870308E9, -364.29617488384247, -321.21252739429474, -215.1788838505745, -148.3992302417755
 1.7063901166870308E9, -285.0701342225075, -340.6001687645912, -252.99675220251083, -78.98668706417084
 1.7063901166875384E9, -359.5091029405594, -337.72792559862137, -235.28458601236343, -100.76786440610886
 1.7063901166875384E9, -396.8482640981674, -319.53705221414566, -196.98801046609879, -155.10113096237183
 1.706390116701023E9, -304.45777559280396, -335.3343896269798, -236.24200040102005, -93.82661008834839
 1.706390116701023E9, -326.7176601290703, -338.2066327929497, -247.9703266620636, -70.8486647605896
 1.7063901167167222E9, -408.57659035921097, -322.4092953801155, -207.75892233848572, -144.09086549282074
 1.7063901167167222E9, -333.18020725250244, -323.84541696310043, -211.82793349027634, -117.28326261043549
 1.7063901167174733E9, -299.4313500523567, -346.10530149936676, -246.29485148191452, -70.8486647605896
 1.7063901167174733E9, -387.5134738087654, -323.3667097687721, -218.7691878080368, -116.08649462461472
 1.7063901167477684E9, -367.40777164697647, -325.28153854608536, -214.22146946191788, -145.04827988147736
 1.7063901167477684E9, -292.01138854026794, -348.4988374710083, -259.69865292310715, -84.01311260461807
 1.706390116748228E9, -364.5355284810066, -342.2756439447403, -244.8587298989296, -104.35816836357117
 1.706390116748228E9, -404.98628640174866, -332.9408536553383, -213.74276226758957, -160.84561729431152
 1.7063901167488225E9, -310.20226192474365, -342.03629034757614, -242.2258403301239, -101.72527879476547
 1.7063901167488225E9, -330.3079640865326, -349.9349590539932, -259.21994572877884, -86.16729497909546
 1.7063901167611113E9, -413.36366230249405, -327.43572092056274, -208.9556903243065, -146.72375506162643
 1.7063901167611113E9, -344.66917991638184, -341.0788759589195, -234.32717162370682, -129.96900326013565
 1.7063901167766802E9, -311.15967631340027, -353.2859094142914, -272.62374716997147, -74.91767591238022
 1.7063901167766802E9, -400.43856805562973, -339.1640471816063, -230.97622126340866, -123.74580973386765
 1.7063901167774403E9, -385.359291434288, -336.77051120996475, -214.93953025341034, -147.9205230474472
 1.7063901167774403E9, -298.71328926086426, -354.243323802948, -260.17736011743546, -84.01311260461807
 1.706390116791034E9, -364.0568212866783, -339.6427543759346, -244.3800227046013, -102.92204678058624
 1.706390116791034E9, -399.4811536669731, -326.95701372623444, -206.8015079498291, -155.34048455953598
 1.7063901168066795E9, -311.15967631340027, -344.908533513546, -245.57679069042206, -99.57109642028809
 1.7063901168066795E9, -327.43572092056274, -343.2330583333969, -257.3051169514656, -88.08212375640869
 1.7063901168074183E9, -405.7043471932411, -324.32412415742874, -207.75892233848572, -145.04827988147736
 1.7063901168074183E9, -331.7440856695175, -331.7440856695175, -228.82203888893127, -128.77223527431488
 1.7063901168213463E9, -298.9526428580284, -343.7117655277252, -260.65606731176376, -73.4815543293953
 1.7063901168213463E9, -382.72640186548233, -322.4092953801155, -221.4020773768425, -123.9851633310318
 1.7063901168366888E9, -366.689710855484, -319.2976986169815, -211.82793349027634, -144.8089262843132
 1.7063901168366888E9, -290.0965597629547, -343.47241193056107, -255.86899536848068, -83.53440541028976
 1.7063901168374197E9, -354.00397020578384, -333.4195608496666, -234.08781802654266, -100.5285108089447
 1.7063901168374197E9, -395.65149611234665, -322.4092953801155, -207.2802151441574, -157.2553133368492
 1.706390116851024E9, -296.08039969205856, -334.61632883548737, -243.90131551027298, -104.59752196073532
 1.706390116851024E9, -316.1861018538475, -336.5311576128006, -249.88515543937683, -82.8163446187973
 1.706390116866891E9, -403.0714576244354, -321.21252739429474, -207.51956874132156, -147.20246225595474
 1.706390116866891E9, -333.8982680439949, -326.95701372623444, -221.16272377967834, -122.54904174804688
 1.7063901168675072E9, -295.60169249773026, -345.3872407078743, -259.69865292310715, -70.13060396909714
 1.7063901168675072E9, -383.20510905981064, -323.84541696310043, -214.93953025341034, -122.78839534521103
 1.70639011688108E9, -369.56195402145386, -321.69123458862305, -205.84409356117249, -141.93668311834335
 1.70639011688108E9, -276.45340472459793, -333.8982680439949, -246.05549788475037, -70.8486647605896
 1.706390116912714E9, -347.0627158880234, -325.28153854608536, -227.86462450027466, -88.32147735357285
 1.706390116912714E9, -392.53989934921265, -313.0745050907135, -197.4667176604271, -147.20246225595474
 1.7063901169134364E9, -323.84541696310043, -337.72792559862137, -253.236105799675, -80.66216224431992
 1.7063901169134364E9, -404.98628640174866, -321.21252739429474, -205.12603276968002, -144.56957268714905
 1.7063901169139702E9, -331.7440856695175, -327.1963673233986, -221.8807845711708, -120.15550577640533
 1.7063901169139702E9, -296.798460483551, -343.2330583333969, -251.79998421669006, -71.32737195491791
 1.7063901169261777E9, -384.64123064279556, -323.6060633659363, -218.52983421087265, -122.07033455371857
 1.7063901169261777E9, -367.1684180498123, -324.32412415742874, -215.1788838505745, -152.70759499073029
 1.7063901169417412E9, -282.4372446537018, -343.47241193056107, -252.27869141101837, -80.18345504999161
 1.7063901169417412E9, -357.354920566082, -336.0524504184723, -238.39618277549744, -96.22014605998993
 1.7063901169425275E9, -393.97602093219757, -321.4518809914589, -209.19504392147064, -155.8191917538643
 1.7063901169425275E9, -304.2184219956398, -339.40340077877045, -242.7045475244522, -104.59752196073532
 1.7063901169562502E9, -321.4518809914589, -342.99370473623276, -251.5606306195259, -78.02927267551422
 1.7063901169562502E9, -400.6779216527939, -320.73382019996643, -207.2802151441574, -145.04827988147736
 1.706390116972085E9, -326.238952934742, -320.73382019996643, -219.72660219669342, -125.42128491401672
 1.706390116972085E9, -294.4049245119095, -338.2066327929497, -249.16709464788437, -63.66805684566498
 1.706390116972467E9, -377.46062272787094, -318.8189914226532, -216.61500543355942, -115.84714102745056
 1.706390116972467E9, -359.0303957462311, -312.1170907020569, -192.91899931430817, -140.73991513252258
 1.7063901169860797E9, -278.6075870990753, -330.54731768369675, -239.5929507613182, -69.41254317760468
 1.7063901169860797E9, -346.58400869369507, -324.0847705602646, -227.6252709031105, -93.58725649118423
 1.7063901170017328E9, -378.1786835193634, -302.0642396211624, -189.32869535684586, -145.52698707580566
 1.7063901170017328E9, -288.6604381799698, -324.32412415742874, -228.1039780974388, -91.43307411670685
 1.7063901170024123E9, -312.35644429922104, -330.54731768369675, -238.87488996982574, -72.52413994073868
 1.7063901170024123E9, -394.2153745293617, -311.15967631340027, -193.63706010580063, -139.0644399523735
 1.7063901170160034E9, -331.7440856695175, -320.73382019996643, -220.68401658535004, -126.6180528998375
 1.7063901170160034E9, -294.64427810907364, -342.99370473623276, -259.459299325943, -73.9602615237236
 1.7063901170318346E9, -388.7102417945862, -324.32412415742874, -222.35949176549911, -129.2509424686432
 1.7063901170318346E9, -369.3226004242897, -316.6648090481758, -207.99827593564987, -149.83535182476044
 1.7063901170327363E9, -283.63401263952255, -337.0098648071289, -248.68838745355606, -81.14086943864822
 1.7063901170327363E9, -349.9349590539932, -328.1537817120552, -243.42260831594467, -107.46976512670517
 1.7063901170459497E9, -388.7102417945862, -311.3990299105644, -200.33896082639694, -155.8191917538643
 1.7063901170459497E9, -292.01138854026794, -325.5208921432495, -236.0026468038559, -100.28915721178055
 1.706390117061836E9, -310.4416155219078, -327.43572092056274, -240.31101155281067, -73.00284713506699
 1.706390117061836E9, -395.8908497095108, -313.0745050907135, -203.6899111866951, -145.04827988147736
 1.7063901170625117E9, -319.2976986169815, -314.27127307653427, -219.2478950023651, -125.66063851118088
 1.7063901170625117E9, -284.11271983385086, -332.46214646101, -255.15093457698822, -71.08801835775375
 1.7063901170923288E9, -374.1096723675728, -317.3828698396683, -219.2478950023651, -126.6180528998375
 1.7063901170923288E9, -355.9187989830971, -313.31385868787766, -202.25378960371017, -145.04827988147736
 1.7063901170930467E9, -275.4959903359413, -331.50473207235336, -251.0819234251976, -78.26862627267838
 1.7063901170930467E9, -336.29180401563644, -317.8615770339966, -231.21557486057281, -97.89562124013901
 1.7063901170938084E9, -389.90700978040695, -312.5957978963852, -196.98801046609879, -150.79276621341705
 1.7063901170938084E9, -302.30359321832657, -332.46214646101, -236.4813539981842, -101.48592519760132
 1.7063901171059833E9, -321.69123458862305, -336.77051120996475, -246.53420507907867, -76.83250468969345
 1.7063901171059833E9, -401.39598244428635, -318.3402842283249, -202.25378960371017, -145.52698707580566
 1.7063901171217968E9, -335.0950360298157, -325.5208921432495, -220.20530939102173, -124.94257771968842
 1.7063901171217968E9, -304.45777559280396, -347.30206948518753, -261.13477450609207, -75.63573670387268
 1.7063901171224644E9, -388.2315346002579, -331.2653784751892, -223.31690615415573, -124.46387052536011
 1.7063901171224644E9, -368.3651860356331, -319.7764058113098, -204.64732557535172, -148.63858383893967
 1.7063901171360033E9, -286.26690220832825, -335.573743224144, -254.91158097982407, -80.90151584148407
 1.7063901171360033E9, -351.84978783130646, -328.1537817120552, -240.07165795564651, -97.17756044864655
 1.7063901171516616E9, -392.7792529463768, -319.53705221414566, -197.22736406326294, -153.1863021850586
 1.7063901171516616E9, -299.4313500523567, -324.0847705602646, -231.45492845773697, -92.86919569969177
 1.7063901171523612E9, -317.8615770339966, -335.81309682130814, -239.83230435848236, -71.32737195491791
 1.7063901171523612E9, -397.0876176953316, -311.87773710489273, -198.4241320490837, -138.34637916088104
 1.7063901171668437E9, -334.61632883548737, -326.7176601290703, -213.50340867042542, -123.50645613670349
 1.7063901171668437E9, -298.23458206653595, -340.6001687645912, -246.77355867624283, -72.28478634357452
 1.706390117182001E9, -386.79541301727295, -326.95701372623444, -212.0672870874405, -122.78839534521103
 1.706390117182001E9, -363.33876049518585, -314.0319194793701, -201.77508240938187, -144.3302190899849
 1.70639011718261E9, -279.3256478905678, -335.3343896269798, -249.64580184221268, -77.55056548118591
 1.70639011718261E9, -350.89237344264984, -328.87184250354767, -233.60911083221436, -96.69885325431824
 1.706390117195976E9, -391.58248496055603, -317.6222234368324, -202.73249679803848, -155.57983815670013
 1.706390117195976E9, -309.24484753608704, -340.1214615702629, -242.46519392728806, -107.70911872386932
 1.7063901172116923E9, -317.8615770339966, -342.03629034757614, -246.05549788475037, -77.0718582868576
 1.7063901172116923E9, -402.5927504301071, -323.3667097687721, -205.12603276968002, -143.37280470132828
 1.706390117212386E9, -331.7440856695175, -322.8880025744438, -222.12013816833496, -129.49029606580734
 1.706390117212386E9, -296.08039969205856, -343.9511191248894, -256.58705615997314, -78.26862627267838
 1.706390117226036E9, -382.72640186548233, -324.80283135175705, -219.96595579385757, -124.22451692819595
 1.706390117226036E9, -362.38134610652924, -314.98933386802673, -201.77508240938187, -144.3302190899849
 1.7063901172416975E9, -278.6075870990753, -334.3769752383232, -246.53420507907867, -82.09828382730484
 1.7063901172416975E9, -344.908533513546, -332.9408536553383, -233.13040363788605, -96.93820685148239
 1.706390117242416E9, -386.0773522257805, -315.94674825668335, -209.4343975186348, -154.86177736520767
 1.706390117242416E9, -298.9526428580284, -336.29180401563644, -251.32127702236176, -107.94847232103348
 1.7063901172562077E9, -321.9305881857872, -342.51499754190445, -254.91158097982407, -82.8163446187973
 1.7063901172562077E9, -413.6030158996582, -331.50473207235336, -217.57241982221603, -158.21272772550583
 1.7063901172719417E9, -340.83952236175537, -331.50473207235336, -227.86462450027466, -132.3625392317772
 1.7063901172719417E9, -304.6971291899681, -350.1743126511574, -263.28895688056946, -81.14086943864822
 1.7063901172724755E9, -390.86442416906357, -332.46214646101, -232.17298924922943, -125.18193131685257
 1.7063901172724755E9, -374.82773315906525, -327.1963673233986, -215.6575910449028, -151.0321198105812
 1.70639011728608E9, -289.1391453742981, -346.8233622908592, -259.69865292310715, -83.05569821596146
 1.70639011728608E9, -356.15815258026123, -335.573743224144, -239.1142435669899, -93.34790289402008
 1.7063901173019469E9, -394.9334353208542, -318.57963782548904, -204.40797197818756, -152.22888779640198
 1.7063901173019469E9, -297.5165212750435, -332.9408536553383, -231.69428205490112, -98.37432843446732
 1.7063901173024457E9, -313.79256588220596, -335.573743224144, -243.90131551027298, -77.31121188402176
 1.7063901173024457E9, -404.2682256102562, -321.21252739429474, -213.74276226758957, -146.9631086587906
 1.706390117316142E9, -331.98343926668167, -328.6324889063835, -227.86462450027466, -129.49029606580734
 1.706390117316142E9, -293.2081565260887, -339.88210797309875, -257.7838241457939, -73.9602615237236
 1.7063901173316894E9, -381.05092668533325, -327.1963673233986, -225.47108852863312, -123.50645613670349
 1.7063901173316894E9, -362.86005330085754, -317.8615770339966, -198.90283924341202, -146.00569427013397
 1.7063901173323855E9, -280.04370868206024, -336.29180401563644, -248.20968025922775, -77.78991907835007
 1.7063901173323855E9, -349.69560545682907, -337.4885720014572, -243.18325471878052, -92.39048850536346
 1.7063901173461943E9, -399.72050726413727, -325.0421849489212, -206.08344715833664, -151.75018060207367
 1.7063901173461943E9, -305.1758363842964, -341.796936750412, -234.32717162370682, -98.13497483730316
 1.7063901173619645E9, -318.3402842283249, -342.51499754190445, -243.42260831594467, -75.87509030103683
 1.7063901173619645E9, -410.4914191365242, -327.6750745177269, -216.1362982392311, -144.56957268714905
 1.7063901173625288E9, -337.0098648071289, -332.70150005817413, -221.8807845711708, -127.33611369132996
 1.7063901173625288E9, -295.60169249773026, -340.36081516742706, -257.54447054862976, -69.17318958044052
 1.7063901173760357E9, -381.7689874768257, -322.16994178295135, -221.16272377967834, -118.2406769990921
 1.7063901173760357E9, -370.2800148129463, -316.90416264533997, -203.6899111866951, -144.09086549282074
 1.7063901173916414E9, -285.30948781967163, -338.92469358444214, -251.79998421669006, -78.74733346700668
 1.7063901173916414E9, -352.32849502563477, -333.8982680439949, -235.76329320669174, -92.86919569969177
 1.706390117392376E9, -395.4121425151825, -316.6648090481758, -201.0570216178894, -153.42565578222275
 1.706390117392376E9, -305.41518998146057, -334.8556824326515, -245.57679069042206, -101.00721800327301
 1.706390117422608E9, -321.21252739429474, -340.6001687645912, -251.79998421669006, -82.337637424469
 1.706390117422608E9, -403.0714576244354, -324.32412415742874, -207.99827593564987, -144.8089262843132
 1.7063901174231167E9, -340.1214615702629, -324.80283135175705, -220.44466298818588, -129.01158887147903
 1.7063901174231167E9, -294.8836317062378, -344.4298263192177, -258.9805921316147, -70.13060396909714
 1.7063901174238622E9, -382.9657554626465, -327.6750745177269, -223.07755255699158, -120.63421297073364
 1.7063901174238622E9, -370.7587220072746, -323.3667097687721, -203.92926478385925, -146.48440146446228
 1.7063901174363163E9, -293.9262173175812, -342.99370473623276, -254.43287378549576, -80.18345504999161
 1.7063901174363163E9, -358.7910421490669, -338.44598639011383, -244.8587298989296, -95.98079246282578
 1.706390117451698E9, -404.7469328045845, -326.95701372623444, -204.1686183810234, -154.62242376804352
 1.706390117451698E9, -310.9203227162361, -338.685339987278, -239.35359716415405, -99.33174282312393
 1.7063901174524393E9, -327.6750745177269, -343.7117655277252, -252.03933781385422, -77.0718582868576
 1.7063901174524393E9, -409.0552975535393, -322.8880025744438, -214.22146946191788, -144.56957268714905
 1.706390117466332E9, -340.83952236175537, -326.238952934742, -218.52983421087265, -122.30968815088272
 1.706390117466332E9, -296.798460483551, -342.99370473623276, -252.51804500818253, -69.89125037193298
 1.7063901174817097E9, -380.3328658938408, -322.4092953801155, -221.8807845711708, -117.28326261043549
 1.7063901174817097E9, -369.08324682712555, -317.6222234368324, -200.5783144235611, -134.99542880058289
 1.7063901174824204E9, -285.5488414168358, -334.61632883548737, -244.3800227046013, -73.9602615237236
 1.7063901174824204E9, -352.8072022199631, -332.70150005817413, -233.3697572350502, -92.62984210252762
 1.706390117496206E9, -394.2153745293617, -314.27127307653427, -204.40797197818756, -151.51082700490952
 1.706390117496206E9, -303.97906839847565, -333.4195608496666, -239.83230435848236, -99.57109642028809
 1.7063901175117106E9, -325.28153854608536, -343.2330583333969, -256.347702562809, -78.98668706417084
 1.7063901175117106E9, -408.57659035921097, -325.76024574041367, -208.71633672714233, -143.37280470132828
 1.706390117512428E9, -336.5311576128006, -323.84541696310043, -221.64143097400665, -128.53288167715073
 1.706390117512428E9, -295.8410460948944, -344.1904727220535, -256.8264097571373, -72.52413994073868
 1.7063901175261588E9, -382.9657554626465, -323.84541696310043, -221.16272377967834, -120.39485937356949
 1.7063901175261588E9, -367.8864788413048, -313.0745050907135, -206.8015079498291, -142.41539031267166
 1.706390117541896E9, -282.1978910565376, -333.65891444683075, -244.8587298989296, -69.65189677476883
 1.706390117541896E9, -348.25948387384415, -331.2653784751892, -241.50777953863144, -86.16729497909546
 1.70639011754243E9, -393.97602093219757, -312.83515149354935, -200.5783144235611, -149.35664463043213
 1.70639011754243E9, -304.93648278713226, -329.8292568922043, -233.13040363788605, -93.34790289402008
 1.706390117556238E9, -317.6222234368324, -334.8556824326515, -245.57679069042206, -73.00284713506699
 1.706390117556238E9, -401.39598244428635, -316.1861018538475, -203.2112039923668, -142.1760367155075
 1.7063901175716865E9, -337.0098648071289, -323.3667097687721, -220.44466298818588, -126.37869930267334
 1.7063901175716865E9, -293.2081565260887, -342.2756439447403, -257.54447054862976, -68.93383598327637
 1.7063901175725589E9, -390.38571697473526, -331.2653784751892, -225.23173493146896, -118.71938419342041
 1.7063901175725589E9, -372.4341971874237, -315.46804106235504, -208.9556903243065, -146.72375506162643
 1.7063901175860875E9, -283.3946590423584, -335.3343896269798, -249.64580184221268, -77.78991907835007
 1.7063901175860875E9, -343.9511191248894, -327.43572092056274, -235.76329320669174, -91.91178131103516
 1.706390117601729E9, -391.8218385577202, -314.0319194793701, -197.22736406326294, -149.11729103326797
 1.706390117601729E9, -300.38876444101334, -330.06861048936844, -236.72070759534836, -97.65626764297485
 1.706390117602434E9, -315.46804106235504, -338.685339987278, -249.16709464788437, -73.4815543293953
 1.706390117602434E9, -399.9598608613014, -315.46804106235504, -206.56215435266495, -141.45797592401505
 1.7063901176161115E9, -330.7866712808609, -320.4944666028023, -220.20530939102173, -122.78839534521103
 1.7063901176161115E9, -292.01138854026794, -342.03629034757614, -258.02317774295807, -68.2157751917839
 1.7063901176480968E9, -389.42830258607864, -327.1963673233986, -224.5136741399765, -120.8735665678978
 1.7063901176480968E9, -372.67355078458786, -318.57963782548904, -202.25378960371017, -145.04827988147736
 1.7063901176488037E9, -291.0539741516113, -342.51499754190445, -249.64580184221268, -79.7047478556633
 1.7063901176488037E9, -353.7646166086197, -335.3343896269798, -241.26842594146729, -94.3053172826767
 1.706390117649572E9, -399.4811536669731, -317.8615770339966, -202.73249679803848, -151.0321198105812
 1.706390117649572E9, -307.56937235593796, -337.4885720014572, -236.4813539981842, -101.72527879476547
 1.706390117650313E9, -316.6648090481758, -343.7117655277252, -254.43287378549576, -76.35379749536514
 1.706390117650313E9, -401.87468963861465, -319.53705221414566, -209.67375111579895, -141.2186223268509
 1.7063901176610005E9, -337.9672791957855, -325.5208921432495, -218.05112701654434, -127.33611369132996
 1.7063901176610005E9, -300.38876444101334, -350.41366624832153, -261.3741281032562, -73.4815543293953
 1.7063901176763122E9, -384.8805842399597, -326.238952934742, -213.74276226758957, -115.60778743028641
 1.7063901176763122E9, -375.5457939505577, -326.238952934742, -208.47698312997818, -150.79276621341705
 1.7063901176917236E9, -286.9849629998207, -343.47241193056107, -251.5606306195259, -83.77375900745392
 1.7063901176917236E9, -348.02013027668, -332.70150005817413, -236.24200040102005, -95.74143886566162
 1.7063901176923802E9, -402.5927504301071, -325.5208921432495, -210.87051910161972, -152.94694858789444
 1.7063901176923802E9, -306.13325077295303, -337.4885720014572, -239.5929507613182, -99.09238922595978
