 Timestamp, EXG Channel 0, EXG Channel 1, EXG Channel 2, EXG Channel 3
 1.7075953827717085E9, -488.99939900636673, -707.0505260229111, -2055.329338848591, -239.35359716415405
 1.7075953827717085E9, -399.4811536669731, -744.150333583355, -2127.6141251921654, -242.46519392728806
 1.707595382807094E9, -391.1037777662277, -648.6482483148575, -2075.1956874132156, -178.79713708162308
 1.707595382807094E9, -482.7762054800987, -751.0915879011154, -2087.1633672714233, -263.5283104777336
 1.7075953828216865E9, -328.87184250354767, -704.8963436484337, -2142.9327554106712, -201.77508240938187
 1.7075953828216865E9, -333.4195608496666, -624.2341814041138, -2085.009184896946, -144.56957268714905
 1.7075953828366013E9, -478.7071943283081, -709.2047083973885, -2060.116410791874, -241.50777953863144
 1.7075953828366013E9, -384.4018770456314, -732.6613609194756, -2121.3909316658974, -227.38591730594635
 1.7075953828371077E9, -294.8836317062378, -633.0902644991875, -2108.9445446133614, -136.4315503835678
 1.7075953828371077E9, -437.5383756160736, -664.92429292202, -2056.765460431576, -207.2802151441574
 1.707595382850882E9, -440.88932597637177, -751.0915879011154, -2107.2690694332123, -256.10834896564484
 1.707595382850882E9, -293.686863720417, -662.5307569503784, -2130.007661163807, -160.84561729431152
 1.7075953828665242E9, -392.7792529463768, -644.1005299687386, -2072.323444247246, -180.7119658589363
 1.7075953828665242E9, -483.0155590772629, -746.7832231521606, -2091.7110856175423, -272.14503997564316
 1.7075953828670585E9, -341.796936750412, -708.0079404115677, -2149.8740097284317, -208.9556903243065
 1.7075953828670585E9, -341.0788759589195, -636.9199220538139, -2097.455571949482, -162.28173887729645
 1.7075953828805337E9, -488.0419846177101, -719.9756202697754, -2076.8711625933647, -255.15093457698822
 1.7075953828805337E9, -390.38571697473526, -742.9535655975342, -2137.4276226758957, -242.94390112161636
 1.7075953828964849E9, -301.82488602399826, -646.0153587460518, -2122.587699651718, -156.2978989481926
 1.7075953828964849E9, -444.9583371281624, -677.1313263773918, -2068.4937866926193, -217.33306622505188
 1.7075953828970287E9, -444.2402763366699, -755.160599052906, -2111.338080585003, -263.76766407489777
 1.7075953828970287E9, -297.0378140807152, -669.711364865303, -2133.119257926941, -162.0423852801323
 1.7075953829108787E9, -391.1037777662277, -643.1431155800819, -2070.6479690670967, -174.4887723326683
 1.7075953829108787E9, -481.10073029994965, -742.71421200037, -2081.4188809394836, -259.69865292310715
 1.7075953829265125E9, -333.4195608496666, -705.375050842762, -2135.5127938985825, -193.87641370296478
 1.7075953829265125E9, -334.3769752383232, -629.260606944561, -2093.3865607976913, -151.75018060207367
 1.7075953829272013E9, -481.8187910914421, -712.7950123548508, -2064.4247755408287, -252.75739860534668
 1.7075953829272013E9, -389.90700978040695, -733.6187753081322, -2127.135417997837, -236.72070759534836
 1.7075953829405727E9, -301.1068252325058, -632.6115573048592, -2109.662605404854, -146.72375506162643
 1.7075953829405727E9, -446.8731659054756, -674.9771440029144, -2067.5363723039627, -213.26405507326126
 1.7075953829561343E9, -443.52221554517746, -757.0754278302193, -2116.36450612545, -264.7250784635544
 1.7075953829561343E9, -297.5165212750435, -670.4294256567955, -2141.257280230522, -174.4887723326683
 1.7075953829712336E9, -387.5134738087654, -646.2547123432159, -2074.9563338160515, -182.14808744192123
 1.7075953829712336E9, -476.7923655509949, -743.9109799861908, -2093.3865607976913, -274.5385759472847
 1.7075953829719253E9, -329.8292568922043, -703.6995756626129, -2150.592070519924, -213.98211586475372
 1.7075953829719253E9, -337.24921840429306, -629.260606944561, -2101.2852295041084, -164.675274848938
 1.7075953829868104E9, -481.3400838971138, -709.2047083973885, -2069.9299082756042, -251.5606306195259
 1.7075953829868104E9, -387.75282740592957, -732.4220073223114, -2131.92248994112, -241.50777953863144
 1.707595382987568E9, -295.8410460948944, -635.483800470829, -2113.9709701538086, -144.56957268714905
 1.707595382987568E9, -444.9583371281624, -668.5145968794823, -2057.9622284173965, -206.56215435266495
 1.7075953830172334E9, -448.30928748846054, -749.1767591238022, -2104.1574726700783, -259.21994572877884
 1.7075953830172334E9, -302.7823004126549, -662.2914033532143, -2128.571539580822, -164.91462844610214
 1.7075953830177243E9, -386.5560594201088, -638.8347508311272, -2068.015079498291, -174.01006513834
 1.7075953830177243E9, -485.6484486460686, -745.1077479720116, -2087.881428062916, -269.99085760116577
 1.7075953830185285E9, -338.92469358444214, -705.375050842762, -2141.017926633358, -202.01443600654602
 1.7075953830185285E9, -341.796936750412, -633.3296180963516, -2095.0620359778404, -157.73402053117752
 1.7075953830305212E9, -487.32392382621765, -716.8640235066414, -2072.802151441574, -258.5018849372864
 1.7075953830305212E9, -400.6779216527939, -745.1077479720116, -2134.3160259127617, -246.05549788475037
 1.7075953830463922E9, -309.72355473041534, -646.0153587460518, -2120.912224471569, -152.94694858789444
 1.7075953830463922E9, -449.5060554742813, -681.4396911263466, -2074.9563338160515, -227.86462450027466
 1.7075953830469942E9, -448.30928748846054, -752.7670630812645, -2117.800627708435, -268.07602882385254
 1.7075953830469942E9, -299.4313500523567, -670.6687792539597, -2135.2734403014183, -170.18040758371353
 1.7075953830609016E9, -388.470888197422, -644.818590760231, -2073.5202122330666, -171.8558827638626
 1.7075953830609016E9, -478.94654792547226, -747.9799911379814, -2098.4129863381386, -273.3418079614639
 1.7075953830761852E9, -338.685339987278, -713.7524267435074, -2144.129523396492, -207.2802151441574
 1.7075953830761852E9, -333.8982680439949, -638.1166900396347, -2095.3013895750046, -151.75018060207367
 1.707595383076893E9, -483.73361986875534, -719.4969130754471, -2069.69055467844, -251.79998421669006
 1.707595383076893E9, -391.8218385577202, -745.3471015691757, -2128.810893177986, -233.8484644293785
 1.7075953830905616E9, -303.97906839847565, -646.0153587460518, -2115.1677381396294, -147.9205230474472
 1.7075953830905616E9, -451.89959144592285, -678.3280943632126, -2063.228007555008, -216.85435903072357
 1.7075953831061723E9, -453.3357130289078, -755.160599052906, -2112.5348485708237, -266.1612000465393
 1.7075953831061723E9, -308.2874331474304, -672.5836080312729, -2138.145683467388, -175.68554031848907
 1.7075953831069262E9, -391.8218385577202, -651.7598450779915, -2079.7434057593346, -183.344855427742
 1.7075953831069262E9, -488.7600454092026, -753.0064166784286, -2101.7639366984367, -279.3256478905678
 1.7075953831205645E9, -336.29180401563644, -713.7524267435074, -2148.437888145447, -212.30664068460464
 1.7075953831205645E9, -338.685339987278, -631.8934965133667, -2090.7536712288857, -159.4094957113266
 1.70759538313616E9, -476.0743047595024, -708.0079404115677, -2060.355764389038, -242.94390112161636
 1.70759538313616E9, -390.38571697473526, -737.6877864599228, -2124.023821234703, -232.17298924922943
 1.707595383136909E9, -300.86747163534164, -632.6115573048592, -2108.705191016197, -143.61215829849243
 1.707595383136909E9, -437.5383756160736, -668.5145968794823, -2055.329338848591, -206.56215435266495
 1.7075953831505277E9, -446.63381230831146, -756.596720635891, -2114.928384542465, -267.59732162952423
 1.7075953831505277E9, -301.1068252325058, -671.3868400454521, -2138.8637442588806, -179.7545514702797
 1.7075953831665573E9, -384.4018770456314, -645.7760051488876, -2082.8550025224686, -186.93515938520432
 1.7075953831665573E9, -482.53685188293457, -746.7832231521606, -2095.3013895750046, -275.9746975302696
 1.7075953831670132E9, -339.88210797309875, -714.709841132164, -2149.6346561312675, -213.98211586475372
 1.7075953831670132E9, -340.1214615702629, -640.9889332056046, -2102.242643892765, -164.91462844610214
 1.7075953831805117E9, -486.1271558403969, -717.1033771038055, -2076.3924553990364, -256.8264097571373
 1.7075953831805117E9, -398.76309287548065, -746.5438695549965, -2136.9489154815674, -250.12450903654099
 1.7075953831964436E9, -301.1068252325058, -642.6644083857536, -2124.263174831867, -161.32432448863983
 1.7075953831964436E9, -448.78799468278885, -679.5248623490334, -2073.5202122330666, -221.4020773768425
 1.7075953831970143E9, -446.63381230831146, -758.7509030103683, -2117.0825669169426, -272.14503997564316
 1.7075953831970143E9, -310.4416155219078, -679.046155154705, -2141.257280230522, -180.47261226177216
 1.707595383210883E9, -385.5986450314522, -646.7334195375443, -2080.222112953663, -185.9777449965477
 1.707595383210883E9, -483.0155590772629, -743.4322727918625, -2099.131047129631, -283.3946590423584
 1.707595383226272E9, -340.6001687645912, -717.3427307009697, -2152.028192102909, -222.12013816833496
 1.707595383226272E9, -340.83952236175537, -635.2444468736649, -2096.9768647551537, -168.7442860007286
 1.7075953832270155E9, -483.73361986875534, -716.6246699094772, -2067.0576651096344, -256.347702562809
 1.7075953832270155E9, -387.0347666144371, -732.4220073223114, -2128.571539580822, -240.55036514997482
 1.7075953832405133E9, -294.16557091474533, -631.1754357218742, -2106.3116550445557, -146.00569427013397
 1.7075953832405133E9, -432.2725964784622, -663.488171339035, -2050.3029133081436, -206.08344715833664
 1.707595383256395E9, -431.3151820898056, -744.6290407776833, -2102.481997489929, -258.9805921316147
 1.707595383256395E9, -291.2933277487755, -662.5307569503784, -2130.9650755524635, -165.39333564043045
 1.707595383257131E9, -384.8805842399597, -639.0741044282913, -2068.015079498291, -174.01006513834
 1.707595383257131E9, -477.7497799396515, -739.1239080429077, -2087.4027208685875, -273.1024543642998
 1.70759538327046E9, -338.685339987278, -709.4440619945526, -2139.1030978560448, -213.0247014760971
 1.70759538327046E9, -333.65891444683075, -623.7554742097855, -2094.343975186348, -159.8882029056549
 1.7075953832864416E9, -485.8878022432327, -715.6672555208206, -2068.254433095455, -257.7838241457939
 1.7075953832864416E9, -398.5237392783165, -746.5438695549965, -2138.8637442588806, -254.91158097982407
 1.7075953832868967E9, -309.4842011332512, -651.041784286499, -2122.587699651718, -165.6326892375946
 1.7075953832868967E9, -448.0699338912964, -678.0887407660484, -2073.2808586359024, -230.01880687475204
 1.7075953833008761E9, -452.138945043087, -764.2560357451439, -2114.449677348137, -273.1024543642998
 1.7075953833008761E9, -305.1758363842964, -677.1313263773918, -2142.693401813507, -175.20683312416077
 1.7075953833163097E9, -387.0347666144371, -646.2547123432159, -2079.2646985650063, -182.8661482334137
 1.7075953833163097E9, -479.42525511980057, -744.150333583355, -2086.684660077095, -270.9482719898224
 1.7075953833169968E9, -335.0950360298157, -712.5556587576866, -2144.6082305908203, -205.84409356117249
 1.7075953833169968E9, -329.350549697876, -632.8509109020233, -2093.3865607976913, -157.73402053117752
 1.7075953833305535E9, -478.94654792547226, -703.2208684682846, -2069.9299082756042, -253.47545939683914
 1.7075953833305535E9, -390.38571697473526, -730.7465321421623, -2128.571539580822, -245.57679069042206
 1.7075953833462193E9, -298.4739356637001, -637.3986292481422, -2113.4922629594803, -152.94694858789444
 1.7075953833462193E9, -434.66613245010376, -667.7965360879898, -2059.1589964032173, -213.74276226758957
 1.707595383346939E9, -437.5383756160736, -745.3471015691757, -2104.3968262672424, -266.1612000465393
 1.707595383346939E9, -287.22431659698486, -658.701099395752, -2128.0928323864937, -169.22299319505692
 1.7075953833610036E9, -379.6148051023483, -641.4676403999329, -2069.69055467844, -184.06291621923447
 1.7075953833610036E9, -478.94654792547226, -733.6187753081322, -2088.360135257244, -275.4959903359413
 1.707595383376726E9, -335.573743224144, -700.8273324966431, -2145.326291382313, -206.8015079498291
 1.707595383376726E9, -333.8982680439949, -629.7393141388893, -2102.242643892765, -167.06881082057953
 1.707595383377002E9, -489.95681339502335, -716.3853163123131, -2075.674394607544, -262.570896089077
 1.707595383377002E9, -403.0714576244354, -750.1341735124588, -2141.9753410220146, -263.5283104777336
 1.707595383390558E9, -313.0745050907135, -650.8024306893349, -2133.358611524105, -173.77071154117584
 1.707595383390558E9, -444.4796299338341, -675.2164976000786, -2075.913748204708, -228.34333169460297
 1.7075953834062116E9, -450.2241162657738, -758.9902566075325, -2122.8270532488823, -274.5385759472847
 1.7075953834062116E9, -302.30359321832657, -674.4984368085861, -2144.368876993656, -180.233258664608
 1.7075953834068847E9, -381.52963387966156, -640.7495796084404, -2078.785991370678, -180.95131945610046
 1.7075953834068847E9, -485.8878022432327, -745.5864551663399, -2096.9768647551537, -281.00112307071686
 1.7075953834205441E9, -331.7440856695175, -707.5292332172394, -2141.7359874248505, -210.15245831012726
 1.7075953834205441E9, -317.8615770339966, -618.2503414750099, -2090.2749640345573, -149.59599822759628
 1.7075953834362493E9, -471.76594001054764, -705.8537580370903, -2066.339604318142, -252.27869141101837
 1.7075953834362493E9, -379.3754515051842, -732.9007145166397, -2126.1780036091805, -245.09808349609375
 1.7075953834370108E9, -287.22431659698486, -639.7921652197838, -2119.23674929142, -158.21272772550583
 1.7075953834370108E9, -425.81004935503006, -660.1372209787369, -2059.87705719471, -221.16272377967834
 1.707595383467218E9, -435.86290043592453, -747.0225767493248, -2112.5348485708237, -275.73534393310547
 1.707595383467218E9, -289.85720616579056, -664.92429292202, -2134.0766723155975, -178.55778348445892
 1.7075953834677482E9, -374.1096723675728, -636.2018612623215, -2078.785991370678, -180.47261226177216
 1.7075953834677482E9, -471.28723281621933, -738.1664936542511, -2090.99302482605, -273.1024543642998
 1.7075953834685285E9, -331.98343926668167, -709.4440619945526, -2145.565644979477, -208.23762953281403
 1.7075953834685285E9, -323.6060633659363, -628.3031925559044, -2098.6523399353027, -163.23915326595306
 1.7075953834805129E9, -465.54274648427963, -703.2208684682846, -2071.8447370529175, -253.95416659116745
 1.7075953834805129E9, -389.1889489889145, -737.4484328627586, -2133.358611524105, -249.16709464788437
 1.7075953834962401E9, -296.798460483551, -645.2972979545593, -2125.699296414852, -160.84561729431152
 1.7075953834962401E9, -440.41061878204346, -674.9771440029144, -2072.0840906500816, -219.00854140520096
 1.7075953834969091E9, -442.56480115652084, -754.2031846642494, -2115.885798931122, -275.4959903359413
 1.7075953834969091E9, -297.0378140807152, -676.8919727802277, -2145.565644979477, -183.10550183057785
 1.7075953835108826E9, -374.34902596473694, -640.7495796084404, -2082.6156489253044, -183.10550183057785
 1.7075953835108826E9, -468.4149896502495, -734.8155432939529, -2093.3865607976913, -276.2140511274338
 1.7075953835262008E9, -324.80283135175705, -701.0666860938072, -2145.0869377851486, -205.36538636684418
 1.7075953835262008E9, -319.53705221414566, -624.9522421956062, -2099.370400726795, -152.70759499073029
 1.707595383526922E9, -471.28723281621933, -706.8111724257469, -2067.0576651096344, -247.73097306489944
 1.707595383526922E9, -379.3754515051842, -734.5761896967888, -2129.5289539694786, -247.25226587057114
 1.7075953835573568E9, -291.0539741516113, -635.0050932765007, -2121.8696388602257, -156.7766061425209
 1.7075953835573568E9, -429.1609997153282, -660.8552817702293, -2062.2705931663513, -214.93953025341034
 1.7075953835577781E9, -433.9480716586113, -744.8683943748474, -2113.7316165566444, -269.7515040040016
 1.7075953835577781E9, -293.44751012325287, -669.2326576709747, -2145.804998576641, -178.31842988729477
 1.7075953835585132E9, -370.7587220072746, -632.6115573048592, -2076.8711625933647, -179.51519787311554
 1.7075953835585132E9, -472.72335439920425, -735.5336040854454, -2090.2749640345573, -275.73534393310547
 1.7075953835706832E9, -333.4195608496666, -711.3588907718658, -2147.001766562462, -217.33306622505188
 1.7075953835706832E9, -324.32412415742874, -628.5425461530685, -2103.918119072914, -166.82945722341537
 1.707595383586214E9, -469.13305044174194, -706.5718188285828, -2073.7595658302307, -256.347702562809
 1.707595383586214E9, -390.6250705718994, -742.9535655975342, -2139.1030978560448, -251.0819234251976
 1.7075953835871544E9, -294.64427810907364, -646.7334195375443, -2125.699296414852, -157.01595973968506
 1.7075953835871544E9, -434.66613245010376, -674.0197296142578, -2066.100250720978, -217.57241982221603
 1.7075953836005776E9, -445.67639791965485, -756.596720635891, -2120.672870874405, -273.5811615586281
 1.7075953836005776E9, -298.71328926086426, -676.1739119887352, -2147.001766562462, -185.4990378022194
 1.7075953836165776E9, -375.5457939505577, -645.7760051488876, -2081.4188809394836, -180.7119658589363
 1.7075953836165776E9, -470.09046483039856, -741.5174440145493, -2091.232378423214, -274.5385759472847
 1.707595383617169E9, -331.02602487802505, -709.4440619945526, -2149.3953025341034, -215.41823744773865
 1.707595383617169E9, -323.6060633659363, -629.4999605417252, -2099.131047129631, -158.21272772550583
 1.7075953836304443E9, -473.20206159353256, -713.2737195491791, -2073.998919427395, -260.8954209089279
 1.7075953836304443E9, -387.75282740592957, -736.491018474102, -2133.119257926941, -250.6032162308693
 1.7075953836466107E9, -296.3197532892227, -646.4940659403801, -2130.007661163807, -164.675274848938
 1.7075953836466107E9, -432.2725964784622, -668.9933040738106, -2073.7595658302307, -223.55625975131989
 1.7075953836470256E9, -443.52221554517746, -751.0915879011154, -2120.912224471569, -281.7191838622093
 1.7075953836470256E9, -298.9526428580284, -675.6952047944069, -2147.001766562462, -184.06291621923447
 1.7075953836609333E9, -375.78514754772186, -647.2121267318726, -2082.8550025224686, -183.10550183057785
 1.7075953836609333E9, -476.7923655509949, -746.0651623606682, -2094.583328783512, -278.128879904747
 1.7075953836762493E9, -336.0524504184723, -714.2311339378357, -2154.1823744773865, -222.59884536266327
 1.7075953836762493E9, -325.0421849489212, -624.7128885984421, -2097.216218352318, -157.01595973968506
 1.7075953836769607E9, -472.72335439920425, -705.6144044399261, -2071.126676261425, -247.25226587057114
 1.7075953836769607E9, -391.58248496055603, -737.6877864599228, -2136.230854690075, -246.05549788475037
 1.707595383690494E9, -296.08039969205856, -643.3824691772461, -2114.928384542465, -151.98953419923782
 1.707595383690494E9, -430.8364748954773, -665.6423537135124, -2056.2867532372475, -203.92926478385925
 1.707595383706228E9, -441.1286795735359, -751.8096486926079, -2112.774202167988, -266.1612000465393
 1.707595383706228E9, -295.60169249773026, -670.1900720596313, -2133.8373187184334, -168.98363959789276
 1.7075953837069283E9, -374.34902596473694, -641.706993997097, -2075.674394607544, -174.72812592983246
 1.7075953837069283E9, -477.51042634248734, -745.1077479720116, -2089.0781960487366, -269.2727968096733
 1.7075953837205791E9, -333.65891444683075, -708.0079404115677, -2140.0605122447014, -207.99827593564987
 1.7075953837205791E9, -324.0847705602646, -635.0050932765007, -2092.907853603363, -151.98953419923782
 1.707595383736424E9, -471.76594001054764, -708.486647605896, -2062.7493003606796, -241.02907234430313
 1.707595383736424E9, -385.11993783712387, -736.2516648769379, -2129.0502467751503, -243.90131551027298
 1.7075953837370267E9, -291.7720349431038, -640.5102260112762, -2118.039981305599, -153.6650093793869
 1.7075953837370267E9, -424.85263496637344, -664.4455857276917, -2063.9460683465004, -206.56215435266495
 1.707595383750902E9, -438.7351436018944, -750.6128807067871, -2118.2793349027634, -269.03344321250916
 1.707595383750902E9, -295.8410460948944, -672.5836080312729, -2145.565644979477, -177.36101549863815
 1.707595383766579E9, -377.46062272787094, -644.818590760231, -2084.769831299782, -181.66938024759293
 1.707595383766579E9, -480.3826695084572, -747.0225767493248, -2093.147207200527, -272.8631007671356
 1.7075953837670536E9, -331.50473207235336, -710.4014763832092, -2146.7624129652977, -206.3228007555008
 1.7075953837670536E9, -321.9305881857872, -627.3457781672478, -2094.104621589184, -147.4418158531189
 1.707595383780933E9, -472.72335439920425, -705.375050842762, -2066.100250720978, -243.90131551027298
 1.707595383780933E9, -380.8115730881691, -727.8742889761925, -2122.348346054554, -236.0026468038559
 1.7075953837959087E9, -281.240476667881, -627.8244853615761, -2109.662605404854, -144.8089262843132
 1.7075953837959087E9, -418.15073424577713, -653.4353202581406, -2048.8667917251587, -195.79124248027802
 1.7075953838115227E9, -286.26690220832825, -661.3339889645576, -2128.0928323864937, -162.76044607162476
 1.7075953838115227E9, -369.3226004242897, -632.372203707695, -2071.8447370529175, -171.3771755695343
 1.7075953838120413E9, -467.696928858757, -727.8742889761925, -2081.1795273423195, -263.0496032834053
 1.7075953838120413E9, -327.6750745177269, -701.3060396909714, -2141.9753410220146, -206.56215435266495
 1.7075953838258736E9, -317.8615770339966, -621.8406454324722, -2097.9342791438103, -154.62242376804352
 1.7075953838258736E9, -468.1756360530853, -701.5453932881355, -2069.9299082756042, -244.61937630176544
 1.707595383841602E9, -391.3431313633919, -738.6452008485794, -2140.778573036194, -250.12450903654099
 1.707595383841602E9, -300.1494108438492, -644.818590760231, -2124.7418820261955, -160.60626369714737
 1.7075953838420572E9, -431.7938892841339, -664.6849393248558, -2070.6479690670967, -216.1362982392311
 1.7075953838420572E9, -442.56480115652084, -744.8683943748474, -2115.1677381396294, -272.62374716997147
 1.7075953838558648E9, -296.55910688638687, -667.0784752964973, -2143.6508162021637, -181.43002665042877
 1.7075953838558648E9, -372.912904381752, -638.3560436367989, -2088.12078166008, -180.95131945610046
 1.7075953838713198E9, -478.7071943283081, -744.6290407776833, -2096.9768647551537, -271.905686378479
 1.7075953838713198E9, -337.4885720014572, -713.0343659520149, -2151.549484908581, -207.51956874132156
 1.7075953838721151E9, -329.8292568922043, -631.8934965133667, -2094.583328783512, -158.45208132266998
 1.7075953838721151E9, -480.62202310562134, -702.0241004824638, -2073.0415050387383, -252.51804500818253
 1.7075953838855343E9, -389.90700978040695, -738.6452008485794, -2142.693401813507, -250.84256982803345
 1.7075953838855343E9, -300.38876444101334, -644.1005299687386, -2129.2896003723145, -158.21272772550583
 1.707595383901162E9, -429.1609997153282, -663.7275249361992, -2062.7493003606796, -208.71633672714233
 1.707595383901162E9, -432.9906572699547, -740.3206760287285, -2105.8329478502274, -264.2463712692261
 1.7075953839019485E9, -290.33591336011887, -664.6849393248558, -2136.9489154815674, -168.02622520923615
 1.7075953839019485E9, -368.3651860356331, -631.1754357218742, -2068.7331402897835, -167.06881082057953
 1.7075953839154916E9, -468.8936968445778, -730.267824947834, -2080.461466550827, -260.8954209089279
 1.7075953839154916E9, -332.70150005817413, -703.4602220654488, -2142.9327554106712, -208.9556903243065
 1.7075953839312012E9, -323.84541696310043, -622.7980598211288, -2094.8226823806763, -154.62242376804352
 1.7075953839312012E9, -473.68076878786087, -701.5453932881355, -2067.5363723039627, -246.53420507907867
 1.7075953839319944E9, -395.65149611234665, -736.9697256684303, -2129.2896003723145, -239.83230435848236
 1.7075953839319944E9, -295.3623389005661, -639.7921652197838, -2124.263174831867, -157.49466693401337
 1.707595383945598E9, -434.66613245010376, -667.0784752964973, -2069.9299082756042, -214.46082305908203
 1.707595383945598E9, -438.0170828104019, -745.5864551663399, -2113.013555765152, -269.7515040040016
 1.7075953839614403E9, -297.27716767787933, -670.9081328511238, -2142.693401813507, -173.29200434684753
 1.7075953839614403E9, -373.87031877040863, -639.3134580254555, -2081.4188809394836, -177.121661901474
 1.7075953839619231E9, -475.35624396800995, -733.1400681138039, -2088.360135257244, -272.62374716997147
 1.7075953839619231E9, -331.2653784751892, -704.6569900512695, -2142.2146946191788, -204.88667917251587
 1.7075953839755418E9, -321.21252739429474, -625.1915957927704, -2095.5407431721687, -147.4418158531189
 1.7075953839755418E9, -474.87753677368164, -704.4176364541054, -2063.467361152172, -242.7045475244522
 1.707595383991303E9, -386.0773522257805, -733.6187753081322, -2124.023821234703, -237.67812198400497
 1.707595383991303E9, -297.5165212750435, -642.6644083857536, -2118.039981305599, -147.9205230474472
 1.7075953839919171E9, -434.66613245010376, -664.92429292202, -2061.791885972023, -202.25378960371017
 1.7075953839919171E9, -448.5486410856247, -757.3147814273834, -2115.4070917367935, -268.794089615345
 1.707595384005525E9, -301.5855324268341, -675.934558391571, -2145.804998576641, -179.03649067878723
 1.707595384005525E9, -378.89674431085587, -642.6644083857536, -2083.573063313961, -179.7545514702797
 1.7075953840212736E9, -479.9039623141289, -739.602615237236, -2097.9342791438103, -275.25663673877716
 1.7075953840212736E9, -343.7117655277252, -715.9066091179848, -2155.139788866043, -217.57241982221603
 1.707595384021953E9, -336.5311576128006, -640.2708724141121, -2107.9871302247047, -161.08497089147568
 1.707595384021953E9, -475.35624396800995, -711.1195371747017, -2072.802151441574, -249.88515543937683
 1.7075953840355117E9, -391.8218385577202, -747.261930346489, -2129.5289539694786, -247.25226587057114
 1.7075953840355117E9, -292.7294493317604, -637.8773364424706, -2120.1941636800766, -151.51082700490952
 1.7075953840512357E9, -430.11841410398483, -664.4455857276917, -2062.031239569187, -207.2802151441574
 1.7075953840512357E9, -446.63381230831146, -747.5012839436531, -2102.9607046842575, -260.8954209089279
 1.7075953840519335E9, -294.64427810907364, -663.2488177418709, -2130.7257219552994, -165.1539820432663
 1.7075953840519335E9, -371.4767827987671, -636.6805684566498, -2066.8183115124702, -168.7442860007286
 1.7075953840655243E9, -480.3826695084572, -731.2252393364906, -2075.1956874132156, -262.0921888947487
 1.7075953840655243E9, -334.3769752383232, -702.0241004824638, -2132.6405507326126, -203.45055758953094
 1.707595384081216E9, -319.7764058113098, -623.2767670154572, -2091.232378423214, -142.89409750699997
 1.707595384081216E9, -465.7821000814438, -693.4073709845543, -2053.6538636684418, -237.67812198400497
 1.7075953840819097E9, -385.359291434288, -727.6349353790283, -2122.348346054554, -238.87488996982574
 1.7075953840819097E9, -293.44751012325287, -637.6379828453064, -2109.662605404854, -142.1760367155075
 1.7075953841122468E9, -431.7938892841339, -663.488171339035, -2059.3983500003815, -203.92926478385925
 1.7075953841122468E9, -442.56480115652084, -740.5600296258926, -2102.7213510870934, -261.13477450609207
 1.7075953841126611E9, -300.1494108438492, -667.7965360879898, -2135.2734403014183, -170.18040758371353
 1.7075953841126611E9, -367.8864788413048, -636.6805684566498, -2073.0415050387383, -161.80303168296814
 1.7075953841133766E9, -476.5530119538307, -730.9858857393265, -2081.4188809394836, -266.1612000465393
 1.7075953841133766E9, -341.796936750412, -707.0505260229111, -2137.4276226758957, -206.8015079498291
 1.7075953841255872E9, -329.8292568922043, -631.8934965133667, -2099.370400726795, -156.05854535102844
 1.7075953841255872E9, -483.4942662715912, -715.4279019236565, -2067.2970187067986, -249.64580184221268
 1.7075953841419628E9, -401.39598244428635, -743.1929191946983, -2131.2044291496277, -253.236105799675
 1.7075953841419628E9, -301.1068252325058, -649.1269555091858, -2124.263174831867, -152.70759499073029
 1.7075953841426044E9, -435.86290043592453, -667.0784752964973, -2064.4247755408287, -212.0672870874405
 1.7075953841426044E9, -451.42088425159454, -754.9212454557419, -2115.4070917367935, -268.07602882385254
 1.7075953841555035E9, -306.8513115644455, -678.0887407660484, -2133.597965121269, -169.70170038938522
 1.7075953841555035E9, -378.1786835193634, -641.2282868027687, -2073.2808586359024, -169.70170038938522
 1.7075953841711988E9, -486.36650943756104, -739.602615237236, -2087.6420744657516, -273.82051515579224
 1.7075953841711988E9, -338.92469358444214, -707.5292332172394, -2138.6243906617165, -207.75892233848572
 1.7075953841719456E9, -318.8189914226532, -619.2077558636665, -2099.370400726795, -152.22888779640198
 1.7075953841719456E9, -471.5265864133835, -696.7583213448524, -2066.339604318142, -246.77355867624283
 1.7075953842021508E9, -396.60891050100327, -732.9007145166397, -2125.459942817688, -241.7471331357956
 1.7075953842021508E9, -298.23458206653595, -630.6967285275459, -2113.9709701538086, -148.3992302417755
 1.7075953842027256E9, -428.2035853266716, -647.6908339262009, -2051.020974099636, -194.11576730012894
 1.7075953842027256E9, -443.04350835084915, -741.038736820221, -2096.258803963661, -258.5018849372864
 1.7075953842034352E9, -297.9952284693718, -664.92429292202, -2130.486368358135, -168.50493240356445
 1.7075953842034352E9, -376.5032083392143, -636.6805684566498, -2072.802151441574, -171.61652916669846
 1.7075953842158012E9, -478.7071943283081, -734.3368360996246, -2080.9401737451553, -269.03344321250916
 1.7075953842158012E9, -341.3182295560837, -707.5292332172394, -2141.4966338276863, -211.10987269878387
 1.7075953842312853E9, -334.61632883548737, -633.5689716935158, -2100.0884615182877, -157.49466693401337
 1.7075953842312853E9, -482.53685188293457, -702.9815148711205, -2075.674394607544, -251.32127702236176
 1.7075953842320044E9, -411.9275407195091, -743.1929191946983, -2143.1721090078354, -262.33154249191284
 1.7075953842320044E9, -311.3990299105644, -648.4088947176933, -2129.5289539694786, -170.18040758371353
 1.7075953842457469E9, -447.3518730998039, -678.8068015575409, -2075.913748204708, -227.1465637087822
 1.7075953842457469E9, -473.4414151906967, -772.8727652430534, -2123.784467637539, -289.1391453742981
 1.7075953842616773E9, -314.27127307653427, -687.4235310554504, -2152.2675457000732, -189.56804895401
 1.7075953842616773E9, -385.11993783712387, -645.5366515517235, -2087.1633672714233, -185.4990378022194
 1.7075953842620773E9, -482.2974982857704, -735.5336040854454, -2093.147207200527, -278.128879904747
 1.7075953842620773E9, -341.55758315324783, -708.486647605896, -2139.342451453209, -213.98211586475372
 1.7075953842760198E9, -321.69123458862305, -621.8406454324722, -2096.7375111579895, -153.90436297655106
 1.7075953842760198E9, -468.8936968445778, -689.817067027092, -2063.228007555008, -244.61937630176544
 1.7075953842914064E9, -392.3005457520485, -727.6349353790283, -2124.263174831867, -243.18325471878052
 1.7075953842914064E9, -286.9849629998207, -631.4147893190384, -2117.800627708435, -151.0321198105812
 1.7075953842919667E9, -419.10814863443375, -649.1269555091858, -2056.5261068344116, -202.01443600654602
 1.7075953842919667E9, -443.7615691423416, -744.3896871805191, -2108.705191016197, -265.92184644937515
 1.7075953843055654E9, -297.9952284693718, -672.5836080312729, -2137.4276226758957, -169.22299319505692
 1.7075953843055654E9, -374.1096723675728, -634.7657396793365, -2075.913748204708, -172.81329715251923
 1.707595384321352E9, -475.5955975651741, -727.3955817818642, -2085.24853849411, -269.2727968096733
 1.707595384321352E9, -338.2066327929497, -706.5718188285828, -2143.4114626049995, -206.56215435266495
 1.7075953843219683E9, -324.32412415742874, -621.1225846409798, -2097.216218352318, -145.2876334786415
 1.7075953843219683E9, -472.4840008020401, -692.6893101930618, -2069.451201081276, -242.94390112161636
 1.7075953843355565E9, -399.72050726413727, -737.4484328627586, -2129.0502467751503, -245.3374370932579
 1.7075953843355565E9, -297.9952284693718, -635.2444468736649, -2121.151578068733, -154.38307017087936
 1.7075953843511581E9, -428.6822925209999, -656.3075634241104, -2062.031239569187, -206.8015079498291
 1.7075953843511581E9, -446.15510511398315, -744.3896871805191, -2111.816787779331, -267.1186144351959
 1.7075953843518753E9, -291.2933277487755, -663.7275249361992, -2139.342451453209, -175.20683312416077
 1.7075953843518753E9, -359.5091029405594, -618.9684022665024, -2068.7331402897835, -166.82945722341537
 1.7075953843654923E9, -466.2608072757721, -722.6085098385811, -2076.3924553990364, -258.5018849372864
 1.7075953843654923E9, -327.6750745177269, -697.9550893306732, -2134.3160259127617, -203.2112039923668
 1.7075953843812003E9, -317.6222234368324, -615.3780983090401, -2088.8388424515724, -142.89409750699997
 1.7075953843812003E9, -468.65434324741364, -692.6893101930618, -2057.9622284173965, -235.28458601236343
 1.7075953843819213E9, -391.1037777662277, -730.7465321421623, -2113.252909362316, -233.3697572350502
 1.7075953843819213E9, -292.01138854026794, -635.2444468736649, -2115.4070917367935, -143.37280470132828
 1.7075953843955276E9, -426.0494029521942, -658.701099395752, -2059.3983500003815, -199.14219284057617
 1.7075953843955276E9, -441.6073867678642, -741.038736820221, -2102.7213510870934, -262.570896089077
 1.7075953844121103E9, -296.55910688638687, -665.1636465191841, -2135.2734403014183, -174.72812592983246
 1.7075953844121103E9, -362.86005330085754, -632.6115573048592, -2075.43504101038, -170.41976118087769
 1.7075953844121685E9, -473.920122385025, -730.267824947834, -2078.785991370678, -263.5283104777336
 1.7075953844121685E9, -329.58990329504013, -699.6305645108223, -2137.66697627306, -199.14219284057617
 1.7075953844259813E9, -315.46804106235504, -617.7716342806816, -2091.9504392147064, -140.02185434103012
 1.7075953844259813E9, -464.585332095623, -693.8860781788826, -2056.0473996400833, -232.65169644355774
 1.7075953844414952E9, -393.49731373786926, -730.7465321421623, -2121.6302852630615, -240.55036514997482
 1.7075953844414952E9, -296.798460483551, -638.595397233963, -2115.885798931122, -147.9205230474472
 1.707595384442057E9, -431.7938892841339, -658.9404529929161, -2059.3983500003815, -201.5357288122177
 1.707595384442057E9, -441.8467403650284, -737.2090792655945, -2094.583328783512, -254.91158097982407
 1.707595384456025E9, -295.3623389005661, -672.3442544341087, -2126.896064400673, -162.28173887729645
 1.707595384456025E9, -370.5193684101105, -634.5263860821724, -2070.6479690670967, -163.23915326595306
 1.7075953844713583E9, -475.83495116233826, -725.2413994073868, -2081.4188809394836, -261.3741281032562
 1.7075953844713583E9, -349.9349590539932, -715.4279019236565, -2147.001766562462, -215.6575910449028
 1.707595384472098E9, -329.58990329504013, -632.6115573048592, -2103.918119072914, -162.0423852801323
 1.707595384472098E9, -467.2182216644287, -696.7583213448524, -2066.339604318142, -246.53420507907867
 1.707595384485906E9, -395.65149611234665, -744.150333583355, -2132.1618435382843, -248.4490338563919
 1.707595384485906E9, -293.9262173175812, -646.2547123432159, -2125.9386500120163, -157.97337412834167
 1.7075953845014892E9, -426.0494029521942, -661.5733425617218, -2061.791885972023, -207.99827593564987
 1.7075953845014892E9, -445.915751516819, -744.3896871805191, -2102.003290295601, -268.3153824210167
 1.707595384502143E9, -298.71328926086426, -667.5571824908257, -2135.034086704254, -175.44618672132492
 1.707595384502143E9, -366.45035725831985, -624.2341814041138, -2076.3924553990364, -167.786871612072
 1.7075953845154972E9, -466.97886806726456, -722.1298026442528, -2073.998919427395, -259.459299325943
 1.7075953845154972E9, -330.7866712808609, -693.1680173873901, -2129.7683075666428, -201.0570216178894
 1.707595384531401E9, -316.42545545101166, -619.925816655159, -2087.4027208685875, -143.61215829849243
 1.707595384531401E9, -468.1756360530853, -697.4763821363449, -2056.0473996400833, -232.8910500407219
 1.7075953845319257E9, -389.1889489889145, -734.8155432939529, -2121.8696388602257, -237.19941478967667
 1.7075953845319257E9, -293.2081565260887, -635.2444468736649, -2120.1941636800766, -146.9631086587906
 1.7075953845459523E9, -429.1609997153282, -658.2223922014236, -2056.2867532372475, -199.14219284057617
 1.7075953845459523E9, -447.11251950263977, -740.0813224315643, -2103.67876547575, -260.65606731176376
 1.7075953845614693E9, -295.3623389005661, -662.7701105475426, -2131.2044291496277, -168.50493240356445
 1.7075953845614693E9, -369.08324682712555, -629.7393141388893, -2072.802151441574, -168.2655788064003
 1.7075953845620518E9, -473.68076878786087, -726.6775209903717, -2079.5040521621704, -264.2463712692261
 1.7075953845620518E9, -338.92469358444214, -709.9227691888809, -2135.034086704254, -208.23762953281403
 1.707595384575467E9, -322.8880025744438, -623.9948278069496, -2094.104621589184, -151.51082700490952
 1.707595384575467E9, -469.8511112332344, -695.8009069561958, -2063.228007555008, -244.3800227046013
 1.7075953845913422E9, -397.5663248896599, -729.7891177535057, -2123.3057604432106, -238.6355363726616
 1.7075953845913422E9, -290.575266957283, -635.2444468736649, -2115.4070917367935, -147.68116945028305
 1.7075953845920312E9, -428.6822925209999, -658.2223922014236, -2062.5099467635155, -205.12603276968002
 1.7075953845920312E9, -448.78799468278885, -749.8948199152946, -2110.3806661963463, -272.8631007671356
 1.7075953846055324E9, -305.6545435786247, -669.9507184624672, -2138.145683467388, -176.88230830430984
 1.7075953846055324E9, -373.15225797891617, -634.0476788878441, -2077.110516190529, -172.09523636102676
 1.7075953846212265E9, -476.0743047595024, -726.4381673932076, -2085.9665992856026, -265.682492852211
 1.7075953846212265E9, -339.1640471816063, -711.59824436903, -2146.0443521738052, -214.93953025341034
 1.7075953846218936E9, -325.0421849489212, -632.1328501105309, -2103.918119072914, -156.2978989481926
 1.7075953846218936E9, -476.0743047595024, -705.375050842762, -2071.366029858589, -247.73097306489944
 1.7075953846355274E9, -396.3695569038391, -741.5174440145493, -2135.9915010929108, -252.51804500818253
 1.7075953846355274E9, -293.2081565260887, -644.1005299687386, -2129.7683075666428, -156.05854535102844
 1.7075953846513045E9, -429.1609997153282, -662.0520497560501, -2069.69055467844, -209.4343975186348
 1.7075953846513045E9, -440.88932597637177, -737.6877864599228, -2112.5348485708237, -272.3843935728073
 1.7075953846519356E9, -292.96880292892456, -669.9507184624672, -2142.2146946191788, -175.92489391565323
 1.7075953846519356E9, -369.56195402145386, -636.9199220538139, -2078.3072841763496, -170.18040758371353
 1.7075953846657355E9, -477.98913353681564, -732.1826537251472, -2088.5994888544083, -271.66633278131485
 1.7075953846657355E9, -343.2330583333969, -719.4969130754471, -2141.9753410220146, -214.22146946191788
 1.707595384681363E9, -315.94674825668335, -626.8670709729195, -2097.216218352318, -149.83535182476044
 1.707595384681363E9, -465.7821000814438, -698.1944429278374, -2063.228007555008, -245.57679069042206
 1.707595384681942E9, -395.65149611234665, -736.0123112797737, -2122.587699651718, -244.3800227046013
 1.707595384681942E9, -288.89979177713394, -637.1592756509781, -2120.1941636800766, -152.46824139356613
 1.7075953846960678E9, -423.17715978622437, -652.9566130638123, -2057.4835212230682, -199.14219284057617
 1.7075953846960678E9, -445.4370443224907, -737.4484328627586, -2102.9607046842575, -261.6134817004204
 1.7075953847115812E9, -294.8836317062378, -670.6687792539597, -2135.2734403014183, -175.44618672132492
 1.7075953847115812E9, -362.86005330085754, -624.2341814041138, -2073.2808586359024, -171.13782197237015
 1.7075953847121084E9, -478.7071943283081, -730.9858857393265, -2079.025344967842, -263.5283104777336
 1.7075953847121084E9, -344.4298263192177, -708.0079404115677, -2137.66697627306, -213.0247014760971
 1.7075953847258663E9, -328.39313530921936, -622.7980598211288, -2102.242643892765, -156.2978989481926
 1.7075953847258663E9, -472.4840008020401, -704.1782828569412, -2074.238273024559, -251.0819234251976
 1.7075953847414782E9, -400.91727524995804, -739.3632616400719, -2126.1780036091805, -251.79998421669006
 1.7075953847414782E9, -292.96880292892456, -635.0050932765007, -2121.8696388602257, -153.6650093793869
 1.7075953847422235E9, -420.06556302309036, -658.701099395752, -2062.2705931663513, -205.84409356117249
 1.7075953847422235E9, -447.5912266969681, -744.150333583355, -2108.226483821869, -268.3153824210167
 1.7075953847558076E9, -302.5429468154907, -679.7642159461975, -2144.6082305908203, -175.20683312416077
 1.7075953847558076E9, -368.8438932299614, -637.6379828453064, -2076.3924553990364, -171.61652916669846
 1.7075953847712045E9, -483.4942662715912, -736.7303720712662, -2087.881428062916, -276.93211191892624
 1.7075953847712045E9, -348.73819106817245, -708.486647605896, -2144.8475841879845, -216.85435903072357
 1.7075953847718973E9, -323.6060633659363, -631.6541429162025, -2109.901959002018, -161.08497089147568
 1.7075953847718973E9, -477.7497799396515, -705.8537580370903, -2071.6053834557533, -248.92774105072021
 1.7075953847857208E9, -399.9598608613014, -738.8845544457436, -2126.4173572063446, -250.12450903654099
 1.7075953847857208E9, -291.0539741516113, -637.6379828453064, -2120.912224471569, -148.63858383893967
 1.7075953848005333E9, -424.6132813692093, -648.8876019120216, -2055.329338848591, -199.38154643774033
 1.7075953848005333E9, -444.71898353099823, -737.4484328627586, -2103.439411878586, -269.03344321250916
 1.7075953848164492E9, -369.801307618618, -634.5263860821724, -2079.2646985650063, -172.09523636102676
 1.7075953848164492E9, -482.2974982857704, -734.8155432939529, -2094.343975186348, -277.88952630758286
 1.7075953848169842E9, -349.9349590539932, -720.933034658432, -2148.677241742611, -218.05112701654434
 1.7075953848169842E9, -323.12735617160797, -634.0476788878441, -2102.481997489929, -158.9307885169983
 1.707595384830679E9, -473.68076878786087, -706.3324652314186, -2073.0415050387383, -250.12450903654099
 1.707595384830679E9, -407.3798223733902, -745.825808763504, -2131.2044291496277, -253.236105799675
 1.707595384846486E9, -303.2610076069832, -644.818590760231, -2128.571539580822, -155.8191917538643
 1.707595384846486E9, -435.86290043592453, -662.7701105475426, -2070.4086154699326, -208.47698312997818
 1.7075953848469834E9, -454.7718346118927, -750.1341735124588, -2108.465837419033, -268.794089615345
 1.7075953848469834E9, -311.15967631340027, -680.7216303348541, -2139.581805050373, -177.6003690958023
 1.7075953848605676E9, -376.7425619363785, -634.2870324850082, -2080.222112953663, -168.02622520923615
 1.7075953848605676E9, -490.43552058935165, -730.9858857393265, -2084.0517705082893, -270.2302111983299
 1.7075953848764749E9, -341.3182295560837, -711.1195371747017, -2133.8373187184334, -213.74276226758957
 1.7075953848764749E9, -329.1111961007118, -625.6703029870987, -2099.131047129631, -149.59599822759628
 1.7075953848769891E9, -465.7821000814438, -696.2796141505241, -2066.339604318142, -247.4916194677353
 1.7075953848769891E9, -395.65149611234665, -733.379421710968, -2124.9812356233597, -250.36386263370514
 1.7075953848909163E9, -293.44751012325287, -645.5366515517235, -2124.9812356233597, -157.49466693401337
 1.7075953848909163E9, -428.6822925209999, -665.4030001163483, -2071.126676261425, -215.6575910449028
 1.7075953849067469E9, -456.4473097920418, -752.5277094841003, -2117.561274111271, -281.7191838622093
 1.7075953849067469E9, -315.7073946595192, -691.0138350129128, -2157.0546176433563, -194.3551208972931
 1.7075953849072304E9, -378.89674431085587, -645.5366515517235, -2093.3865607976913, -189.32869535684586
 1.7075953849072304E9, -488.99939900636673, -742.2355048060417, -2097.455571949482, -280.52241587638855
 1.7075953849207723E9, -352.0891414284706, -718.3001450896263, -2148.677241742611, -225.47108852863312
 1.7075953849207723E9, -330.54731768369675, -634.0476788878441, -2104.6361798644066, -162.0423852801323
 1.7075953849366E9, -475.5955975651741, -700.5879788994789, -2069.9299082756042, -250.84256982803345
 1.7075953849366E9, -404.2682256102562, -736.491018474102, -2128.810893177986, -252.51804500818253
 1.7075953849370377E9, -297.5165212750435, -638.595397233963, -2122.587699651718, -158.9307885169983
 1.7075953849370377E9, -424.85263496637344, -649.36630910635, -2057.9622284173965, -201.77508240938187
 1.707595384950988E9, -449.26670187711716, -739.602615237236, -2097.455571949482, -266.40055364370346
 1.707595384950988E9, -305.8938971757889, -679.046155154705, -2133.597965121269, -171.61652916669846
 1.7075953849663355E9, -368.12583243846893, -637.3986292481422, -2079.2646985650063, -166.82945722341537
 1.7075953849663355E9, -485.8878022432327, -733.8581289052963, -2084.2911241054535, -264.0070176720619
 1.707595384966934E9, -355.44009178876877, -718.7788522839546, -2147.48047375679, -219.48724859952927
 1.707595384966934E9, -332.2227928638458, -635.483800470829, -2105.8329478502274, -158.45208132266998
 1.7075953849805088E9, -479.6646087169647, -710.6408299803734, -2080.222112953663, -254.6722273826599
 1.7075953849805088E9, -414.5604302883148, -754.4425382614136, -2143.4114626049995, -262.81024968624115
 1.70759538499655E9, -307.56937235593796, -656.0682098269463, -2139.342451453209, -165.1539820432663
 1.70759538499655E9, -442.56480115652084, -669.9507184624672, -2078.546637773514, -219.2478950023651
 1.7075953849969797E9, -460.5163209438324, -754.4425382614136, -2120.672870874405, -275.73534393310547
 1.7075953849969797E9, -304.93648278713226, -674.7377904057503, -2146.2837057709694, -181.43002665042877
 1.70759538501052E9, -366.92906445264816, -632.1328501105309, -2079.025344967842, -171.8558827638626
 1.70759538501052E9, -476.7923655509949, -729.3104105591774, -2081.658234536648, -269.51215040683746
 1.707595385026592E9, -342.2756439447403, -709.9227691888809, -2142.9327554106712, -213.0247014760971
 1.707595385026592E9, -317.1435162425041, -626.149010181427, -2097.9342791438103, -152.22888779640198
 1.7075953850269976E9, -465.0640392899513, -694.6041389703751, -2062.5099467635155, -240.07165795564651
 1.7075953850269976E9, -399.0024464726448, -728.8317033648491, -2123.3057604432106, -242.46519392728806
 1.7075953850405464E9, -286.74560940265656, -634.5263860821724, -2117.561274111271, -151.27147340774536
 1.7075953850405464E9, -420.06556302309036, -655.1107954382896, -2064.664129137993, -197.70607125759125
 1.7075953850562525E9, -448.78799468278885, -744.150333583355, -2107.029715836048, -268.3153824210167
 1.7075953850562525E9, -302.5429468154907, -674.9771440029144, -2139.1030978560448, -174.24941873550415
 1.70759538505692E9, -367.1684180498123, -629.4999605417252, -2079.025344967842, -164.43592125177383
 1.70759538505692E9, -486.84521663188934, -728.8317033648491, -2076.1531018018723, -257.54447054862976
 1.707595385070562E9, -348.9775446653366, -710.1621227860451, -2146.2837057709694, -211.82793349027634
 1.707595385070562E9, -330.3079640865326, -631.1754357218742, -2104.3968262672424, -145.52698707580566
 1.7075953850862815E9, -483.25491267442703, -704.8963436484337, -2079.9827593564987, -247.9703266620636
 1.7075953850862815E9, -413.1243087053299, -746.0651623606682, -2131.683136343956, -256.347702562809
 1.7075953850869207E9, -309.4842011332512, -647.930187523365, -2134.3160259127617, -161.80303168296814
 1.7075953850869207E9, -437.0596684217453, -667.0784752964973, -2080.222112953663, -207.75892233848572
 1.7075953851009028E9, -464.1066249012947, -752.7670630812645, -2115.4070917367935, -279.8043550848961
 1.7075953851009028E9, -317.6222234368324, -686.9448238611221, -2149.6346561312675, -189.80740255117416
 1.7075953851163971E9, -379.8541586995125, -645.0579443573952, -2093.3865607976913, -178.55778348445892
 1.7075953851163971E9, -489.7174597978592, -737.927140057087, -2094.343975186348, -278.128879904747
 1.7075953851169171E9, -351.84978783130646, -713.0343659520149, -2155.3791424632072, -226.6678565144539
 1.7075953851169171E9, -325.28153854608536, -629.9786677360535, -2107.5084230303764, -162.0423852801323
 1.7075953851309626E9, -472.9627079963684, -698.6731501221657, -2069.9299082756042, -248.92774105072021
 1.7075953851309626E9, -403.7895184159279, -740.0813224315643, -2131.443782746792, -254.1935201883316
 1.7075953851465707E9, -296.3197532892227, -641.9463475942612, -2129.2896003723145, -158.21272772550583
 1.7075953851465707E9, -436.82031482458115, -661.3339889645576, -2075.674394607544, -211.58857989311218
 1.7075953851471446E9, -459.0801993608475, -747.0225767493248, -2102.9607046842575, -268.3153824210167
 1.7075953851471446E9, -314.0319194793701, -676.4132655858994, -2142.454048216343, -182.3874410390854
 1.7075953851605852E9, -371.9554899930954, -634.0476788878441, -2081.4188809394836, -171.61652916669846
 1.7075953851605852E9, -488.0419846177101, -734.0974825024605, -2085.9665992856026, -269.03344321250916
 1.7075953851762407E9, -351.84978783130646, -716.3853163123131, -2142.2146946191788, -212.5459942817688
 1.7075953851762407E9, -324.80283135175705, -632.372203707695, -2104.8755334615707, -158.69143491983414
 1.7075953851769352E9, -475.83495116233826, -699.3912109136581, -2075.1956874132156, -245.57679069042206
 1.7075953851769352E9, -409.0552975535393, -744.8683943748474, -2131.92248994112, -255.39028817415237
 1.7075953851905372E9, -307.56937235593796, -643.3824691772461, -2130.486368358135, -160.84561729431152
 1.7075953851905372E9, -435.14483964443207, -664.92429292202, -2068.7331402897835, -210.63116550445557
 1.707595385221388E9, -465.7821000814438, -755.6393062472343, -2110.141312599182, -279.8043550848961
 1.707595385221388E9, -316.6648090481758, -683.1151663064957, -2149.1559489369392, -189.80740255117416
 1.707595385237629E9, -374.34902596473694, -641.706993997097, -2091.232378423214, -179.27584427595139
 1.707595385237629E9, -489.95681339502335, -738.6452008485794, -2094.343975186348, -278.6075870990753
 1.7075953852383249E9, -346.58400869369507, -712.3163051605225, -2140.778573036194, -218.52983421087265
 1.7075953852383249E9, -321.69123458862305, -626.149010181427, -2104.3968262672424, -152.46824139356613
 1.7075953852390485E9, -470.3298184275627, -696.7583213448524, -2068.254433095455, -239.5929507613182
 1.7075953852390485E9, -403.55016481876373, -736.0123112797737, -2126.6567108035088, -247.9703266620636
 1.7075953852398136E9, -297.9952284693718, -646.2547123432159, -2126.1780036091805, -154.62242376804352
 1.7075953852398136E9, -430.8364748954773, -659.1798065900803, -2064.903482735157, -200.0996072292328
 1.707595385250906E9, -455.48989540338516, -746.7832231521606, -2104.3968262672424, -266.6399072408676
 1.707595385250906E9, -307.3300187587738, -680.2429231405258, -2139.8211586475372, -181.19067305326462
 1.707595385266188E9, -367.40777164697647, -635.2444468736649, -2084.0517705082893, -173.05265074968338
 1.707595385266188E9, -484.4516806602478, -736.0123112797737, -2084.2911241054535, -269.51215040683746
 1.7075953852669277E9, -354.243323802948, -721.1723882555962, -2149.1559489369392, -224.75302773714066
 1.7075953852669277E9, -332.2227928638458, -635.9625076651573, -2111.0987269878387, -158.9307885169983
 1.7075953852807865E9, -480.3826695084572, -705.1356972455978, -2078.546637773514, -249.64580184221268
 1.7075953852807865E9, -411.4488335251808, -744.150333583355, -2138.145683467388, -260.17736011743546
 1.707595385296322E9, -305.8938971757889, -653.4353202581406, -2134.555379509926, -166.59010362625122
 1.707595385296322E9, -433.9480716586113, -662.2914033532143, -2072.0840906500816, -209.67375111579895
 1.7075953852968795E9, -466.2608072757721, -751.5702950954437, -2107.9871302247047, -275.017283141613
 1.7075953852968795E9, -309.4842011332512, -676.4132655858994, -2142.454048216343, -178.55778348445892
 1.7075953853109553E9, -374.34902596473694, -637.8773364424706, -2088.12078166008, -175.68554031848907
 1.7075953853109553E9, -483.4942662715912, -729.3104105591774, -2078.546637773514, -267.59732162952423
 1.7075953853263888E9, -354.7220309972763, -721.4117418527603, -2145.326291382313, -220.20530939102173
 1.7075953853263888E9, -321.21252739429474, -638.3560436367989, -2102.7213510870934, -162.28173887729645
 1.7075953853271332E9, -467.9362824559212, -707.0505260229111, -2074.477626621723, -246.77355867624283
 1.7075953853271332E9, -409.5340047478676, -747.7406375408173, -2123.5451140403748, -257.06576335430145
 1.7075953853406675E9, -297.9952284693718, -649.6056627035141, -2122.348346054554, -157.01595973968506
 1.7075953853406675E9, -429.8790605068207, -667.0784752964973, -2068.015079498291, -207.99827593564987
 1.7075953853561983E9, -451.42088425159454, -754.9212454557419, -2108.9445446133614, -276.2140511274338
 1.7075953853561983E9, -304.6971291899681, -686.4661166667938, -2147.9591809511185, -183.58420902490616
 1.707595385356882E9, -365.2535892724991, -639.3134580254555, -2085.7272456884384, -176.40360110998154
 1.707595385356882E9, -485.4090950489044, -745.3471015691757, -2091.7110856175423, -280.04370868206024
 1.707595385371028E9, -351.84978783130646, -727.6349353790283, -2152.9856064915657, -233.3697572350502
 1.707595385371028E9, -329.58990329504013, -642.6644083857536, -2112.774202167988, -166.35075002908707
 1.707595385386305E9, -483.0155590772629, -713.5130731463432, -2080.700820147991, -258.5018849372864
 1.707595385386305E9, -419.3475022315979, -759.4689638018608, -2141.9753410220146, -272.62374716997147
 1.707595385387045E9, -312.35644429922104, -663.7275249361992, -2138.6243906617165, -174.4887723326683
 1.707595385387045E9, -431.55453568696976, -668.2752432823181, -2075.1956874132156, -219.48724859952927
 1.7075953854005027E9, -457.4047241806984, -754.9212454557419, -2118.2793349027634, -285.0701342225075
 1.7075953854005027E9, -306.13325077295303, -680.9609839320183, -2149.1559489369392, -188.37128096818924
 1.707595385416262E9, -375.5457939505577, -643.1431155800819, -2093.6259143948555, -181.66938024759293
 1.707595385416262E9, -484.69103425741196, -735.2942504882812, -2092.907853603363, -281.00112307071686
 1.7075953854169297E9, -349.69560545682907, -711.59824436903, -2151.549484908581, -230.2581604719162
 1.7075953854169297E9, -324.0847705602646, -636.6805684566498, -2110.8593733906746, -161.08497089147568
 1.7075953854305272E9, -474.87753677368164, -701.3060396909714, -2076.8711625933647, -248.20968025922775
 1.7075953854305272E9, -409.5340047478676, -746.3045159578323, -2130.7257219552994, -258.02317774295807
 1.7075953854467423E9, -300.38876444101334, -648.8876019120216, -2130.486368358135, -157.2553133368492
 1.7075953854467423E9, -426.28875654935837, -663.488171339035, -2064.664129137993, -204.1686183810234
 1.707595385447094E9, -457.8834313750267, -748.6980519294739, -2105.114887058735, -271.66633278131485
 1.707595385447094E9, -309.72355473041534, -682.3971055150032, -2149.3953025341034, -192.2009385228157
 1.7075953854604928E9, -372.4341971874237, -639.5528116226196, -2086.924013674259, -184.06291621923447
 1.7075953854604928E9, -485.8878022432327, -741.2780904173851, -2087.6420744657516, -273.82051515579224
 1.7075953854762316E9, -364.29617488384247, -727.6349353790283, -2146.2837057709694, -229.30074608325958
 1.7075953854762316E9, -326.238952934742, -635.2444468736649, -2109.901959002018, -162.9997996687889
 1.707595385476963E9, -474.39882957935333, -704.8963436484337, -2080.9401737451553, -255.62964177131653
 1.707595385476963E9, -405.7043471932411, -736.2516648769379, -2130.9650755524635, -256.58705615997314
 1.707595385490759E9, -299.19199645519257, -651.2811378836632, -2136.9489154815674, -167.54751801490784
 1.707595385490759E9, -425.0919885635376, -667.0784752964973, -2077.8285769820213, -212.30664068460464
 1.707595385506604E9, -463.38856410980225, -760.6657317876816, -2119.476102888584, -284.8307806253433
 1.707595385506604E9, -315.46804106235504, -690.7744814157486, -2155.139788866043, -199.62090003490448
 1.707595385507089E9, -370.5193684101105, -644.5792371630669, -2092.668500006199, -181.43002665042877
 1.707595385507089E9, -481.3400838971138, -737.2090792655945, -2091.232378423214, -278.6075870990753
 1.7075953855206392E9, -348.9775446653366, -713.2737195491791, -2145.565644979477, -223.79561334848404
 1.7075953855206392E9, -317.1435162425041, -621.6012918353081, -2098.4129863381386, -151.27147340774536
 1.7075953855362437E9, -460.75567454099655, -681.9183983206749, -2063.7067147493362, -240.31101155281067
 1.7075953855362437E9, -399.9598608613014, -733.1400681138039, -2124.023821234703, -252.03933781385422
 1.70759538553696E9, -285.30948781967163, -637.3986292481422, -2118.997395694256, -145.76634067296982
 1.70759538553696E9, -412.6456015110016, -647.6908339262009, -2057.9622284173965, -193.87641370296478
 1.707595385550517E9, -444.00092273950577, -734.5761896967888, -2093.8652679920197, -258.2625313401222
 1.707595385550517E9, -296.55910688638687, -665.1636465191841, -2128.810893177986, -165.39333564043045
 1.7075953855662243E9, -347.30206948518753, -617.0535734891891, -2068.254433095455, -152.22888779640198
 1.7075953855662243E9, -469.13305044174194, -717.5820842981339, -2069.9299082756042, -252.51804500818253
 1.7075953855669506E9, -341.55758315324783, -706.8111724257469, -2136.7095618844032, -213.0247014760971
 1.7075953855669506E9, -310.9203227162361, -625.9096565842628, -2096.019450366497, -146.72375506162643
 1.7075953855805168E9, -463.38856410980225, -694.3647853732109, -2069.9299082756042, -241.7471331357956
 1.7075953855805168E9, -412.88495510816574, -744.8683943748474, -2132.1618435382843, -260.8954209089279
 1.7075953855965075E9, -304.6971291899681, -654.6320882439613, -2139.1030978560448, -166.1113964319229
 1.7075953855965075E9, -430.357767701149, -665.8817073106766, -2077.110516190529, -213.0247014760971
 1.707595385597014E9, -460.0376137495041, -748.937405526638, -2113.252909362316, -277.1714655160904
 1.707595385597014E9, -318.10093063116074, -682.8758127093315, -2149.3953025341034, -191.00417053699493
 1.707595385610785E9, -364.5355284810066, -636.9199220538139, -2088.5994888544083, -172.33458995819092
 1.707595385610785E9, -487.0845702290535, -730.267824947834, -2083.333709716797, -271.4269791841507
 1.707595385626622E9, -351.84978783130646, -712.0769515633583, -2141.017926633358, -217.8117734193802
 1.707595385626622E9, -310.20226192474365, -622.0799990296364, -2097.455571949482, -145.76634067296982
 1.7075953856271293E9, -458.12278497219086, -686.9448238611221, -2061.791885972023, -233.60911083221436
 1.7075953856271293E9, -399.4811536669731, -732.1826537251472, -2122.10899245739, -253.236105799675
 1.707595385640885E9, -281.9585374593735, -631.6541429162025, -2119.7154564857483, -150.0747054219246
 1.707595385640885E9, -417.911380648613, -651.5204914808273, -2062.988653957844, -200.5783144235611
 1.7075953856561975E9, -450.7028234601021, -739.602615237236, -2099.6097543239594, -267.1186144351959
 1.7075953856561975E9, -302.5429468154907, -672.1049008369446, -2136.9489154815674, -180.233258664608
 1.7075953856570847E9, -363.0994068980217, -631.1754357218742, -2082.136941730976, -167.54751801490784
 1.7075953856570847E9, -483.9729734659195, -724.7626922130585, -2076.8711625933647, -261.6134817004204
 1.7075953856706357E9, -360.70587092638016, -714.4704875349998, -2137.1882690787315, -216.1362982392311
 1.7075953856706357E9, -327.1963673233986, -637.3986292481422, -2104.6361798644066, -149.11729103326797
 1.7075953856862216E9, -474.6381831765175, -696.5189677476883, -2074.7169802188873, -243.18325471878052
 1.7075953856862216E9, -415.2784910798073, -747.5012839436531, -2133.597965121269, -258.5018849372864
 1.707595385687086E9, -308.2874331474304, -657.264977812767, -2134.0766723155975, -162.9997996687889
 1.707595385687086E9, -428.44293892383575, -667.7965360879898, -2071.8447370529175, -207.51956874132156
 1.7075953857005541E9, -460.27696734666824, -757.5541350245476, -2114.449677348137, -278.36823350191116
 1.7075953857005541E9, -315.46804106235504, -681.6790447235107, -2145.804998576641, -186.93515938520432
 1.7075953857163322E9, -364.0568212866783, -635.9625076651573, -2083.812416911125, -171.8558827638626
 1.7075953857163322E9, -485.4090950489044, -735.0548968911171, -2080.700820147991, -269.51215040683746
 1.707595385716961E9, -351.84978783130646, -714.709841132164, -2146.7624129652977, -220.44466298818588
 1.707595385716961E9, -319.05834501981735, -625.9096565842628, -2104.6361798644066, -158.21272772550583
 1.7075953857308064E9, -467.9362824559212, -698.4337965250015, -2067.775725901127, -246.05549788475037
 1.7075953857308064E9, -410.4914191365242, -745.1077479720116, -2126.4173572063446, -252.75739860534668
 1.7075953857465863E9, -297.75587487220764, -645.7760051488876, -2122.348346054554, -151.98953419923782
 1.7075953857465863E9, -427.48552453517914, -658.2223922014236, -2069.211847484112, -201.5357288122177
 1.7075953857470956E9, -450.4634698629379, -736.2516648769379, -2098.4129863381386, -266.6399072408676
 1.7075953857470956E9, -298.4739356637001, -671.3868400454521, -2139.342451453209, -180.95131945610046
 1.707595385793445E9, -365.01423567533493, -632.1328501105309, -2083.0943561196327, -169.70170038938522
 1.707595385793445E9, -482.53685188293457, -721.4117418527603, -2071.366029858589, -264.2463712692261
 1.707595385794015E9, -353.52526301145554, -711.59824436903, -2139.1030978560448, -207.75892233848572
 1.707595385794015E9, -330.06861048936844, -636.9199220538139, -2110.8593733906746, -160.60626369714737
 1.7075953857947345E9, -483.4942662715912, -702.0241004824638, -2075.674394607544, -252.03933781385422
 1.7075953857947345E9, -426.0494029521942, -757.3147814273834, -2143.890169799328, -272.14503997564316
 1.7075953857954924E9, -317.6222234368324, -666.599768102169, -2148.1985345482826, -177.36101549863815
 1.7075953857954924E9, -445.67639791965485, -680.2429231405258, -2083.812416911125, -215.1788838505745
 1.7075953858059275E9, -476.0743047595024, -770.4792292714119, -2127.374771595001, -293.44751012325287
 1.7075953858059275E9, -321.21252739429474, -693.6467245817184, -2155.8578496575356, -198.4241320490837
 1.7075953858215563E9, -501.6851396560669, -742.2355048060417, -2094.583328783512, -281.47983026504517
 1.7075953858215563E9, -361.4239317178726, -730.267824947834, -2150.113363325596, -225.94979572296143
 1.707595385822103E9, -323.3667097687721, -633.8083252906799, -2108.9445446133614, -156.53725254535675
 1.707595385822103E9, -468.8936968445778, -695.3221997618675, -2068.015079498291, -242.7045475244522
 1.707595385835686E9, -409.5340047478676, -739.8419688344002, -2122.8270532488823, -253.47545939683914
 1.707595385835686E9, -290.575266957283, -643.3824691772461, -2124.263174831867, -153.1863021850586
 1.7075953858514812E9, -422.9378061890602, -657.5043314099312, -2069.211847484112, -204.88667917251587
 1.7075953858514812E9, -451.89959144592285, -743.6716263890266, -2102.9607046842575, -271.905686378479
 1.7075953858521495E9, -303.7397148013115, -675.934558391571, -2140.5392194390297, -180.47261226177216
 1.7075953858521495E9, -361.18457812070847, -637.1592756509781, -2083.812416911125, -168.02622520923615
 1.7075953858656487E9, -483.4942662715912, -741.038736820221, -2080.9401737451553, -270.70891839265823
 1.7075953858656487E9, -362.6206997036934, -732.4220073223114, -2154.1823744773865, -232.65169644355774
 1.7075953858816109E9, -327.6750745177269, -640.5102260112762, -2112.774202167988, -163.71786046028137
 1.7075953858816109E9, -480.62202310562134, -717.5820842981339, -2089.0781960487366, -259.69865292310715
 1.7075953858820632E9, -428.92164611816406, -762.3412069678307, -2147.9591809511185, -269.2727968096733
 1.7075953858820632E9, -309.24484753608704, -662.0520497560501, -2146.5230593681335, -171.3771755695343
 1.7075953858959377E9, -435.86290043592453, -673.7803760170937, -2079.9827593564987, -214.70017665624619
 1.7075953858959377E9, -469.3724040389061, -765.931510925293, -2111.816787779331, -281.47983026504517
 1.7075953859117515E9, -323.6060633659363, -696.9976749420166, -2153.9430208802223, -196.26994967460632
 1.7075953859117515E9, -372.4341971874237, -645.2972979545593, -2094.583328783512, -183.344855427742
 1.7075953859121428E9, -491.39293497800827, -741.9961512088776, -2089.3175496459007, -276.2140511274338
 1.7075953859121428E9, -362.6206997036934, -730.5071785449982, -2154.661081671715, -227.86462450027466
 1.707595385925727E9, -325.0421849489212, -640.0315188169479, -2115.4070917367935, -158.9307885169983
 1.707595385925727E9, -469.13305044174194, -698.1944429278374, -2072.802151441574, -243.42260831594467
 1.7075953859412293E9, -416.95396625995636, -751.5702950954437, -2132.6405507326126, -253.7148129940033
 1.7075953859412293E9, -295.12298530340195, -651.9991986751556, -2124.023821234703, -152.46824139356613
 1.7075953859419432E9, -418.8687950372696, -656.5469170212746, -2058.440935611725, -196.26994967460632
 1.7075953859419432E9, -456.4473097920418, -748.4586983323097, -2097.9342791438103, -267.1186144351959
 1.7075953859556081E9, -302.5429468154907, -676.4132655858994, -2133.597965121269, -176.16424751281738
 1.7075953859556081E9, -353.7646166086197, -629.260606944561, -2072.56279784441, -164.43592125177383
 1.707595385971252E9, -474.87753677368164, -726.6775209903717, -2074.9563338160515, -261.6134817004204
 1.707595385971252E9, -343.7117655277252, -710.4014763832092, -2133.358611524105, -219.72660219669342
 1.7075953859719677E9, -314.0319194793701, -632.1328501105309, -2103.918119072914, -154.62242376804352
 1.7075953859719677E9, -464.1066249012947, -696.7583213448524, -2067.2970187067986, -239.35359716415405
 1.7075953859858544E9, -405.7043471932411, -741.5174440145493, -2130.7257219552994, -256.347702562809
 1.7075953859858544E9, -289.1391453742981, -646.7334195375443, -2128.810893177986, -162.5210924744606
 1.7075953860014296E9, -421.9803918004036, -660.8552817702293, -2068.015079498291, -209.9131047129631
 1.7075953860014296E9, -459.5589065551758, -752.5277094841003, -2108.9445446133614, -281.9585374593735
 1.707595386001984E9, -313.79256588220596, -684.3119342923164, -2153.464313685894, -195.55188888311386
 1.707595386001984E9, -369.56195402145386, -645.2972979545593, -2092.668500006199, -184.30226981639862
 1.7075953860158162E9, -492.3503493666649, -734.8155432939529, -2088.360135257244, -280.2830622792244
 1.7075953860158162E9, -361.6632853150368, -727.3955817818642, -2154.900435268879, -235.5239396095276
 1.707595386031358E9, -325.9995993375778, -638.3560436367989, -2117.561274111271, -163.47850686311722
 1.707595386031358E9, -470.3298184275627, -702.0241004824638, -2084.2911241054535, -253.7148129940033
 1.7075953860319576E9, -417.911380648613, -753.0064166784286, -2142.454048216343, -269.7515040040016
 1.7075953860319576E9, -305.41518998146057, -652.2385522723198, -2143.1721090078354, -169.46234679222107
 1.7075953860459995E9, -424.37392777204514, -665.8817073106766, -2080.222112953663, -210.3918119072914
 1.7075953860459995E9, -460.9950281381607, -757.0754278302193, -2115.885798931122, -281.00112307071686
 1.707595386061493E9, -307.56937235593796, -686.705470263958, -2156.575910449028, -195.79124248027802
 1.707595386061493E9, -363.33876049518585, -640.0315188169479, -2092.4291464090347, -175.20683312416077
 1.707595386062081E9, -484.21232706308365, -731.7039465308189, -2088.360135257244, -270.9482719898224
 1.707595386062081E9, -350.41366624832153, -714.2311339378357, -2145.804998576641, -223.31690615415573
 1.7075953860756552E9, -311.3990299105644, -627.5851317644119, -2103.918119072914, -152.94694858789444
 1.7075953860756552E9, -460.9950281381607, -689.5777134299278, -2068.9724938869476, -240.31101155281067
 1.70759538609133E9, -407.61917597055435, -740.3206760287285, -2122.8270532488823, -252.03933781385422
 1.70759538609133E9, -295.8410460948944, -648.8876019120216, -2130.007661163807, -156.2978989481926
 1.7075953860919573E9, -424.85263496637344, -660.6159281730652, -2076.8711625933647, -203.2112039923668
 1.7075953860919573E9, -463.38856410980225, -761.8624997735023, -2114.449677348137, -282.9159518480301
 1.7075953861055996E9, -317.8615770339966, -695.3221997618675, -2154.1823744773865, -201.77508240938187
 1.7075953861055996E9, -368.60453963279724, -646.4940659403801, -2098.1736327409744, -181.90873384475708
 1.7075953861212134E9, -483.0155590772629, -731.2252393364906, -2085.24853849411, -272.62374716997147
 1.7075953861212134E9, -355.9187989830971, -728.1136425733566, -2146.7624129652977, -230.97622126340866
 1.7075953861219215E9, -327.1963673233986, -640.2708724141121, -2113.4922629594803, -160.60626369714737
 1.7075953861219215E9, -472.24464720487595, -702.9815148711205, -2075.1956874132156, -249.64580184221268
 1.7075953861359355E9, -418.15073424577713, -750.8522343039513, -2130.9650755524635, -256.58705615997314
 1.7075953861359355E9, -304.2184219956398, -661.5733425617218, -2134.555379509926, -160.60626369714737
 1.7075953861512604E9, -421.74103820323944, -663.488171339035, -2069.9299082756042, -204.40797197818756
 1.7075953861512604E9, -453.8144202232361, -751.3309414982796, -2109.662605404854, -275.9746975302696
 1.707595386152011E9, -307.56937235593796, -687.9022382497787, -2144.6082305908203, -183.10550183057785
 1.707595386152011E9, -359.5091029405594, -634.2870324850082, -2082.136941730976, -166.82945722341537
 1.7075953861662772E9, -476.5530119538307, -722.3691562414169, -2074.7169802188873, -266.87926083803177
 1.7075953861662772E9, -349.4562518596649, -716.1459627151489, -2138.6243906617165, -222.83819895982742
 1.707595386181488E9, -316.6648090481758, -631.1754357218742, -2106.3116550445557, -158.9307885169983
 1.707595386181488E9, -461.23438173532486, -701.0666860938072, -2074.7169802188873, -252.75739860534668
 1.7075953861820755E9, -409.77335834503174, -752.7670630812645, -2135.2734403014183, -266.40055364370346
 1.7075953861820755E9, -297.9952284693718, -654.8714418411255, -2141.9753410220146, -170.41976118087769
 1.7075953861958427E9, -419.3475022315979, -668.035889685154, -2081.658234536648, -212.0672870874405
 1.7075953861958427E9, -458.362138569355, -758.27219581604, -2117.3219205141068, -283.63401263952255
 1.70759538621144E9, -309.24484753608704, -691.2531886100769, -2150.35271692276, -194.3551208972931
 1.70759538621144E9, -365.49294286966324, -637.3986292481422, -2098.6523399353027, -180.95131945610046
 1.7075953862119472E9, -481.10073029994965, -729.7891177535057, -2089.3175496459007, -275.9746975302696
 1.7075953862119472E9, -355.6794453859329, -724.7626922130585, -2149.6346561312675, -232.17298924922943
 1.707595386226074E9, -314.27127307653427, -629.260606944561, -2108.226483821869, -161.56367808580399
 1.707595386226074E9, -458.60149216651917, -691.9712494015694, -2068.9724938869476, -242.94390112161636
 1.7075953862417803E9, -403.3108112215996, -735.2942504882812, -2129.2896003723145, -261.6134817004204
 1.7075953862417803E9, -284.59142702817917, -645.0579443573952, -2128.332185983658, -160.84561729431152
 1.7075953862420652E9, -412.40624791383743, -647.930187523365, -2067.2970187067986, -203.2112039923668
 1.7075953862420652E9, -454.05377382040024, -737.2090792655945, -2105.593594253063, -272.14503997564316
 1.707595386256166E9, -305.1758363842964, -680.0035695433617, -2139.1030978560448, -186.93515938520432
 1.707595386256166E9, -347.78077667951584, -622.3193526268005, -2079.5040521621704, -161.32432448863983
 1.7075953862716E9, -475.1168903708458, -725.4807530045509, -2083.333709716797, -270.2302111983299
 1.7075953862716E9, -346.8233622908592, -713.7524267435074, -2142.454048216343, -228.34333169460297
 1.7075953862719965E9, -309.0054939389229, -620.1651702523232, -2105.114887058735, -158.21272772550583
 1.7075953862719965E9, -458.362138569355, -693.6467245817184, -2068.9724938869476, -241.7471331357956
 1.7075953862859209E9, -414.5604302883148, -744.8683943748474, -2124.7418820261955, -257.54447054862976
 1.7075953862859209E9, -296.08039969205856, -649.36630910635, -2135.5127938985825, -163.47850686311722
 1.707595386301325E9, -419.10814863443375, -657.264977812767, -2071.126676261425, -200.81766802072525
 1.707595386301325E9, -458.12278497219086, -746.7832231521606, -2107.5084230303764, -271.905686378479
 1.7075953863020365E9, -310.20226192474365, -688.6202990412712, -2145.804998576641, -189.80740255117416
 1.7075953863020365E9, -361.6632853150368, -637.8773364424706, -2091.232378423214, -176.88230830430984
 1.707595386315562E9, -480.62202310562134, -732.6613609194756, -2074.7169802188873, -265.682492852211
 1.707595386315562E9, -355.2007381916046, -723.3265706300735, -2135.5127938985825, -222.35949176549911
 1.7075953863315349E9, -319.53705221414566, -637.1592756509781, -2108.226483821869, -158.45208132266998
 1.7075953863315349E9, -467.2182216644287, -696.5189677476883, -2071.126676261425, -247.01291227340698
 1.7075953863320508E9, -418.3900878429413, -747.7406375408173, -2131.92248994112, -263.28895688056946
 1.7075953863320508E9, -293.2081565260887, -651.041784286499, -2133.358611524105, -163.95721405744553
 1.707595386345718E9, -417.6720270514488, -657.0256242156029, -2076.6318089962006, -208.47698312997818
 1.707595386345718E9, -455.250541806221, -752.049002289772, -2111.0987269878387, -280.7617694735527
 1.7075953863778412E9, -315.46804106235504, -684.3119342923164, -2147.7198273539543, -188.6106345653534
 1.7075953863778412E9, -359.9878101348877, -632.8509109020233, -2083.333709716797, -170.18040758371353
 1.707595386378343E9, -482.05814468860626, -730.9858857393265, -2079.2646985650063, -268.3153824210167
 1.707595386378343E9, -356.3975061774254, -718.3001450896263, -2142.9327554106712, -229.54009968042374
 1.7075953863791423E9, -325.76024574041367, -628.3031925559044, -2103.918119072914, -154.62242376804352
 1.7075953863791423E9, -464.585332095623, -691.9712494015694, -2066.100250720978, -236.24200040102005
 1.707595386379923E9, -415.2784910798073, -743.6716263890266, -2128.571539580822, -262.0921888947487
 1.707595386379923E9, -294.16557091474533, -644.1005299687386, -2130.486368358135, -161.56367808580399
 1.7075953863905463E9, -420.7836238145828, -663.2488177418709, -2069.451201081276, -204.40797197818756
 1.7075953863905463E9, -460.9950281381607, -744.3896871805191, -2103.2000582814217, -274.77792954444885
 1.7075953864054983E9, -317.3828698396683, -686.2267630696297, -2150.8314241170883, -196.98801046609879
 1.7075953864054983E9, -362.1419925093651, -635.7231540679932, -2093.3865607976913, -179.27584427595139
 1.7075953864212935E9, -484.69103425741196, -730.267824947834, -2085.9665992856026, -271.4269791841507
 1.7075953864212935E9, -365.2535892724991, -728.3529961705208, -2144.129523396492, -228.58268529176712
 1.7075953864219873E9, -329.58990329504013, -640.9889332056046, -2109.1838982105255, -158.45208132266998
 1.7075953864219873E9, -469.3724040389061, -696.2796141505241, -2068.7331402897835, -241.98648673295975
 1.7075953864357407E9, -421.26233100891113, -750.8522343039513, -2125.9386500120163, -257.06576335430145
 1.7075953864357407E9, -300.1494108438492, -653.6746738553047, -2131.92248994112, -161.56367808580399
 1.7075953864514961E9, -427.00681734085083, -662.0520497560501, -2071.126676261425, -207.04086154699326
 1.7075953864514961E9, -463.86727130413055, -747.9799911379814, -2108.465837419033, -278.6075870990753
 1.7075953864520745E9, -316.90416264533997, -688.6202990412712, -2148.916595339775, -194.3551208972931
 1.7075953864520745E9, -363.33876049518585, -640.2708724141121, -2095.3013895750046, -172.81329715251923
 1.7075953864656796E9, -492.8290565609932, -732.6613609194756, -2081.897588133812, -268.55473601818085
 1.7075953864656796E9, -361.18457812070847, -723.5659242272377, -2143.4114626049995, -219.2478950023651
 1.707595386481646E9, -319.53705221414566, -630.9360821247101, -2103.67876547575, -149.83535182476044
 1.707595386481646E9, -464.1066249012947, -694.6041389703751, -2063.228007555008, -228.58268529176712
 1.707595386482099E9, -418.8687950372696, -747.5012839436531, -2124.023821234703, -254.1935201883316
 1.707595386482099E9, -300.1494108438492, -654.3927346467972, -2135.7521474957466, -159.4094957113266
 1.7075953864955192E9, -427.246170938015, -668.035889685154, -2074.477626621723, -202.25378960371017
 1.7075953864955192E9, -468.8936968445778, -756.596720635891, -2107.9871302247047, -275.73534393310547
 1.707595386511572E9, -318.8189914226532, -688.380945444107, -2144.368876993656, -188.6106345653534
 1.707595386511572E9, -368.12583243846893, -640.5102260112762, -2086.445306479931, -174.01006513834
 1.7075953865121872E9, -489.7174597978592, -728.8317033648491, -2080.461466550827, -269.7515040040016
 1.7075953865121872E9, -357.59427416324615, -723.3265706300735, -2138.3850370645523, -227.38591730594635
 1.707595386525758E9, -320.73382019996643, -633.0902644991875, -2103.2000582814217, -151.75018060207367
 1.707595386525758E9, -466.02145367860794, -691.7318958044052, -2066.339604318142, -238.87488996982574
 1.7075953865416756E9, -421.5016846060753, -744.3896871805191, -2125.459942817688, -265.2037856578827
 1.7075953865416756E9, -299.19199645519257, -652.477905869484, -2128.571539580822, -159.17014211416245
 1.7075953865420206E9, -415.0391374826431, -651.7598450779915, -2060.116410791874, -192.679645717144
 1.7075953865420206E9, -454.53248101472855, -741.9961512088776, -2095.3013895750046, -264.2463712692261
 1.7075953865555992E9, -307.3300187587738, -681.4396911263466, -2136.470208287239, -183.344855427742
 1.7075953865555992E9, -352.8072022199631, -631.6541429162025, -2080.461466550827, -163.23915326595306
 1.707595386571205E9, -478.46784073114395, -725.0020458102226, -2071.8447370529175, -260.4167137145996
 1.707595386571205E9, -350.6530198454857, -719.0182058811188, -2135.7521474957466, -221.8807845711708
 1.707595386572023E9, -312.83515149354935, -630.4573749303818, -2103.67876547575, -154.86177736520767
 1.707595386572023E9, -462.43114972114563, -690.5351278185844, -2062.7493003606796, -239.35359716415405
 1.7075953865856316E9, -407.3798223733902, -742.2355048060417, -2119.9548100829124, -259.459299325943
 1.7075953865856316E9, -295.8410460948944, -655.3501490354538, -2129.7683075666428, -162.9997996687889
 1.7075953866014795E9, -415.99655187129974, -656.7862706184387, -2064.4247755408287, -199.14219284057617
 1.7075953866014795E9, -459.0801993608475, -747.7406375408173, -2099.131047129631, -274.0598687529564
 1.7075953866020207E9, -316.90416264533997, -693.4073709845543, -2149.8740097284317, -192.91899931430817
 1.7075953866020207E9, -361.4239317178726, -642.6644083857536, -2085.4878920912743, -168.98363959789276
 1.7075953866155496E9, -480.8613767027855, -730.7465321421623, -2075.43504101038, -263.0496032834053
 1.7075953866155496E9, -354.00397020578384, -726.1988137960434, -2137.1882690787315, -217.57241982221603
 1.7075953866312137E9, -311.87773710489273, -631.6541429162025, -2104.6361798644066, -153.90436297655106
 1.7075953866312137E9, -464.585332095623, -692.6893101930618, -2064.1854219436646, -236.72070759534836
 1.7075953866319675E9, -411.4488335251808, -743.4322727918625, -2122.8270532488823, -255.39028817415237
 1.7075953866319675E9, -292.96880292892456, -655.589502632618, -2129.5289539694786, -157.97337412834167
 1.7075953866457715E9, -412.88495510816574, -655.3501490354538, -2059.3983500003815, -193.15835291147232
 1.7075953866457715E9, -455.96860259771347, -747.5012839436531, -2096.9768647551537, -270.4695647954941
 1.7075953866616137E9, -315.7073946595192, -692.6893101930618, -2138.145683467388, -183.8235626220703
 1.7075953866616137E9, -363.0994068980217, -642.4250547885895, -2082.8550025224686, -168.02622520923615
 1.707595386662016E9, -489.7174597978592, -736.2516648769379, -2073.7595658302307, -262.570896089077
 1.707595386662016E9, -368.60453963279724, -733.8581289052963, -2150.35271692276, -230.97622126340866
 1.707595386675793E9, -331.50473207235336, -653.6746738553047, -2117.3219205141068, -169.46234679222107
 1.707595386675793E9, -474.39882957935333, -704.4176364541054, -2078.3072841763496, -248.20968025922775
 1.7075953866915452E9, -431.3151820898056, -764.7347429394722, -2136.230854690075, -267.59732162952423
 1.7075953866915452E9, -314.27127307653427, -675.4558511972427, -2143.890169799328, -172.57394355535507
 1.7075953866920123E9, -429.40035331249237, -673.3016688227654, -2080.700820147991, -215.1788838505745
 1.7075953866920123E9, -466.97886806726456, -757.7934886217117, -2105.593594253063, -279.56500148773193
 1.7075953867055807E9, -316.90416264533997, -697.9550893306732, -2146.7624129652977, -194.59447449445724
 1.7075953867055807E9, -362.86005330085754, -642.1857011914253, -2087.6420744657516, -173.29200434684753
 1.7075953867214227E9, -480.14331591129303, -735.0548968911171, -2080.461466550827, -271.66633278131485
 1.7075953867214227E9, -363.57811409235, -732.1826537251472, -2143.1721090078354, -227.38591730594635
 1.7075953867219324E9, -323.6060633659363, -640.7495796084404, -2106.0723014473915, -152.70759499073029
 1.7075953867219324E9, -468.1756360530853, -698.1944429278374, -2066.578957915306, -241.7471331357956
 1.707595386735826E9, -420.54427021741867, -751.3309414982796, -2126.1780036091805, -262.0921888947487
 1.707595386735826E9, -297.5165212750435, -660.376574575901, -2132.4011971354485, -169.70170038938522
 1.7075953867513456E9, -410.4914191365242, -654.8714418411255, -2063.228007555008, -199.14219284057617
 1.7075953867513456E9, -464.34597849845886, -752.2883558869362, -2098.4129863381386, -273.5811615586281
 1.7075953867519827E9, -314.0319194793701, -686.2267630696297, -2135.034086704254, -185.9777449965477
 1.7075953867519827E9, -354.00397020578384, -634.5263860821724, -2077.8285769820213, -159.17014211416245
 1.7075953867655928E9, -471.5265864133835, -720.4543274641037, -2073.7595658302307, -253.95416659116745
 1.7075953867655928E9, -352.0891414284706, -718.7788522839546, -2133.597965121269, -214.93953025341034
 1.7075953867816424E9, -317.1435162425041, -636.4412148594856, -2107.9871302247047, -157.2553133368492
 1.7075953867816424E9, -464.82468569278717, -698.9125037193298, -2065.8608971238136, -240.78971874713898
 1.7075953867962227E9, -424.134574174881, -760.4263781905174, -2129.7683075666428, -265.44313925504684
 1.7075953867962227E9, -304.6971291899681, -666.8391216993332, -2135.2734403014183, -165.6326892375946
 1.7075953867969377E9, -424.37392777204514, -668.9933040738106, -2073.5202122330666, -201.5357288122177
 1.7075953867969377E9, -468.65434324741364, -759.708317399025, -2105.8329478502274, -280.2830622792244
 1.7075953868106432E9, -321.21252739429474, -703.6995756626129, -2148.677241742611, -201.0570216178894
 1.7075953868106432E9, -369.801307618618, -647.930187523365, -2093.6259143948555, -174.72812592983246
 1.7075953868263288E9, -364.7748820781708, -735.2942504882812, -2147.7198273539543, -233.3697572350502
 1.7075953868263288E9, -324.0847705602646, -648.4088947176933, -2118.997395694256, -161.80303168296814
 1.7075953868269668E9, -468.1756360530853, -703.2208684682846, -2070.1692618727684, -240.78971874713898
 1.7075953868269668E9, -422.9378061890602, -751.5702950954437, -2133.8373187184334, -266.40055364370346
 1.707595386840853E9, -299.6707036495209, -657.5043314099312, -2135.7521474957466, -166.1113964319229
 1.707595386840853E9, -417.43267345428467, -663.0094641447067, -2069.69055467844, -201.77508240938187
 1.7075953868564491E9, -465.0640392899513, -757.3147814273834, -2104.3968262672424, -270.9482719898224
 1.7075953868564491E9, -317.8615770339966, -694.3647853732109, -2147.9591809511185, -189.56804895401
 1.7075953868570223E9, -357.354920566082, -638.595397233963, -2087.4027208685875, -168.2655788064003
 1.7075953868570223E9, -482.7762054800987, -734.3368360996246, -2073.998919427395, -267.1186144351959
 1.7075953868709855E9, -370.2800148129463, -732.6613609194756, -2151.0707777142525, -238.15682917833328
 1.7075953868709855E9, -317.8615770339966, -639.3134580254555, -2110.8593733906746, -163.71786046028137
 1.7075953868863227E9, -469.8511112332344, -698.1944429278374, -2068.9724938869476, -246.29485148191452
 1.7075953868863227E9, -427.246170938015, -757.3147814273834, -2137.906329870224, -274.29922235012054
 1.7075953868870351E9, -306.13325077295303, -672.1049008369446, -2144.8475841879845, -175.44618672132492
 1.7075953868870351E9, -423.8952205777168, -670.9081328511238, -2085.9665992856026, -212.30664068460464
 1.7075953869005527E9, -471.76594001054764, -765.931510925293, -2111.338080585003, -281.47983026504517
 1.7075953869005527E9, -333.65891444683075, -708.486647605896, -2159.687507212162, -203.6899111866951
 1.707595386932901E9, -366.689710855484, -652.7172594666481, -2096.7375111579895, -178.79713708162308
 1.707595386932901E9, -497.6161285042763, -741.7567976117134, -2093.3865607976913, -278.84694069623947
 1.707595386933428E9, -370.5193684101105, -736.9697256684303, -2152.028192102909, -235.04523241519928
 1.707595386933428E9, -323.84541696310043, -645.2972979545593, -2118.2793349027634, -163.47850686311722
 1.7075953869341245E9, -465.54274648427963, -695.3221997618675, -2074.7169802188873, -240.55036514997482
 1.7075953869341245E9, -419.3475022315979, -749.8948199152946, -2131.2044291496277, -266.40055364370346
 1.7075953869348974E9, -296.3197532892227, -658.2223922014236, -2135.2734403014183, -160.84561729431152
 1.7075953869348974E9, -414.32107669115067, -658.9404529929161, -2072.0840906500816, -198.4241320490837
 1.7075953869455633E9, -459.0801993608475, -748.937405526638, -2109.1838982105255, -277.88952630758286
 1.7075953869455633E9, -312.35644429922104, -694.6041389703751, -2147.48047375679, -191.96158492565155
 1.707595386960807E9, -353.0465558171272, -634.7657396793365, -2085.4878920912743, -170.41976118087769
 1.707595386960807E9, -483.9729734659195, -726.9168745875359, -2073.2808586359024, -257.54447054862976
 1.7075953869766705E9, -355.6794453859329, -723.3265706300735, -2137.4276226758957, -219.96595579385757
 1.7075953869766705E9, -315.2286874651909, -630.6967285275459, -2098.6523399353027, -146.00569427013397
 1.7075953869770572E9, -455.48989540338516, -685.0299950838089, -2057.7228748202324, -229.30074608325958
 1.7075953869770572E9, -412.6456015110016, -743.6716263890266, -2121.3909316658974, -254.1935201883316
 1.707595386990615E9, -288.42108458280563, -649.36630910635, -2127.135417997837, -155.8191917538643
 1.707595386990615E9, -408.8159439563751, -653.6746738553047, -2065.6215435266495, -192.679645717144
 1.7075953870062675E9, -464.1066249012947, -756.1180134415627, -2103.439411878586, -279.0862942934036
 1.7075953870062675E9, -318.10093063116074, -700.1092717051506, -2150.35271692276, -199.62090003490448
 1.707595387006952E9, -355.6794453859329, -639.5528116226196, -2095.780096769333, -175.68554031848907
 1.707595387006952E9, -485.16974145174026, -731.9433001279831, -2087.6420744657516, -277.41081911325455
 1.7075953870209875E9, -368.8438932299614, -730.267824947834, -2145.804998576641, -236.72070759534836
 1.7075953870209875E9, -318.10093063116074, -634.7657396793365, -2111.338080585003, -166.1113964319229
 1.707595387036675E9, -462.6705033183098, -693.4073709845543, -2068.015079498291, -244.3800227046013
 1.707595387036675E9, -425.0919885635376, -751.3309414982796, -2127.135417997837, -263.5283104777336
 1.7075953870370767E9, -294.8836317062378, -656.7862706184387, -2130.9650755524635, -159.4094957113266
 1.7075953870370767E9, -415.99655187129974, -657.0256242156029, -2071.6053834557533, -197.70607125759125
 1.70759538705061E9, -458.8408457636833, -749.8948199152946, -2102.242643892765, -272.3843935728073
 1.70759538705061E9, -320.01575940847397, -687.9022382497787, -2149.1559489369392, -192.2009385228157
 1.7075953870662644E9, -362.1419925093651, -635.483800470829, -2090.2749640345573, -170.898468375206
 1.7075953870662644E9, -479.9039623141289, -726.4381673932076, -2079.7434057593346, -270.2302111983299
 1.7075953870669627E9, -362.86005330085754, -722.3691562414169, -2146.2837057709694, -230.97622126340866
 1.7075953870669627E9, -313.31385868787766, -638.3560436367989, -2107.029715836048, -153.1863021850586
 1.7075953870806355E9, -459.0801993608475, -684.0725806951523, -2062.031239569187, -237.19941478967667
 1.7075953870806355E9, -408.09788316488266, -737.4484328627586, -2117.0825669169426, -255.15093457698822
 1.7075953870962336E9, -299.4313500523567, -656.0682098269463, -2134.555379509926, -157.49466693401337
 1.7075953870962336E9, -415.2784910798073, -654.153381049633, -2073.0415050387383, -197.4667176604271
 1.7075953870970867E9, -474.39882957935333, -764.7347429394722, -2113.9709701538086, -288.89979177713394
 1.7075953870970867E9, -326.4783065319061, -701.7847468852997, -2151.3101313114166, -199.62090003490448
 1.7075953871105611E9, -367.1684180498123, -647.2121267318726, -2102.7213510870934, -184.54162341356277
 1.7075953871105611E9, -493.54711735248566, -736.9697256684303, -2086.2059528827667, -278.84694069623947
 1.7075953871263196E9, -374.1096723675728, -736.491018474102, -2151.549484908581, -238.87488996982574
 1.7075953871263196E9, -320.73382019996643, -644.5792371630669, -2115.6464453339577, -160.12755650281906
 1.7075953871269584E9, -465.54274648427963, -697.4763821363449, -2068.254433095455, -239.35359716415405
 1.7075953871269584E9, -421.9803918004036, -750.1341735124588, -2125.459942817688, -259.9380065202713
 1.7075953871406634E9, -295.12298530340195, -649.8450163006783, -2135.034086704254, -166.35075002908707
 1.7075953871406634E9, -413.36366230249405, -656.7862706184387, -2068.254433095455, -199.14219284057617
 1.7075953871565557E9, -456.2079561948776, -741.9961512088776, -2102.242643892765, -272.62374716997147
 1.7075953871565557E9, -313.0745050907135, -687.4235310554504, -2145.804998576641, -192.679645717144
 1.707595387157014E9, -354.96138459444046, -637.3986292481422, -2082.6156489253044, -166.82945722341537
 1.707595387157014E9, -475.83495116233826, -718.3001450896263, -2074.477626621723, -263.28895688056946
 1.7075953871708865E9, -360.70587092638016, -716.3853163123131, -2135.7521474957466, -220.9233701825142
 1.7075953871708865E9, -313.79256588220596, -637.3986292481422, -2105.593594253063, -151.51082700490952
 1.7075953871865227E9, -461.473735332489, -691.7318958044052, -2065.6215435266495, -233.8484644293785
 1.7075953871865227E9, -420.54427021741867, -747.7406375408173, -2126.896064400673, -264.96443206071854
 1.7075953871871288E9, -300.38876444101334, -655.8288562297821, -2136.9489154815674, -169.70170038938522
 1.7075953871871288E9, -411.9275407195091, -657.264977812767, -2073.998919427395, -201.0570216178894
 1.7075953872006996E9, -463.86727130413055, -751.8096486926079, -2105.593594253063, -281.9585374593735
 1.7075953872006996E9, -324.5634777545929, -702.9815148711205, -2159.2088000178337, -206.56215435266495
 1.7075953872162492E9, -365.7322964668274, -643.3824691772461, -2099.131047129631, -178.79713708162308
 1.7075953872162492E9, -486.36650943756104, -728.5923497676849, -2090.035610437393, -273.3418079614639
 1.7075953872170148E9, -367.6471252441406, -732.4220073223114, -2148.1985345482826, -237.67812198400497
 1.7075953872170148E9, -322.8880025744438, -643.6218227744102, -2117.561274111271, -161.56367808580399
 1.7075953872308052E9, -467.2182216644287, -693.1680173873901, -2069.451201081276, -241.26842594146729
 1.7075953872308052E9, -426.0494029521942, -752.049002289772, -2132.4011971354485, -264.0070176720619
 1.7075953872465444E9, -296.798460483551, -657.7436850070953, -2141.7359874248505, -165.1539820432663
 1.7075953872465444E9, -410.9701263308525, -654.3927346467972, -2077.8285769820213, -198.4241320490837
 1.707595387247422E9, -460.5163209438324, -750.373527109623, -2107.5084230303764, -275.4959903359413
 1.707595387247422E9, -319.05834501981735, -695.8009069561958, -2155.139788866043, -197.9454248547554
 1.7075953872769868E9, -359.0303957462311, -640.9889332056046, -2098.4129863381386, -177.121661901474
 1.7075953872769868E9, -483.4942662715912, -726.1988137960434, -2080.461466550827, -272.62374716997147
 1.7075953872776196E9, -366.2110036611557, -726.1988137960434, -2145.804998576641, -236.72070759534836
 1.7075953872776196E9, -313.31385868787766, -634.5263860821724, -2114.2103237509727, -159.4094957113266
 1.7075953872784111E9, -465.7821000814438, -694.6041389703751, -2076.8711625933647, -246.53420507907867
 1.7075953872784111E9, -429.8790605068207, -754.6818918585777, -2130.9650755524635, -271.4269791841507
 1.7075953872905686E9, -301.1068252325058, -663.0094641447067, -2147.48047375679, -175.20683312416077
 1.7075953872905686E9, -422.4590989947319, -666.8391216993332, -2087.881428062916, -215.1788838505745
 1.7075953873064532E9, -472.24464720487595, -753.485123872757, -2118.039981305599, -284.59142702817917
 1.7075953873064532E9, -324.0847705602646, -702.263454079628, -2160.4055680036545, -209.19504392147064
 1.7075953873069732E9, -356.8762133717537, -640.2708724141121, -2105.593594253063, -187.17451298236847
 1.7075953873069732E9, -491.6322885751724, -731.7039465308189, -2092.4291464090347, -282.4372446537018
 1.7075953873208957E9, -370.9980756044388, -731.4645929336548, -2152.028192102909, -247.9703266620636
 1.7075953873208957E9, -321.21252739429474, -641.4676403999329, -2127.8534787893295, -179.7545514702797
 1.7075953873365963E9, -469.8511112332344, -695.5615533590317, -2085.9665992856026, -250.84256982803345
 1.7075953873365963E9, -426.28875654935837, -759.708317399025, -2137.66697627306, -273.82051515579224
 1.70759538733704E9, -299.4313500523567, -664.2062321305275, -2148.1985345482826, -180.47261226177216
 1.70759538733704E9, -418.3900878429413, -664.92429292202, -2087.881428062916, -216.37565183639526
 1.7075953873505647E9, -467.2182216644287, -758.0328422188759, -2117.800627708435, -292.49009573459625
 1.7075953873505647E9, -322.64864897727966, -702.9815148711205, -2166.150054335594, -215.1788838505745
 1.7075953873663375E9, -363.0994068980217, -648.6482483148575, -2107.5084230303764, -191.00417053699493
 1.7075953873663375E9, -484.9303878545761, -736.491018474102, -2086.2059528827667, -280.52241587638855
 1.7075953873669293E9, -366.689710855484, -737.2090792655945, -2159.926860809326, -251.79998421669006
 1.7075953873669293E9, -319.7764058113098, -644.5792371630669, -2124.023821234703, -175.92489391565323
 1.7075953873805523E9, -466.2608072757721, -696.2796141505241, -2079.5040521621704, -251.0819234251976
 1.7075953873805523E9, -430.11841410398483, -756.596720635891, -2135.034086704254, -276.93211191892624
 1.7075953873962665E9, -301.1068252325058, -662.0520497560501, -2141.4966338276863, -179.7545514702797
 1.7075953873962665E9, -411.4488335251808, -658.2223922014236, -2077.349869787693, -207.75892233848572
 1.7075953873971295E9, -462.6705033183098, -748.4586983323097, -2109.4232518076897, -282.67659825086594
 1.7075953873971295E9, -325.5208921432495, -702.0241004824638, -2153.703667283058, -205.84409356117249
 1.7075953874108658E9, -360.466517329216, -641.706993997097, -2097.455571949482, -179.03649067878723
 1.7075953874108658E9, -490.6748741865158, -729.0710569620132, -2085.24853849411, -271.4269791841507
 1.707595387426256E9, -360.9452245235443, -726.6775209903717, -2151.788838505745, -234.08781802654266
 1.707595387426256E9, -312.83515149354935, -633.0902644991875, -2113.4922629594803, -159.64884930849075
 1.7075953874269907E9, -464.585332095623, -690.5351278185844, -2066.578957915306, -238.15682917833328
 1.7075953874269907E9, -424.134574174881, -752.7670630812645, -2125.9386500120163, -266.6399072408676
 1.7075953874405837E9, -300.38876444101334, -654.8714418411255, -2138.6243906617165, -169.22299319505692
 1.7075953874405837E9, -417.911380648613, -655.1107954382896, -2073.998919427395, -205.84409356117249
 1.7075953874564373E9, -465.0640392899513, -744.8683943748474, -2106.55100864172, -279.0862942934036
 1.7075953874564373E9, -317.1435162425041, -687.1841774582863, -2145.0869377851486, -195.07318168878555
 1.7075953874571288E9, -358.3123349547386, -635.483800470829, -2091.471732020378, -171.13782197237015
 1.7075953874571288E9, -485.6484486460686, -720.4543274641037, -2077.589223384857, -268.3153824210167
 1.7075953874869587E9, -370.2800148129463, -725.2413994073868, -2141.257280230522, -232.17298924922943
 1.7075953874869587E9, -320.9731737971306, -638.8347508311272, -2112.5348485708237, -162.0423852801323
 1.7075953874876604E9, -466.02145367860794, -686.9448238611221, -2068.015079498291, -235.04523241519928
 1.7075953874876604E9, -423.4165133833885, -745.1077479720116, -2127.8534787893295, -262.81024968624115
 1.7075953874885018E9, -299.4313500523567, -656.0682098269463, -2133.597965121269, -166.59010362625122
 1.7075953874885018E9, -413.1243087053299, -647.6908339262009, -2067.775725901127, -198.18477845191956
 1.7075953875006545E9, -464.585332095623, -743.4322727918625, -2097.9342791438103, -274.5385759472847
 1.7075953875006545E9, -320.2551130056381, -689.0990062355995, -2147.48047375679, -197.4667176604271
 1.707595387516454E9, -350.6530198454857, -631.1754357218742, -2087.1633672714233, -166.59010362625122
 1.707595387516454E9, -483.4942662715912, -719.2575594782829, -2076.3924553990364, -268.55473601818085
 1.7075953875169446E9, -364.5355284810066, -723.5659242272377, -2138.3850370645523, -233.3697572350502
 1.7075953875169446E9, -311.3990299105644, -632.372203707695, -2107.9871302247047, -153.6650093793869
 1.7075953875308833E9, -458.8408457636833, -680.0035695433617, -2061.0738251805305, -230.97622126340866
 1.7075953875308833E9, -417.6720270514488, -736.491018474102, -2111.577434182167, -254.6722273826599
 1.7075953875465963E9, -299.4313500523567, -658.2223922014236, -2133.597965121269, -161.80303168296814
 1.7075953875465963E9, -409.77335834503174, -649.36630910635, -2066.339604318142, -195.79124248027802
 1.70759538754717E9, -464.1066249012947, -746.5438695549965, -2098.4129863381386, -275.9746975302696
 1.70759538754717E9, -317.6222234368324, -689.0990062355995, -2141.9753410220146, -191.48287773132324
 1.7075953875770447E9, -349.21689826250076, -627.5851317644119, -2085.7272456884384, -170.41976118087769
 1.7075953875770447E9, -482.7762054800987, -717.3427307009697, -2071.366029858589, -264.7250784635544
 1.707595387577594E9, -364.0568212866783, -724.7626922130585, -2143.1721090078354, -234.56652522087097
 1.707595387577594E9, -311.6383835077286, -628.7818997502327, -2114.928384542465, -160.12755650281906
 1.7075953875783567E9, -452.85700583457947, -681.6790447235107, -2066.100250720978, -239.83230435848236
 1.7075953875783567E9, -429.6397069096565, -749.6554663181305, -2126.6567108035088, -269.03344321250916
 1.707595387590833E9, -301.82488602399826, -659.4191601872444, -2142.9327554106712, -179.51519787311554
 1.707595387590833E9, -413.1243087053299, -653.6746738553047, -2074.7169802188873, -201.0570216178894
 1.7075953876062431E9, -462.43114972114563, -745.3471015691757, -2100.327815115452, -277.1714655160904
 1.7075953876062431E9, -309.24484753608704, -683.3545199036598, -2140.5392194390297, -192.91899931430817
 1.7075953876069112E9, -341.3182295560837, -623.037413418293, -2081.1795273423195, -166.35075002908707
 1.7075953876069112E9, -473.920122385025, -716.6246699094772, -2072.802151441574, -262.0921888947487
 1.7075953876212783E9, -358.07298135757446, -718.3001450896263, -2132.1618435382843, -224.27432054281235
 1.7075953876212783E9, -309.24484753608704, -631.8934965133667, -2103.918119072914, -151.75018060207367
 1.7075953876365397E9, -455.250541806221, -681.2003375291824, -2056.765460431576, -229.54009968042374
 1.7075953876365397E9, -419.10814863443375, -734.3368360996246, -2114.449677348137, -255.39028817415237
 1.70759538763722E9, -291.7720349431038, -641.706993997097, -2124.9812356233597, -161.32432448863983
 1.70759538763722E9, -407.3798223733902, -641.4676403999329, -2065.6215435266495, -191.2435241341591
 1.7075953876505303E9, -463.6279177069664, -739.602615237236, -2096.9768647551537, -274.5385759472847
 1.7075953876505303E9, -317.6222234368324, -684.3119342923164, -2137.4276226758957, -191.7222313284874
 1.7075953876662395E9, -349.69560545682907, -622.3193526268005, -2081.658234536648, -160.12755650281906
 1.7075953876662395E9, -486.1271558403969, -722.3691562414169, -2066.8183115124702, -263.5283104777336
 1.7075953876669238E9, -367.1684180498123, -730.267824947834, -2136.230854690075, -233.3697572350502
 1.7075953876669238E9, -314.27127307653427, -630.6967285275459, -2107.2690694332123, -156.7766061425209
 1.7075953876810324E9, -464.1066249012947, -685.269348680973, -2063.9460683465004, -232.65169644355774
 1.7075953876810324E9, -419.58685582876205, -741.7567976117134, -2123.0664068460464, -267.59732162952423
 1.7075953876962302E9, -294.4049245119095, -656.5469170212746, -2135.2734403014183, -167.06881082057953
 1.7075953876962302E9, -399.4811536669731, -646.2547123432159, -2064.903482735157, -194.3551208972931
 1.707595387697022E9, -460.5163209438324, -742.9535655975342, -2097.216218352318, -279.0862942934036
 1.707595387697022E9, -316.90416264533997, -686.4661166667938, -2145.804998576641, -198.66348564624786
 1.7075953877105594E9, -347.0627158880234, -629.0212533473969, -2086.924013674259, -162.76044607162476
 1.7075953877105594E9, -481.57943749427795, -719.7362666726112, -2076.3924553990364, -271.4269791841507
 1.7075953877262447E9, -364.29617488384247, -722.3691562414169, -2143.4114626049995, -235.5239396095276
 1.7075953877262447E9, -313.5532122850418, -634.5263860821724, -2118.5186884999275, -164.19656765460968
 1.70759538772694E9, -466.2608072757721, -691.0138350129128, -2078.546637773514, -247.4916194677353
 1.70759538772694E9, -437.29902201890945, -759.2296102046967, -2133.358611524105, -274.29922235012054
 1.7075953877405565E9, -307.3300187587738, -664.6849393248558, -2149.1559489369392, -178.79713708162308
 1.7075953877405565E9, -417.6720270514488, -661.812696158886, -2084.769831299782, -210.87051910161972
 1.7075953877562704E9, -478.2284871339798, -756.8360742330551, -2114.449677348137, -289.6178525686264
 1.7075953877562704E9, -328.6324889063835, -701.0666860938072, -2160.6449216008186, -210.3918119072914
 1.7075953877569897E9, -358.55168855190277, -641.2282868027687, -2103.439411878586, -183.344855427742
 1.7075953877569897E9, -492.3503493666649, -733.1400681138039, -2085.7272456884384, -274.5385759472847
 1.7075953877709243E9, -373.15225797891617, -731.4645929336548, -2157.5333248376846, -243.42260831594467
 1.7075953877709243E9, -320.01575940847397, -643.3824691772461, -2125.9386500120163, -167.54751801490784
 1.7075953877865741E9, -462.43114972114563, -686.2267630696297, -2077.110516190529, -243.90131551027298
 1.7075953877865741E9, -426.5281101465225, -751.5702950954437, -2129.2896003723145, -271.4269791841507
 1.7075953877869973E9, -304.2184219956398, -656.3075634241104, -2143.6508162021637, -169.94105398654938
 1.7075953877869973E9, -399.9598608613014, -645.5366515517235, -2075.913748204708, -196.26994967460632
 1.70759538780061E9, -460.9950281381607, -742.71421200037, -2103.918119072914, -276.93211191892624
 1.70759538780061E9, -320.2551130056381, -692.6893101930618, -2148.677241742611, -198.66348564624786
 1.7075953878159156E9, -347.0627158880234, -633.0902644991875, -2095.3013895750046, -171.3771755695343
 1.7075953878159156E9, -478.2284871339798, -716.8640235066414, -2081.658234536648, -268.3153824210167
 1.7075953878312116E9, -311.15967631340027, -631.4147893190384, -2110.6200197935104, -151.51082700490952
 1.7075953878312116E9, -453.8144202232361, -680.2429231405258, -2063.467361152172, -224.75302773714066
 1.7075953878318937E9, -420.3049166202545, -742.71421200037, -2122.587699651718, -257.06576335430145
 1.7075953878318937E9, -293.2081565260887, -653.9140274524689, -2133.8373187184334, -166.35075002908707
 1.7075953878456423E9, -410.25206553936005, -649.1269555091858, -2068.4937866926193, -196.50930327177048
 1.7075953878456423E9, -461.473735332489, -749.1767591238022, -2103.67876547575, -269.2727968096733
 1.7075953878617191E9, -314.0319194793701, -688.6202990412712, -2144.6082305908203, -191.2435241341591
 1.7075953878617191E9, -347.5414230823517, -631.1754357218742, -2089.3175496459007, -162.76044607162476
 1.7075953878621192E9, -483.9729734659195, -719.7362666726112, -2076.6318089962006, -260.4167137145996
 1.7075953878621192E9, -362.86005330085754, -717.1033771038055, -2133.8373187184334, -225.23173493146896
 1.7075953878758504E9, -305.1758363842964, -629.4999605417252, -2103.67876547575, -142.65474390983582
 1.7075953878758504E9, -444.4796299338341, -671.147486448288, -2061.552532374859, -226.6678565144539
 1.7075953878918388E9, -413.6030158996582, -731.4645929336548, -2114.928384542465, -255.15093457698822
 1.7075953878918388E9, -286.0275486111641, -643.1431155800819, -2128.0928323864937, -160.60626369714737
 1.7075953878922298E9, -396.60891050100327, -641.706993997097, -2065.6215435266495, -191.00417053699493
 1.7075953878922298E9, -455.7292490005493, -734.5761896967888, -2092.668500006199, -267.1186144351959
 1.7075953879059513E9, -309.9629083275795, -685.9874094724655, -2139.1030978560448, -186.21709859371185
 1.7075953879059513E9, -341.3182295560837, -620.4045238494873, -2085.9665992856026, -155.34048455953598
 1.7075953879214587E9, -472.24464720487595, -710.4014763832092, -2073.0415050387383, -255.15093457698822
 1.7075953879214587E9, -360.70587092638016, -721.4117418527603, -2135.9915010929108, -226.42850291728973
 1.7075953879220555E9, -309.0054939389229, -627.5851317644119, -2111.0987269878387, -145.76634067296982
 1.7075953879220555E9, -450.4634698629379, -679.2855087518692, -2070.1692618727684, -227.1465637087822
 1.7075953879523451E9, -421.74103820323944, -744.3896871805191, -2127.135417997837, -256.8264097571373
 1.7075953879523451E9, -295.60169249773026, -658.701099395752, -2140.0605122447014, -166.59010362625122
 1.7075953879527185E9, -401.39598244428635, -650.5630770921707, -2070.887322664261, -192.679645717144
 1.7075953879527185E9, -466.02145367860794, -743.9109799861908, -2104.6361798644066, -275.9746975302696
 1.7075953879536223E9, -322.8880025744438, -701.5453932881355, -2153.464313685894, -195.79124248027802
 1.7075953879536223E9, -352.5678486227989, -637.8773364424706, -2098.6523399353027, -171.13782197237015
 1.707595387965933E9, -482.53685188293457, -724.7626922130585, -2083.0943561196327, -268.3153824210167
 1.707595387965933E9, -376.024501144886, -736.491018474102, -2149.6346561312675, -236.0026468038559
 1.707595387981948E9, -310.4416155219078, -638.1166900396347, -2124.023821234703, -158.45208132266998
 1.707595387981948E9, -457.8834313750267, -689.3383598327637, -2074.9563338160515, -235.5239396095276
 1.7075953879822488E9, -429.1609997153282, -753.7244774699211, -2130.7257219552994, -265.44313925504684
 1.7075953879822488E9, -299.6707036495209, -662.0520497560501, -2142.693401813507, -170.41976118087769
 1.7075953879962442E9, -404.98628640174866, -649.36630910635, -2076.3924553990364, -198.18477845191956
 1.7075953879962442E9, -465.54274648427963, -750.8522343039513, -2106.0723014473915, -275.9746975302696
 1.7075953880115335E9, -320.9731737971306, -694.3647853732109, -2146.7624129652977, -191.96158492565155
 1.7075953880115335E9, -351.37108063697815, -636.9199220538139, -2097.9342791438103, -164.675274848938
 1.7075953880122828E9, -475.83495116233826, -716.1459627151489, -2068.7331402897835, -255.39028817415237
 1.7075953880122828E9, -365.7322964668274, -720.2149738669395, -2132.6405507326126, -224.5136741399765
 1.7075953880258293E9, -312.1170907020569, -629.9786677360535, -2105.593594253063, -143.85151189565659
 1.7075953880258293E9, -454.53248101472855, -683.3545199036598, -2061.0738251805305, -223.31690615415573
 1.7075953880413933E9, -423.6558669805527, -745.5864551663399, -2121.151578068733, -256.347702562809
 1.7075953880413933E9, -297.5165212750435, -659.4191601872444, -2143.890169799328, -160.36691009998322
 1.707595388041973E9, -406.66176158189774, -654.8714418411255, -2075.43504101038, -188.6106345653534
 1.707595388041973E9, -466.50016087293625, -747.261930346489, -2104.1574726700783, -268.794089615345
 1.70759538805556E9, -320.01575940847397, -694.3647853732109, -2152.9856064915657, -191.96158492565155
 1.70759538805556E9, -359.74845653772354, -637.1592756509781, -2101.5245831012726, -165.39333564043045
 1.7075953880880527E9, -486.6058630347252, -723.3265706300735, -2079.025344967842, -267.1186144351959
 1.7075953880880527E9, -377.6999763250351, -731.2252393364906, -2150.113363325596, -240.31101155281067
 1.7075953880883992E9, -317.6222234368324, -643.3824691772461, -2124.7418820261955, -160.12755650281906
 1.7075953880883992E9, -461.23438173532486, -692.6893101930618, -2073.2808586359024, -239.1142435669899
 1.7075953880891197E9, -432.03324288129807, -757.3147814273834, -2136.7095618844032, -273.1024543642998
 1.7075953880891197E9, -301.1068252325058, -666.3604145050049, -2148.677241742611, -173.5313579440117
 1.707595388089913E9, -409.0552975535393, -652.9566130638123, -2080.700820147991, -200.5783144235611
 1.707595388089913E9, -467.696928858757, -745.825808763504, -2100.80652230978, -273.1024543642998
 1.7075953881010916E9, -319.05834501981735, -691.0138350129128, -2147.001766562462, -196.74865686893463
 1.7075953881010916E9, -350.1743126511574, -632.1328501105309, -2095.0620359778404, -164.43592125177383
 1.7075953881161761E9, -488.28133821487427, -722.8478634357452, -2074.9563338160515, -262.0921888947487
 1.7075953881161761E9, -374.1096723675728, -726.9168745875359, -2142.9327554106712, -234.32717162370682
 1.7075953881317658E9, -318.10093063116074, -639.7921652197838, -2119.476102888584, -158.69143491983414
 1.7075953881317658E9, -466.2608072757721, -693.6467245817184, -2072.0840906500816, -239.5929507613182
 1.7075953881320655E9, -434.18742525577545, -750.8522343039513, -2122.348346054554, -267.1186144351959
 1.7075953881320655E9, -298.9526428580284, -663.9668785333633, -2138.3850370645523, -167.786871612072
 1.7075953881459553E9, -408.8159439563751, -656.5469170212746, -2081.897588133812, -204.40797197818756
 1.7075953881459553E9, -467.45757526159286, -746.3045159578323, -2103.439411878586, -278.36823350191116
 1.7075953881617532E9, -335.3343896269798, -707.0505260229111, -2156.815264046192, -207.2802151441574
 1.7075953881617532E9, -350.6530198454857, -633.5689716935158, -2100.80652230978, -176.6429547071457
 1.7075953881621616E9, -488.0419846177101, -724.5233386158943, -2078.546637773514, -269.51215040683746
 1.7075953881621616E9, -376.98191553354263, -730.5071785449982, -2139.581805050373, -240.07165795564651
 1.7075953881759472E9, -313.5532122850418, -637.1592756509781, -2111.0987269878387, -154.86177736520767
 1.7075953881759472E9, -458.362138569355, -679.046155154705, -2065.142836332321, -233.60911083221436
 1.7075953881915884E9, -428.6822925209999, -746.5438695549965, -2122.10899245739, -266.40055364370346
 1.7075953881915884E9, -294.64427810907364, -651.5204914808273, -2133.597965121269, -162.9997996687889
 1.707595388192027E9, -403.55016481876373, -642.9037619829178, -2061.791885972023, -187.17451298236847
 1.707595388192027E9, -467.696928858757, -744.3896871805191, -2096.258803963661, -272.8631007671356
 1.7075953882055013E9, -323.6060633659363, -693.6467245817184, -2145.565644979477, -192.679645717144
 1.7075953882055013E9, -342.7543511390686, -624.7128885984421, -2088.5994888544083, -159.4094957113266
 1.7075953882212305E9, -477.2710727453232, -714.4704875349998, -2074.7169802188873, -262.0921888947487
 1.7075953882212305E9, -372.19484359025955, -729.3104105591774, -2146.2837057709694, -236.24200040102005
 1.7075953882219536E9, -313.79256588220596, -637.8773364424706, -2118.7580420970917, -157.2553133368492
 1.7075953882219536E9, -459.79826015233994, -686.705470263958, -2071.126676261425, -239.83230435848236
 1.707595388235948E9, -437.77772921323776, -751.5702950954437, -2128.571539580822, -271.18762558698654
 1.707595388235948E9, -301.1068252325058, -665.4030001163483, -2145.804998576641, -174.01006513834
 1.7075953882513127E9, -409.0552975535393, -649.8450163006783, -2083.0943561196327, -200.0996072292328
 1.7075953882513127E9, -468.65434324741364, -748.937405526638, -2110.141312599182, -285.5488414168358
 1.707595388251978E9, -322.64864897727966, -697.4763821363449, -2149.8740097284317, -207.04086154699326
 1.707595388251978E9, -354.96138459444046, -634.0476788878441, -2099.8491079211235, -172.09523636102676
 1.7075953882656033E9, -480.8613767027855, -713.9917803406715, -2079.5040521621704, -265.2037856578827
 1.7075953882656033E9, -371.9554899930954, -732.1826537251472, -2148.437888145447, -240.31101155281067
 1.70759538828174E9, -312.35644429922104, -638.595397233963, -2124.263174831867, -166.35075002908707
 1.70759538828174E9, -460.75567454099655, -692.4499565958977, -2073.0415050387383, -241.7471331357956
 1.7075953882821367E9, -444.71898353099823, -760.6657317876816, -2142.9327554106712, -284.59142702817917
 1.7075953882821367E9, -308.04807955026627, -674.4984368085861, -2152.7462528944016, -188.13192737102509
 1.7075953882955995E9, -416.95396625995636, -657.264977812767, -2090.5143176317215, -211.82793349027634
 1.7075953882955995E9, -479.6646087169647, -751.8096486926079, -2117.3219205141068, -293.2081565260887
 1.7075953883113964E9, -328.1537817120552, -698.4337965250015, -2152.5068992972374, -204.1686183810234
 1.7075953883113964E9, -356.15815258026123, -643.1431155800819, -2098.6523399353027, -170.41976118087769
 1.7075953883120933E9, -491.1535813808441, -719.0182058811188, -2080.461466550827, -268.07602882385254
 1.7075953883120933E9, -384.4018770456314, -732.1826537251472, -2138.8637442588806, -236.72070759534836
 1.7075953883255239E9, -315.2286874651909, -638.1166900396347, -2119.23674929142, -159.4094957113266
 1.7075953883255239E9, -459.5589065551758, -681.6790447235107, -2063.467361152172, -230.01880687475204
 1.7075953883414145E9, -423.6558669805527, -745.3471015691757, -2120.1941636800766, -261.85283529758453
 1.7075953883414145E9, -294.16557091474533, -655.3501490354538, -2134.79473310709, -167.06881082057953
 1.7075953883420253E9, -402.35339683294296, -650.0843698978424, -2072.323444247246, -192.679645717144
 1.7075953883420253E9, -466.2608072757721, -744.150333583355, -2102.7213510870934, -277.6501727104187
 1.7075953883561604E9, -325.0421849489212, -701.5453932881355, -2152.028192102909, -207.99827593564987
 1.7075953883561604E9, -352.8072022199631, -641.4676403999329, -2098.6523399353027, -171.3771755695343
 1.7075953883712637E9, -486.36650943756104, -725.0020458102226, -2084.769831299782, -269.99085760116577
 1.7075953883712637E9, -374.5883795619011, -734.8155432939529, -2150.113363325596, -249.64580184221268
 1.7075953883719625E9, -309.0054939389229, -635.9625076651573, -2118.5186884999275, -163.47850686311722
 1.7075953883719625E9, -458.12278497219086, -690.7744814157486, -2074.7169802188873, -231.21557486057281
 1.7075953883857572E9, -428.44293892383575, -749.8948199152946, -2131.443782746792, -275.4959903359413
 1.7075953883857572E9, -300.1494108438492, -662.7701105475426, -2141.7359874248505, -173.05265074968338
 1.7075953884013467E9, -397.0876176953316, -644.818590760231, -2075.1956874132156, -198.4241320490837
 1.7075953884013467E9, -465.7821000814438, -743.1929191946983, -2103.2000582814217, -282.1978910565376
 1.7075953884019918E9, -320.73382019996643, -700.8273324966431, -2146.2837057709694, -197.70607125759125
 1.7075953884019918E9, -346.8233622908592, -636.2018612623215, -2096.019450366497, -163.47850686311722
 1.707595388415806E9, -483.73361986875534, -728.1136425733566, -2075.913748204708, -268.55473601818085
 1.707595388415806E9, -377.6999763250351, -734.5761896967888, -2147.9591809511185, -247.01291227340698
 1.7075953884312584E9, -315.94674825668335, -645.0579443573952, -2130.007661163807, -170.41976118087769
 1.7075953884312584E9, -458.8408457636833, -693.8860781788826, -2077.589223384857, -240.55036514997482
 1.7075953884319725E9, -437.5383756160736, -756.3573670387268, -2137.66697627306, -275.73534393310547
 1.7075953884319725E9, -299.19199645519257, -661.0946353673935, -2147.7198273539543, -171.61652916669846
 1.7075953884460452E9, -404.50757920742035, -647.4514803290367, -2086.445306479931, -199.62090003490448
 1.7075953884460452E9, -464.585332095623, -741.2780904173851, -2104.3968262672424, -271.66633278131485
 1.7075953884614284E9, -331.98343926668167, -699.3912109136581, -2153.703667283058, -200.5783144235611
 1.7075953884614284E9, -353.7646166086197, -638.1166900396347, -2106.55100864172, -172.09523636102676
 1.707595388462011E9, -483.0155590772629, -721.1723882555962, -2080.222112953663, -265.92184644937515
 1.707595388462011E9, -367.6471252441406, -728.3529961705208, -2137.1882690787315, -232.41234284639359
 1.7075953884756293E9, -308.5267867445946, -640.2708724141121, -2112.2954949736595, -151.98953419923782
 1.7075953884756293E9, -454.53248101472855, -684.0725806951523, -2064.1854219436646, -228.58268529176712
 1.7075953884910936E9, -429.40035331249237, -745.3471015691757, -2124.263174831867, -265.44313925504684
 1.7075953884910936E9, -302.0642396211624, -670.1900720596313, -2141.257280230522, -168.02622520923615
 1.7075953885062892E9, -412.40624791383743, -657.264977812767, -2082.136941730976, -190.76481693983078
 1.7075953885062892E9, -472.9627079963684, -747.9799911379814, -2101.0458759069443, -272.8631007671356
 1.7075953885069962E9, -329.8292568922043, -704.4176364541054, -2148.916595339775, -199.62090003490448
 1.7075953885069962E9, -351.84978783130646, -638.3560436367989, -2098.4129863381386, -165.39333564043045
 1.7075953885214622E9, -494.2651781439781, -729.5497641563416, -2085.7272456884384, -265.44313925504684
 1.7075953885214622E9, -381.7689874768257, -740.0813224315643, -2155.3791424632072, -241.7471331357956
 1.7075953885221777E9, -314.7499802708626, -646.0153587460518, -2124.9812356233597, -159.8882029056549
 1.7075953885221777E9, -458.8408457636833, -691.0138350129128, -2074.9563338160515, -236.0026468038559
 1.7075953885521915E9, -438.97449719905853, -758.27219581604, -2121.8696388602257, -263.76766407489777
 1.7075953885521915E9, -304.6971291899681, -667.5571824908257, -2142.693401813507, -168.7442860007286
 1.707595388552901E9, -409.5340047478676, -650.0843698978424, -2075.674394607544, -191.00417053699493
 1.707595388552901E9, -470.09046483039856, -745.825808763504, -2097.9342791438103, -270.4695647954941
 1.7075953885536695E9, -325.76024574041367, -696.9976749420166, -2142.2146946191788, -192.44029211997986
 1.7075953885536695E9, -344.4298263192177, -633.0902644991875, -2089.796256840229, -162.0423852801323
 1.7075953885656056E9, -475.5955975651741, -711.1195371747017, -2065.142836332321, -252.75739860534668
 1.7075953885656056E9, -373.3916115760803, -722.6085098385811, -2133.597965121269, -227.6252709031105
 1.707595388581968E9, -306.3726043701172, -625.4309493899345, -2107.029715836048, -144.09086549282074
 1.707595388581968E9, -453.0963594317436, -680.7216303348541, -2058.2015820145607, -220.20530939102173
 1.7075953885964096E9, -427.00681734085083, -748.4586983323097, -2115.6464453339577, -256.10834896564484
 1.7075953885964096E9, -299.4313500523567, -668.5145968794823, -2140.0605122447014, -162.28173887729645
 1.7075953885970693E9, -401.87468963861465, -653.4353202581406, -2079.025344967842, -193.63706010580063
 1.7075953885970693E9, -473.20206159353256, -750.373527109623, -2104.8755334615707, -281.00112307071686
 1.7075953886115675E9, -325.76024574041367, -703.9389292597771, -2144.8475841879845, -199.14219284057617
 1.7075953886115675E9, -352.5678486227989, -642.9037619829178, -2099.131047129631, -172.33458995819092
 1.7075953886120975E9, -492.3503493666649, -732.9007145166397, -2080.9401737451553, -268.07602882385254
 1.7075953886120975E9, -372.19484359025955, -734.0974825024605, -2135.7521474957466, -234.08781802654266
 1.7075953886258051E9, -314.5106266736984, -647.2121267318726, -2123.3057604432106, -160.84561729431152
 1.7075953886258051E9, -457.8834313750267, -683.3545199036598, -2067.0576651096344, -227.6252709031105
 1.7075953886413355E9, -430.59712129831314, -750.373527109623, -2124.9812356233597, -267.3579680323601
 1.7075953886413355E9, -292.96880292892456, -662.2914033532143, -2143.6508162021637, -164.675274848938
