 Timestamp, EXG Channel 0, EXG Channel 1, EXG Channel 2, EXG Channel 3
 1.7075957583140943E9, -216.1362982392311, -537.58817923069, -1919.3764956593513, -179.27584427595139
 1.7075957583140943E9, 0.0, 0.0, 0.0, 0.0
 1.7075957583531084E9, -236.24200040102005, -611.3090871572495, -2021.5804816484451, -215.1788838505745
 1.7075957583531084E9, -228.34333169460297, -499.5309572815895, -1832.2517862915993, -164.91462844610214
 1.7075957583678608E9, -230.7368676662445, -622.3193526268005, -1993.336757183075, -221.16272377967834
 1.7075957583678608E9, -250.84256982803345, -651.5204914808273, -2074.9563338160515, -229.54009968042374
 1.7075957583822536E9, -269.2727968096733, -542.8539583683014, -1880.8405665159225, -169.94105398654938
 1.7075957583822536E9, -250.12450903654099, -592.1607993841171, -1918.4190812706947, -191.48287773132324
 1.7075957583829882E9, -257.7838241457939, -696.5189677476883, -2105.354240655899, -237.67812198400497
 1.7075957583829882E9, -273.3418079614639, -577.7995835542679, -1951.6892312765121, -178.79713708162308
 1.707595758396567E9, -253.7148129940033, -548.1197375059128, -1865.7612898945808, -173.5313579440117
 1.707595758396567E9, -254.43287378549576, -681.6790447235107, -2068.254433095455, -236.72070759534836
 1.7075957584124067E9, -266.87926083803177, -624.2341814041138, -2020.1443600654602, -198.90283924341202
 1.7075957584124067E9, -263.76766407489777, -518.918598651886, -1846.3736485242844, -167.30816441774368
 1.7075957584130082E9, -250.36386263370514, -638.595397233963, -2002.4321938753128, -220.9233701825142
 1.7075957584130082E9, -263.28895688056946, -666.1210609078407, -2079.9827593564987, -215.89694464206696
 1.7075957584267368E9, -270.4695647954941, -542.8539583683014, -1885.3882848620415, -159.4094957113266
 1.7075957584267368E9, -250.84256982803345, -587.6130810379982, -1919.1371420621872, -201.77508240938187
 1.7075957584422812E9, -256.347702562809, -687.1841774582863, -2097.694925546646, -243.18325471878052
 1.7075957584422812E9, -261.6134817004204, -577.3208763599396, -1957.673071205616, -183.344855427742
 1.70759575844315E9, -244.61937630176544, -543.0933119654655, -1872.9418978095055, -186.456452190876
 1.70759575844315E9, -242.7045475244522, -654.8714418411255, -2047.670023739338, -236.4813539981842
 1.7075957584566472E9, -257.06576335430145, -627.8244853615761, -2039.7713550329208, -213.50340867042542
 1.7075957584566472E9, -260.17736011743546, -527.2959745526314, -1857.1445603966713, -170.41976118087769
 1.707595758472778E9, -245.3374370932579, -640.9889332056046, -2005.5437906384468, -234.32717162370682
 1.707595758472778E9, -254.6722273826599, -659.6585137844086, -2075.913748204708, -231.21557486057281
 1.7075957584730823E9, -267.59732162952423, -539.7423616051674, -1885.1489312648773, -178.55778348445892
 1.7075957584730823E9, -246.05549788475037, -589.0492026209831, -1932.5409435033798, -212.0672870874405
 1.7075957584866452E9, -255.15093457698822, -695.5615533590317, -2102.9607046842575, -241.02907234430313
 1.7075957584866452E9, -257.7838241457939, -567.2680252790451, -1942.8331481814384, -185.4990378022194
 1.7075957585023344E9, -236.72070759534836, -541.4178367853165, -1872.223837018013, -187.17451298236847
 1.7075957585023344E9, -241.50777953863144, -675.6952047944069, -2075.913748204708, -245.3374370932579
 1.7075957585029976E9, -260.8954209089279, -625.1915957927704, -2031.8726863265038, -217.09371262788773
 1.7075957585029976E9, -253.236105799675, -519.3973058462143, -1849.9639524817467, -177.36101549863815
 1.7075957585166786E9, -233.3697572350502, -630.9360821247101, -2006.7405586242676, -228.82203888893127
 1.7075957585166786E9, -250.6032162308693, -661.5733425617218, -2080.9401737451553, -226.90721011161804
 1.707595758532663E9, -253.47545939683914, -523.7056705951691, -1877.9683233499527, -175.44618672132492
 1.707595758532663E9, -233.13040363788605, -578.5176443457603, -1925.3603355884552, -207.75892233848572
 1.707595758533105E9, -248.68838745355606, -691.2531886100769, -2106.3116550445557, -245.3374370932579
 1.707595758533105E9, -264.0070176720619, -572.0550972223282, -1953.125352859497, -194.59447449445724
 1.7075957585466392E9, -252.51804500818253, -546.4442623257637, -1875.0960801839828, -194.59447449445724
 1.7075957585466392E9, -243.90131551027298, -685.0299950838089, -2074.7169802188873, -243.66196191310883
 1.7075957585624385E9, -239.5929507613182, -607.479429602623, -2012.006337761879, -193.87641370296478
 1.7075957585624385E9, -231.45492845773697, -502.1638468503952, -1826.2679463624954, -152.70759499073029
 1.707595758562984E9, -230.01880687475204, -639.5528116226196, -2007.6979730129242, -229.54009968042374
 1.707595758562984E9, -248.4490338563919, -659.6585137844086, -2077.589223384857, -224.75302773714066
 1.7075957585766127E9, -248.20968025922775, -519.8760130405426, -1870.3090082406998, -167.54751801490784
 1.7075957585766127E9, -233.60911083221436, -581.3898875117302, -1922.9667996168137, -210.15245831012726
 1.7075957585923183E9, -241.98648673295975, -681.2003375291824, -2106.790362238884, -243.42260831594467
 1.7075957585923183E9, -254.1935201883316, -558.8906493782997, -1945.22668415308, -183.58420902490616
 1.7075957585930336E9, -226.18914932012558, -531.364985704422, -1864.325168311596, -178.79713708162308
 1.7075957585930336E9, -232.17298924922943, -660.1372209787369, -2065.142836332321, -240.55036514997482
 1.7075957586067808E9, -264.0070176720619, -626.8670709729195, -2025.4101392030716, -211.10987269878387
 1.7075957586067808E9, -243.18325471878052, -513.6528195142746, -1837.996272623539, -161.80303168296814
 1.7075957586223643E9, -224.75302773714066, -630.9360821247101, -1996.687707543373, -218.52983421087265
 1.7075957586223643E9, -244.3800227046013, -653.4353202581406, -2073.0415050387383, -221.8807845711708
 1.7075957586231658E9, -247.01291227340698, -521.0727810263634, -1875.8141409754753, -168.02622520923615
 1.7075957586231658E9, -227.38591730594635, -578.5176443457603, -1931.5835291147232, -205.84409356117249
 1.7075957586366327E9, -243.42260831594467, -684.5512878894806, -2103.2000582814217, -248.20968025922775
 1.7075957586366327E9, -253.95416659116745, -568.70414686203, -1952.1679384708405, -189.32869535684586
 1.7075957586523497E9, -237.91747558116913, -542.6146047711372, -1871.9844834208488, -185.73839139938354
 1.7075957586523497E9, -230.97622126340866, -664.6849393248558, -2071.366029858589, -248.20968025922775
 1.707595758653068E9, -251.32127702236176, -621.3619382381439, -2026.128199994564, -217.8117734193802
 1.707595758653068E9, -241.26842594146729, -512.695405125618, -1842.0652837753296, -177.36101549863815
 1.707595758666612E9, -222.59884536266327, -626.8670709729195, -2006.2618514299393, -228.34333169460297
 1.707595758666612E9, -243.66196191310883, -657.264977812767, -2074.238273024559, -230.7368676662445
 1.7075957586834624E9, -243.66196191310883, -523.2269634008408, -1877.4896161556244, -171.8558827638626
 1.7075957586834624E9, -216.61500543355942, -571.3370364308357, -1924.6422747969627, -205.60473996400833
 1.707595758683545E9, -232.8910500407219, -681.4396911263466, -2096.9768647551537, -246.77355867624283
 1.707595758683545E9, -249.16709464788437, -561.5235389471054, -1939.2428442239761, -185.25968420505524
 1.7075957586969757E9, -225.94979572296143, -535.4339968562126, -1868.3941794633865, -190.76481693983078
 1.7075957586969757E9, -222.83819895982742, -669.4720112681389, -2060.116410791874, -242.94390112161636
 1.7075957587127907E9, -241.7471331357956, -615.6174519062042, -2015.5966417193413, -213.98211586475372
 1.7075957587127907E9, -227.86462450027466, -504.55738282203674, -1841.107869386673, -179.27584427595139
 1.7075957587132676E9, -228.1039780974388, -597.4265785217285, -1967.7259222865105, -223.07755255699158
 1.7075957587132676E9, -236.0026468038559, -625.9096565842628, -2026.3675535917282, -225.71044212579727
 1.7075957587268884E9, -214.93953025341034, -554.5822846293449, -1933.4983578920364, -193.15835291147232
 1.7075957587268884E9, -232.8910500407219, -583.5440698862076, -1944.0299161672592, -213.26405507326126
 1.7075957587422976E9, -240.78971874713898, -626.8670709729195, -2022.5378960371017, -226.42850291728973
 1.7075957587422976E9, -228.34333169460297, -587.8524346351624, -1967.2472150921822, -204.1686183810234
 1.707595758743062E9, -226.90721011161804, -573.7305724024773, -1933.9770650863647, -207.99827593564987
 1.707595758743062E9, -251.32127702236176, -630.2180213332176, -2023.4953104257584, -236.4813539981842
 1.7075957587567675E9, -240.78971874713898, -604.8465400338173, -2007.45861941576, -218.05112701654434
 1.7075957587567675E9, -222.83819895982742, -560.3267709612846, -1922.9667996168137, -191.00417053699493
 1.7075957587724268E9, -231.93363565206528, -598.6233465075493, -1972.5129942297935, -208.71633672714233
 1.7075957587724268E9, -233.13040363788605, -614.4206839203835, -2012.2456913590431, -221.4020773768425
 1.7075957587731478E9, -205.60473996400833, -546.922969520092, -1928.4719323515892, -187.17451298236847
 1.7075957587731478E9, -221.4020773768425, -570.140268445015, -1939.4821978211403, -196.03059607744217
 1.7075957587866027E9, -230.49751406908035, -615.1387447118759, -2011.0489233732224, -216.61500543355942
 1.7075957587866027E9, -205.12603276968002, -561.2841853499413, -1952.6466456651688, -196.98801046609879
 1.7075957588023207E9, -206.08344715833664, -547.1623231172562, -1921.2913244366646, -190.04675614833832
 1.7075957588023207E9, -231.69428205490112, -615.6174519062042, -2000.2780115008354, -217.8117734193802
 1.7075957588030424E9, -227.6252709031105, -594.5543353557587, -1986.1561492681503, -201.5357288122177
 1.7075957588030424E9, -203.2112039923668, -542.1358975768089, -1907.4088158011436, -177.36101549863815
 1.7075957588166046E9, -223.31690615415573, -584.0227770805359, -1968.443983078003, -209.4343975186348
 1.7075957588166046E9, -217.8117734193802, -596.2298105359077, -2000.0386579036713, -205.12603276968002
 1.707595758832302E9, -207.04086154699326, -553.6248702406883, -1922.9667996168137, -186.93515938520432
 1.707595758832302E9, -221.4020773768425, -573.4912188053131, -1940.9183194041252, -206.08344715833664
 1.707595758833009E9, -232.65169644355774, -611.0697335600853, -2017.5114704966545, -216.37565183639526
 1.707595758833009E9, -209.9131047129631, -563.1990141272545, -1954.8008280396461, -193.63706010580063
 1.7075957588467133E9, -211.82793349027634, -553.3855166435242, -1920.8126172423363, -187.65322017669678
 1.7075957588467133E9, -225.71044212579727, -608.1974903941154, -1999.559950709343, -214.70017665624619
 1.7075957588625233E9, -220.44466298818588, -590.0066170096397, -1987.5922708511353, -206.56215435266495
 1.7075957588625233E9, -211.34922629594803, -540.4604223966599, -1909.562998175621, -188.37128096818924
 1.7075957588630717E9, -232.17298924922943, -597.4265785217285, -1970.119458258152, -214.93953025341034
 1.7075957588630717E9, -237.19941478967667, -614.6600375175476, -2014.3998737335205, -223.79561334848404
 1.7075957588767693E9, -215.41823744773865, -558.6512957811356, -1934.455772280693, -196.03059607744217
 1.7075957588767693E9, -224.27432054281235, -581.8685947060585, -1950.2531096935272, -208.47698312997818
 1.70759575889262E9, -234.56652522087097, -617.5322806835175, -2025.6494928002357, -228.34333169460297
 1.70759575889262E9, -214.46082305908203, -571.0976828336716, -1954.561474442482, -195.3125352859497
 1.707595758893148E9, -210.15245831012726, -557.4545277953148, -1915.5468381047249, -182.62679463624954
 1.707595758893148E9, -227.38591730594635, -604.367832839489, -1993.8154643774033, -210.63116550445557
 1.7075957589069796E9, -216.37565183639526, -584.5014842748642, -1977.5394197702408, -201.77508240938187
 1.7075957589069796E9, -197.4667176604271, -538.3062400221825, -1903.339804649353, -177.36101549863815
 1.7075957589226134E9, -231.21557486057281, -596.4691641330719, -1973.4704086184502, -213.0247014760971
 1.7075957589226134E9, -230.01880687475204, -607.2400760054588, -2006.2618514299393, -211.10987269878387
 1.7075957589231243E9, -199.14219284057617, -539.5030080080032, -1915.5468381047249, -184.06291621923447
 1.7075957589231243E9, -218.52983421087265, -569.6615612506866, -1936.6099546551704, -202.97185039520264
 1.7075957589370964E9, -231.21557486057281, -614.4206839203835, -2012.2456913590431, -222.12013816833496
 1.7075957589370964E9, -207.99827593564987, -568.9435004591942, -1946.662805736065, -187.17451298236847
 1.707595758952754E9, -217.33306622505188, -560.5661245584488, -1925.120981991291, -202.73249679803848
 1.707595758952754E9, -235.04523241519928, -610.3516727685928, -2004.347022652626, -224.5136741399765
 1.7075957589532056E9, -222.83819895982742, -593.596920967102, -1984.241320490837, -200.0996072292328
 1.7075957589532056E9, -207.04086154699326, -547.6410303115845, -1912.4352413415909, -193.63706010580063
 1.70759575896702E9, -233.3697572350502, -591.921445786953, -1978.018126964569, -220.68401658535004
 1.70759575896702E9, -233.3697572350502, -609.6336119771004, -2008.1766802072525, -222.59884536266327
 1.7075957589827583E9, -212.0672870874405, -554.1035774350166, -1924.4029211997986, -188.37128096818924
 1.7075957589827583E9, -220.9233701825142, -565.592550098896, -1934.6951258778572, -198.18477845191956
 1.707595758983179E9, -236.24200040102005, -612.9845623373985, -2010.570216178894, -215.6575910449028
 1.707595758983179E9, -214.70017665624619, -572.0550972223282, -1950.9711704850197, -189.32869535684586
 1.7075957589966114E9, -205.36538636684418, -546.2049087285995, -1912.9139485359192, -187.41386657953262
 1.7075957589966114E9, -223.07755255699158, -600.0594680905342, -1996.687707543373, -215.1788838505745
 1.707595759012314E9, -217.09371262788773, -584.5014842748642, -1986.8742100596428, -207.04086154699326
 1.707595759012314E9, -208.71633672714233, -540.699775993824, -1910.7597661614418, -186.93515938520432
 1.707595759013046E9, -229.54009968042374, -600.2988216876984, -1972.9917014241219, -218.7691878080368
 1.707595759013046E9, -232.65169644355774, -612.9845623373985, -2013.9211665391922, -221.4020773768425
 1.7075957590266244E9, -226.90721011161804, -569.1828540563583, -1945.4660377502441, -205.36538636684418
 1.7075957590266244E9, -240.31101155281067, -594.5543353557587, -1959.348546385765, -219.00854140520096
 1.7075957590428255E9, -243.90131551027298, -633.5689716935158, -2033.0694543123245, -242.7045475244522
 1.7075957590428255E9, -232.8910500407219, -598.8627001047134, -1980.890370130539, -220.44466298818588
 1.7075957590434072E9, -240.55036514997482, -589.7672634124756, -1950.2531096935272, -222.12013816833496
 1.7075957590434072E9, -268.07602882385254, -657.264977812767, -2043.6010125875473, -259.21994572877884
 1.7075957590566263E9, -254.6722273826599, -631.4147893190384, -2028.2823823690414, -241.02907234430313
 1.7075957590566263E9, -252.27869141101837, -598.3839929103851, -1956.7156568169594, -223.55625975131989
 1.7075957590724666E9, -264.7250784635544, -647.6908339262009, -2009.6128017902374, -241.7471331357956
 1.7075957590724666E9, -266.1612000465393, -656.0682098269463, -2041.2074766159058, -240.07165795564651
 1.7075957590732508E9, -242.2258403301239, -587.8524346351624, -1961.2633751630783, -214.22146946191788
 1.7075957590732508E9, -253.236105799675, -603.8891256451607, -1972.9917014241219, -230.49751406908035
 1.7075957590866573E9, -262.33154249191284, -657.9830386042595, -2051.020974099636, -247.9703266620636
 1.7075957590866573E9, -240.07165795564651, -603.1710648536682, -1982.565845310688, -219.48724859952927
 1.70759575910231E9, -250.36386263370514, -593.1182137727737, -1949.0563417077065, -221.8807845711708
 1.70759575910231E9, -261.6134817004204, -647.4514803290367, -2029.7185039520264, -245.3374370932579
 1.7075957591030095E9, -251.32127702236176, -627.8244853615761, -2010.0915089845657, -228.1039780974388
 1.7075957591030095E9, -237.67812198400497, -584.7408378720284, -1945.9447449445724, -214.93953025341034
 1.7075957591166003E9, -269.2727968096733, -635.0050932765007, -2009.6128017902374, -245.09808349609375
 1.7075957591166003E9, -261.13477450609207, -647.6908339262009, -2037.3778190612793, -240.31101155281067
 1.7075957591323152E9, -247.73097306489944, -599.3414072990417, -1966.7685078978539, -221.64143097400665
 1.7075957591323152E9, -265.2037856578827, -619.2077558636665, -1996.9270611405373, -251.5606306195259
 1.7075957591330051E9, -269.99085760116577, -666.1210609078407, -2064.903482735157, -265.2037856578827
 1.7075957591330051E9, -245.3374370932579, -611.0697335600853, -1994.2941715717316, -232.65169644355774
 1.7075957591467285E9, -252.99675220251083, -600.0594680905342, -1959.8272535800934, -233.3697572350502
 1.7075957591467285E9, -270.4695647954941, -653.6746738553047, -2048.6274381279945, -262.81024968624115
 1.7075957591622543E9, -252.75739860534668, -623.5161206126213, -2025.1707856059074, -246.05549788475037
 1.7075957591622543E9, -250.6032162308693, -592.8788601756096, -1955.7582424283028, -234.32717162370682
 1.7075957591629684E9, -257.06576335430145, -630.2180213332176, -2007.6979730129242, -244.14066910743713
 1.7075957591629684E9, -251.5606306195259, -629.0212533473969, -2034.0268687009811, -241.02907234430313
 1.7075957591768048E9, -233.8484644293785, -580.4324731230736, -1954.3221208453178, -210.63116550445557
 1.7075957591768048E9, -242.2258403301239, -602.9317112565041, -1971.0768726468086, -224.27432054281235
 1.7075957591922672E9, -260.4167137145996, -647.6908339262009, -2044.0797197818756, -251.79998421669006
 1.7075957591922672E9, -241.7471331357956, -593.8362745642662, -1986.6348564624786, -225.47108852863312
 1.707595759192973E9, -234.80587881803513, -585.4588986635208, -1948.338280916214, -216.61500543355942
 1.707595759192973E9, -255.62964177131653, -639.3134580254555, -2026.6069071888924, -239.1142435669899
 1.707595759206875E9, -240.78971874713898, -609.3942583799362, -2004.5863762497902, -223.79561334848404
 1.707595759206875E9, -225.71044212579727, -571.815743625164, -1936.6099546551704, -212.5459942817688
 1.7075957592224157E9, -249.40644824504852, -616.814219892025, -1998.3631827235222, -237.19941478967667
 1.7075957592224157E9, -253.95416659116745, -633.5689716935158, -2030.9152719378471, -241.98648673295975
 1.7075957592230237E9, -229.7794532775879, -570.140268445015, -1951.6892312765121, -212.0672870874405
 1.7075957592230237E9, -235.04523241519928, -589.5279098153114, -1963.1782039403915, -221.16272377967834
 1.7075957592368383E9, -249.88515543937683, -637.1592756509781, -2029.9578575491905, -242.2258403301239
 1.7075957592368383E9, -219.96595579385757, -577.5602299571037, -1967.2472150921822, -207.04086154699326
 1.70759575925253E9, -221.4020773768425, -568.2254396677017, -1934.9344794750214, -210.63116550445557
 1.70759575925253E9, -238.6355363726616, -617.5322806835175, -2015.3572881221771, -236.4813539981842
 1.707595759253021E9, -238.6355363726616, -604.6071864366531, -1999.3205971121788, -222.35949176549911
 1.707595759253021E9, -228.34333169460297, -568.4647932648659, -1934.455772280693, -197.70607125759125
 1.7075957592666175E9, -227.86462450027466, -590.0066170096397, -1980.1723093390465, -205.60473996400833
 1.7075957592666175E9, -232.17298924922943, -598.6233465075493, -2002.910901069641, -199.62090003490448
 1.7075957592829385E9, -210.63116550445557, -538.5455936193466, -1922.2487388253212, -171.3771755695343
 1.7075957592829385E9, -224.75302773714066, -571.3370364308357, -1936.6099546551704, -184.78097701072693
 1.7075957592837057E9, -249.16709464788437, -622.0799990296364, -2006.0224978327751, -202.01443600654602
 1.7075957592837057E9, -223.07755255699158, -562.480953335762, -1935.4131866693497, -169.94105398654938
 1.7075957592965584E9, -223.79561334848404, -558.1725885868073, -1913.6320093274117, -173.77071154117584
 1.7075957592965584E9, -243.66196191310883, -610.3516727685928, -1989.0283924341202, -201.77508240938187
 1.7075957593122792E9, -219.72660219669342, -579.7144123315811, -1976.1032981872559, -186.69580578804016
 1.7075957593122792E9, -214.22146946191788, -550.5132734775543, -1911.4778269529343, -173.05265074968338
 1.7075957593130128E9, -236.72070759534836, -596.9478713274002, -1970.5981654524803, -198.66348564624786
 1.7075957593130128E9, -228.58268529176712, -596.2298105359077, -1996.687707543373, -198.4241320490837
 1.7075957593265812E9, -213.98211586475372, -558.6512957811356, -1918.897788465023, -169.94105398654938
 1.7075957593265812E9, -236.24200040102005, -579.475058734417, -1943.790562570095, -190.76481693983078
 1.7075957593419487E9, -236.24200040102005, -605.3252472281456, -2006.9799122214317, -208.71633672714233
 1.7075957593419487E9, -220.44466298818588, -567.9860860705376, -1949.2956953048706, -184.54162341356277
 1.707595759357492E9, -236.9600611925125, -607.2400760054588, -1995.9696467518806, -209.19504392147064
 1.707595759357492E9, -223.55625975131989, -582.586655497551, -1978.4968341588974, -198.18477845191956
 1.707595759357999E9, -214.46082305908203, -553.14616304636, -1920.333910048008, -182.3874410390854
 1.707595759357999E9, -242.46519392728806, -604.1284792423248, -1976.1032981872559, -205.60473996400833
 1.7075957593716817E9, -234.56652522087097, -605.8039544224739, -2005.3044370412827, -212.30664068460464
 1.7075957593716817E9, -214.46082305908203, -552.4281022548676, -1929.4293467402458, -186.69580578804016
 1.707595759387306E9, -236.4813539981842, -581.3898875117302, -1945.7053913474083, -202.97185039520264
 1.707595759387306E9, -248.92774105072021, -625.1915957927704, -2011.5276305675507, -213.0247014760971
 1.707595759387986E9, -214.70017665624619, -570.140268445015, -1950.2531096935272, -184.54162341356277
 1.707595759387986E9, -229.54009968042374, -566.0712572932243, -1929.9080539345741, -193.63706010580063
 1.7075957594016027E9, -247.9703266620636, -621.3619382381439, -2004.347022652626, -212.78534787893295
 1.7075957594016027E9, -225.94979572296143, -594.3149817585945, -1982.8051989078522, -199.38154643774033
 1.7075957594172623E9, -218.52983421087265, -551.7100414633751, -1924.6422747969627, -192.91899931430817
 1.7075957594172623E9, -238.15682917833328, -599.82011449337, -1972.2736406326294, -206.08344715833664
 1.7075957594179873E9, -237.19941478967667, -609.8729655742645, -2000.5173650979996, -210.3918119072914
 1.7075957594179873E9, -213.26405507326126, -558.1725885868073, -1923.9242140054703, -178.31842988729477
 1.7075957594315925E9, -231.45492845773697, -579.2357051372528, -1941.3970265984535, -192.2009385228157
 1.7075957594315925E9, -236.24200040102005, -608.9155511856079, -2009.3734481930733, -212.5459942817688
 1.7075957594478621E9, -215.41823744773865, -568.2254396677017, -1947.3808665275574, -185.4990378022194
 1.7075957594478621E9, -216.61500543355942, -564.3957821130753, -1921.5306780338287, -187.89257377386093
 1.7075957594481752E9, -237.19941478967667, -612.2665015459061, -1993.8154643774033, -213.50340867042542
 1.7075957594481752E9, -226.6678565144539, -583.5440698862076, -1979.454248547554, -199.14219284057617
 1.7075957594619367E9, -213.98211586475372, -550.7526270747185, -1914.5894237160683, -183.344855427742
 1.7075957594619367E9, -234.56652522087097, -594.5543353557587, -1973.9491158127785, -204.88667917251587
 1.7075957594772313E9, -234.80587881803513, -607.2400760054588, -1998.6025363206863, -210.3918119072914
 1.7075957594772313E9, -211.34922629594803, -555.3003454208374, -1928.232578754425, -187.65322017669678
 1.7075957594779384E9, -224.75302773714066, -574.2092795968056, -1944.9873305559158, -205.12603276968002
 1.7075957594779384E9, -239.83230435848236, -615.6174519062042, -2007.9373266100883, -211.82793349027634
 1.7075957594920812E9, -213.0247014760971, -562.2415997385979, -1947.6202201247215, -192.2009385228157
 1.7075957594920812E9, -223.31690615415573, -558.8906493782997, -1923.445506811142, -189.80740255117416
 1.7075957595075052E9, -248.4490338563919, -617.7716342806816, -2001.235425889492, -217.57241982221603
 1.7075957595075052E9, -225.23173493146896, -587.8524346351624, -1974.667176604271, -190.52546334266663
 1.7075957595079808E9, -212.5459942817688, -549.3165054917336, -1913.8713629245758, -181.66938024759293
 1.7075957595079808E9, -234.80587881803513, -603.4104184508324, -1973.231055021286, -212.0672870874405
 1.7075957595219893E9, -243.18325471878052, -613.4632695317268, -2011.0489233732224, -224.0349669456482
 1.7075957595219893E9, -222.83819895982742, -560.805478155613, -1931.104821920395, -189.80740255117416
 1.7075957595374708E9, -224.9923813343048, -569.1828540563583, -1936.3706010580063, -194.3551208972931
 1.7075957595374708E9, -240.78971874713898, -607.9581367969513, -1991.4219284057617, -196.74865686893463
 1.7075957595381207E9, -225.47108852863312, -571.3370364308357, -1938.5247834324837, -175.44618672132492
 1.7075957595381207E9, -224.0349669456482, -557.6938813924789, -1917.222313284874, -179.51519787311554
 1.7075957595515409E9, -248.92774105072021, -611.3090871572495, -1995.012232363224, -206.56215435266495
 1.7075957595515409E9, -228.34333169460297, -588.3311418294907, -1973.4704086184502, -189.80740255117416
 1.7075957595673616E9, -220.9233701825142, -552.9068094491959, -1907.887522995472, -173.05265074968338
 1.7075957595673616E9, -238.87488996982574, -595.033042550087, -1962.460143148899, -195.55188888311386
 1.7075957595680678E9, -228.82203888893127, -596.2298105359077, -1986.1561492681503, -191.96158492565155
 1.7075957595680678E9, -213.74276226758957, -554.5822846293449, -1915.5468381047249, -172.57394355535507
 1.707595759581931E9, -227.86462450027466, -577.7995835542679, -1938.5247834324837, -188.37128096818924
 1.707595759581931E9, -240.55036514997482, -613.9419767260551, -2003.1502546668053, -205.84409356117249
 1.70759575959771E9, -220.9233701825142, -568.4647932648659, -1939.4821978211403, -179.03649067878723
 1.70759575959771E9, -217.8117734193802, -558.1725885868073, -1919.8552028536797, -181.90873384475708
 1.707595759598234E9, -240.78971874713898, -606.7613688111305, -1989.7464532256126, -207.75892233848572
 1.707595759598234E9, -216.1362982392311, -578.9963515400887, -1965.0930327177048, -187.89257377386093
 1.7075957596117156E9, -207.04086154699326, -544.7687871456146, -1910.2810589671135, -177.83972269296646
 1.7075957596117156E9, -230.7368676662445, -585.4588986635208, -1968.683336675167, -201.5357288122177
 1.707595759627929E9, -230.97622126340866, -601.256236076355, -1999.3205971121788, -210.15245831012726
 1.707595759627929E9, -215.89694464206696, -561.5235389471054, -1929.66870033741, -190.04675614833832
 1.7075957596281877E9, -236.9600611925125, -587.373727440834, -1957.4337176084518, -209.9131047129631
 1.7075957596281877E9, -243.42260831594467, -617.5322806835175, -2003.1502546668053, -207.75892233848572
 1.7075957596419847E9, -211.82793349027634, -564.3957821130753, -1943.3118553757668, -178.79713708162308
 1.7075957596419847E9, -214.70017665624619, -554.1035774350166, -1908.6055837869644, -171.61652916669846
 1.7075957596576412E9, -239.1142435669899, -604.1284792423248, -1990.225160419941, -202.49314320087433
 1.7075957596576412E9, -224.75302773714066, -583.3047162890434, -1965.571739912033, -185.25968420505524
 1.7075957596581888E9, -211.82793349027634, -545.0081407427788, -1910.2810589671135, -178.79713708162308
 1.7075957596581888E9, -231.93363565206528, -590.2459706068039, -1970.3588118553162, -203.6899111866951
 1.7075957596718805E9, -224.27432054281235, -594.0756281614304, -1992.1399891972542, -199.38154643774033
 1.7075957596718805E9, -232.17298924922943, -566.5499644875526, -1936.6099546551704, -197.70607125759125
 1.7075957596876457E9, -248.92774105072021, -603.1710648536682, -1969.4013974666595, -219.72660219669342
 1.7075957596876457E9, -214.22146946191788, -596.4691641330719, -1991.4219284057617, -199.86025363206863
 1.7075957596881275E9, -198.18477845191956, -549.0771518945694, -1928.4719323515892, -176.16424751281738
 1.7075957596881275E9, -194.11576730012894, -532.5617536902428, -1901.903683066368, -172.57394355535507
 1.7075957597016847E9, -213.26405507326126, -581.6292411088943, -1973.9491158127785, -201.77508240938187
 1.7075957597016847E9, -190.76481693983078, -553.6248702406883, -1949.0563417077065, -184.06291621923447
 1.7075957597173812E9, -171.13782197237015, -505.51479721069336, -1880.3618593215942, -157.2553133368492
 1.7075957597173812E9, -196.03059607744217, -556.0184062123299, -1940.9183194041252, -194.59447449445724
 1.7075957597181053E9, -191.2435241341591, -550.034566283226, -1954.0827672481537, -175.68554031848907
 1.7075957597181053E9, -172.81329715251923, -516.0463554859161, -1885.1489312648773, -154.1437165737152
 1.7075957597315912E9, -188.84998816251755, -536.3914112448692, -1908.126876592636, -172.09523636102676
 1.7075957597315912E9, -205.60473996400833, -579.2357051372528, -1977.5394197702408, -189.56804895401
 1.7075957597472963E9, -180.233258664608, -526.0992065668106, -1909.8023517727852, -157.97337412834167
 1.7075957597472963E9, -187.17451298236847, -526.0992065668106, -1899.7495006918907, -168.02622520923615
 1.7075957597480505E9, -207.2802151441574, -574.6879867911339, -1963.6569111347198, -184.30226981639862
 1.7075957597480505E9, -192.44029211997986, -555.7790526151657, -1945.4660377502441, -169.46234679222107
 1.7075957597616508E9, -184.54162341356277, -518.6792450547218, -1893.0475999712944, -167.54751801490784
 1.7075957597616508E9, -207.04086154699326, -572.2944508194923, -1952.6466456651688, -195.07318168878555
 1.707595759777432E9, -206.56215435266495, -578.9963515400887, -1973.231055021286, -189.0893417596817
 1.707595759777432E9, -185.73839139938354, -530.4075713157654, -1902.8610974550247, -170.65911477804184
 1.707595759778494E9, -201.0570216178894, -557.2151741981506, -1930.8654683232307, -190.04675614833832
 1.707595759778494E9, -216.37565183639526, -592.1607993841171, -1988.0709780454636, -204.1686183810234
 1.7075957597919412E9, -191.00417053699493, -545.7262015342712, -1938.2854298353195, -184.78097701072693
 1.7075957597919412E9, -196.03059607744217, -539.9817152023315, -1916.9829596877098, -192.44029211997986
 1.707595759807333E9, -211.34922629594803, -590.0066170096397, -1991.4219284057617, -219.48724859952927
 1.707595759807333E9, -202.25378960371017, -570.6189756393433, -1962.9388503432274, -194.59447449445724
 1.7075957598080184E9, -199.86025363206863, -543.3326655626297, -1911.9565341472626, -186.69580578804016
 1.7075957598080184E9, -219.2478950023651, -579.9537659287453, -1973.9491158127785, -213.98211586475372
 1.707595759821674E9, -215.6575910449028, -592.6395065784454, -1994.7728787660599, -216.85435903072357
 1.707595759821674E9, -193.39770650863647, -541.1784831881523, -1919.1371420621872, -182.8661482334137
 1.707595759837328E9, -211.10987269878387, -569.4222076535225, -1937.8067226409912, -205.12603276968002
 1.707595759837328E9, -219.48724859952927, -602.6923576593399, -2001.4747794866562, -220.68401658535004
 1.7075957598380222E9, -196.50930327177048, -553.8642238378525, -1936.1312474608421, -183.58420902490616
 1.7075957598380222E9, -200.5783144235611, -550.034566283226, -1914.5894237160683, -183.344855427742
 1.7075957598516307E9, -213.74276226758957, -589.0492026209831, -1981.6084309220314, -202.97185039520264
 1.7075957598516307E9, -202.25378960371017, -573.0125116109848, -1964.3749719262123, -192.2009385228157
 1.7075957598673987E9, -199.14219284057617, -538.3062400221825, -1910.0417053699493, -188.37128096818924
 1.7075957598673987E9, -214.22146946191788, -573.7305724024773, -1965.0930327177048, -209.4343975186348
 1.7075957598680143E9, -210.63116550445557, -584.0227770805359, -1984.9593812823296, -207.04086154699326
 1.7075957598680143E9, -196.50930327177048, -539.5030080080032, -1910.0417053699493, -176.88230830430984
 1.707595759881663E9, -209.4343975186348, -559.6087101697922, -1937.567369043827, -200.33896082639694
 1.707595759881663E9, -231.93363565206528, -614.4206839203835, -2015.8359953165054, -221.16272377967834
 1.7075957598973172E9, -209.4343975186348, -570.6189756393433, -1953.125352859497, -199.38154643774033
 1.7075957598973172E9, -206.8015079498291, -553.6248702406883, -1926.3177499771118, -195.55188888311386
 1.707595759898033E9, -227.86462450027466, -607.0007224082947, -2000.7567186951637, -222.35949176549911
 1.707595759898033E9, -222.59884536266327, -588.0917882323265, -1978.2574805617332, -207.2802151441574
 1.7075957599118135E9, -204.64732557535172, -546.922969520092, -1920.0945564508438, -188.37128096818924
 1.7075957599118135E9, -236.9600611925125, -609.6336119771004, -1988.5496852397919, -224.5136741399765
 1.707595759927332E9, -225.47108852863312, -603.6497720479965, -2007.6979730129242, -226.6678565144539
 1.707595759927332E9, -198.4241320490837, -550.034566283226, -1932.0622363090515, -191.48287773132324
 1.7075957599280367E9, -210.63116550445557, -579.7144123315811, -1943.0725017786026, -200.5783144235611
 1.7075957599280367E9, -231.69428205490112, -612.9845623373985, -2009.1340945959091, -220.68401658535004
 1.7075957599420016E9, -206.08344715833664, -558.6512957811356, -1947.8595737218857, -192.2009385228157
 1.7075957599420016E9, -214.46082305908203, -567.7467324733734, -1930.1474075317383, -191.00417053699493
 1.7075957599575903E9, -233.60911083221436, -616.5748662948608, -2002.910901069641, -214.46082305908203
 1.7075957599575903E9, -211.58857989311218, -578.038937151432, -1972.5129942297935, -195.79124248027802
 1.7075957599580727E9, -207.75892233848572, -554.8216382265091, -1913.3926557302475, -183.10550183057785
 1.7075957599580727E9, -226.6678565144539, -595.9904569387436, -1968.443983078003, -208.71633672714233
 1.7075957599716258E9, -226.18914932012558, -601.0168824791908, -1992.3793427944183, -205.60473996400833
 1.7075957599716258E9, -200.5783144235611, -547.8803839087486, -1916.2648988962173, -177.36101549863815
 1.7075957599873168E9, -218.2904806137085, -573.4912188053131, -1936.1312474608421, -193.15835291147232
 1.7075957599873168E9, -229.06139248609543, -609.1549047827721, -2000.2780115008354, -207.51956874132156
 1.7075957599879987E9, -210.87051910161972, -573.251865208149, -1942.115087389946, -184.06291621923447
 1.7075957599879987E9, -214.46082305908203, -569.4222076535225, -1928.232578754425, -198.18477845191956
 1.7075957600016775E9, -228.34333169460297, -603.6497720479965, -1999.799304306507, -223.55625975131989
 1.7075957600016775E9, -215.41823744773865, -585.9376058578491, -1972.7523478269577, -198.66348564624786
 1.7075957600172925E9, -207.99827593564987, -556.0184062123299, -1911.7171805500984, -184.06291621923447
 1.7075957600172925E9, -232.41234284639359, -603.4104184508324, -1979.2148949503899, -219.96595579385757
 1.7075957600180051E9, -227.38591730594635, -603.6497720479965, -1995.4909395575523, -212.30664068460464
 1.7075957600180051E9, -209.9131047129631, -557.6938813924789, -1925.3603355884552, -189.56804895401
 1.7075957600316048E9, -224.9923813343048, -585.4588986635208, -1954.0827672481537, -216.37565183639526
 1.7075957600316048E9, -211.58857989311218, -603.8891256451607, -2001.7141330838203, -216.85435903072357
 1.7075957600472865E9, -183.10550183057785, -551.7100414633751, -1933.4983578920364, -185.73839139938354
 1.7075957600472865E9, -187.17451298236847, -553.8642238378525, -1917.9403740763664, -198.66348564624786
 1.707595760048E9, -212.0672870874405, -599.3414072990417, -1992.1399891972542, -222.59884536266327
 1.707595760048E9, -187.65322017669678, -575.6454011797905, -1971.794933438301, -209.19504392147064
 1.707595760061652E9, -178.55778348445892, -538.5455936193466, -1910.2810589671135, -186.69580578804016
 1.707595760061652E9, -209.19504392147064, -592.8788601756096, -1973.7097622156143, -223.55625975131989
 1.7075957600773385E9, -195.79124248027802, -586.6556666493416, -1987.113563656807, -220.68401658535004
 1.7075957600773385E9, -177.6003690958023, -541.6571903824806, -1916.0255452990532, -186.21709859371185
 1.7075957600780432E9, -197.9454248547554, -568.4647932648659, -1940.9183194041252, -208.71633672714233
 1.7075957600780432E9, -206.8015079498291, -603.1710648536682, -1996.2090003490448, -217.09371262788773
 1.7075957600919666E9, -190.28610974550247, -561.2841853499413, -1943.0725017786026, -196.03059607744217
 1.7075957600919666E9, -192.91899931430817, -550.5132734775543, -1923.2061532139778, -198.66348564624786
 1.7075957601077387E9, -213.74276226758957, -597.1872249245644, -1994.7728787660599, -222.12013816833496
 1.7075957601077387E9, -202.97185039520264, -581.150533914566, -1972.7523478269577, -211.34922629594803
 1.707595760108348E9, -189.80740255117416, -547.6410303115845, -1911.4778269529343, -196.26994967460632
 1.707595760108348E9, -218.05112701654434, -595.2723961472511, -1978.4968341588974, -226.42850291728973
 1.707595760121836E9, -202.25378960371017, -590.2459706068039, -1990.7038676142693, -213.74276226758957
 1.707595760121836E9, -191.48287773132324, -554.5822846293449, -1923.2061532139778, -196.50930327177048
 1.707595760137718E9, -208.71633672714233, -578.5176443457603, -1955.2795352339745, -219.72660219669342
 1.707595760137718E9, -221.64143097400665, -612.9845623373985, -2015.3572881221771, -230.2581604719162
 1.707595760138193E9, -200.5783144235611, -575.4060475826263, -1964.1356183290482, -217.33306622505188
 1.707595760138193E9, -197.70607125759125, -568.9435004591942, -1943.0725017786026, -224.27432054281235
 1.7075957601519787E9, -217.57241982221603, -614.4206839203835, -2007.45861941576, -239.1142435669899
 1.7075957601519787E9, -197.9454248547554, -581.150533914566, -1976.8213589787483, -214.70017665624619
 1.7075957601674948E9, -187.89257377386093, -546.2049087285995, -1915.786191701889, -199.86025363206863
 1.7075957601674948E9, -212.30664068460464, -596.9478713274002, -1980.1723093390465, -223.55625975131989
 1.7075957601682177E9, -210.63116550445557, -595.2723961472511, -1997.4057683348656, -214.46082305908203
 1.7075957601682177E9, -186.93515938520432, -544.7687871456146, -1920.5732636451721, -190.52546334266663
 1.707595760181612E9, -213.98211586475372, -586.8950202465057, -1954.8008280396461, -214.46082305908203
 1.707595760181612E9, -233.13040363788605, -620.6438774466515, -2021.5804816484451, -235.28458601236343
 1.7075957601974108E9, -202.73249679803848, -568.4647932648659, -1954.3221208453178, -207.99827593564987
 1.7075957601974108E9, -201.0570216178894, -560.3267709612846, -1929.9080539345741, -204.88667917251587
 1.7075957601982942E9, -222.12013816833496, -621.8406454324722, -2004.8257298469543, -234.08781802654266
 1.7075957601982942E9, -206.3228007555008, -589.5279098153114, -1983.2839061021805, -215.41823744773865
 1.7075957602119174E9, -205.60473996400833, -561.0448317527771, -1926.0783963799477, -205.12603276968002
 1.7075957602119174E9, -235.76329320669174, -613.702623128891, -1988.5496852397919, -232.65169644355774
 1.7075957602274044E9, -221.64143097400665, -618.7290486693382, -2008.6553874015808, -230.49751406908035
 1.7075957602274044E9, -186.69580578804016, -550.9919806718826, -1922.009385228157, -191.96158492565155
 1.707595760228038E9, -207.51956874132156, -575.8847547769547, -1952.885999262333, -211.82793349027634
 1.707595760228038E9, -215.89694464206696, -614.8993911147118, -2013.442459344864, -228.82203888893127
 1.707595760241611E9, -194.3551208972931, -571.815743625164, -1953.125352859497, -207.04086154699326
 1.707595760241611E9, -202.97185039520264, -563.4383677244186, -1932.0622363090515, -207.04086154699326
 1.7075957602582188E9, -229.7794532775879, -618.4896950721741, -2008.1766802072525, -233.13040363788605
 1.7075957602582188E9, -210.63116550445557, -592.1607993841171, -1984.7200276851654, -211.34922629594803
 1.7075957602582545E9, -201.77508240938187, -555.7790526151657, -1923.2061532139778, -196.50930327177048
 1.7075957602582545E9, -222.35949176549911, -604.6071864366531, -1984.7200276851654, -223.07755255699158
 1.7075957602716107E9, -207.51956874132156, -595.033042550087, -2001.9534866809845, -215.6575910449028
 1.7075957602716107E9, -189.80740255117416, -551.2313342690468, -1928.9506395459175, -194.3551208972931
 1.707595760287399E9, -205.84409356117249, -577.5602299571037, -1949.5350489020348, -208.9556903243065
 1.707595760287399E9, -222.12013816833496, -626.3883637785912, -2021.341128051281, -236.9600611925125
 1.707595760288061E9, -207.2802151441574, -579.475058734417, -1956.4763032197952, -210.87051910161972
 1.707595760288061E9, -200.81766802072525, -571.0976828336716, -1930.6261147260666, -202.73249679803848
 1.707595760317973E9, -230.01880687475204, -624.9522421956062, -2016.793409705162, -234.56652522087097
 1.707595760317973E9, -202.49314320087433, -583.3047162890434, -1986.3955028653145, -210.3918119072914
 1.70759576031874E9, -195.55188888311386, -552.6674558520317, -1927.5145179629326, -201.29637521505356
 1.70759576031874E9, -224.0349669456482, -604.6071864366531, -1984.4806740880013, -222.35949176549911
 1.707595760319461E9, -215.41823744773865, -600.0594680905342, -2005.0650834441185, -221.64143097400665
 1.707595760319461E9, -199.38154643774033, -557.6938813924789, -1932.3015899062157, -202.73249679803848
 1.707595760331646E9, -214.22146946191788, -577.0815227627754, -1953.125352859497, -215.6575910449028
 1.707595760331646E9, -219.00854140520096, -613.9419767260551, -2010.8095697760582, -222.59884536266327
 1.7075957603467278E9, -197.70607125759125, -564.1564285159111, -1950.7318168878555, -193.63706010580063
 1.7075957603467278E9, -206.3228007555008, -572.0550972223282, -1933.2590042948723, -202.73249679803848
 1.7075957603626392E9, -203.6899111866951, -589.0492026209831, -1982.3264917135239, -215.1788838505745
 1.7075957603626392E9, -199.62090003490448, -554.3429310321808, -1922.009385228157, -192.91899931430817
 1.7075957603630147E9, -220.20530939102173, -598.3839929103851, -1975.8639445900917, -213.98211586475372
 1.7075957603630147E9, -210.87051910161972, -599.3414072990417, -1995.2515859603882, -210.15245831012726
 1.707595760376603E9, -196.50930327177048, -552.4281022548676, -1925.5996891856194, -194.11576730012894
 1.707595760376603E9, -218.05112701654434, -583.7834234833717, -1950.4924632906914, -209.4343975186348
 1.707595760392602E9, -230.49751406908035, -623.9948278069496, -2016.0753489136696, -232.41234284639359
 1.707595760392602E9, -203.2112039923668, -571.0976828336716, -1955.5188888311386, -204.40797197818756
 1.707595760393195E9, -209.4343975186348, -570.140268445015, -1941.1576730012894, -211.58857989311218
 1.707595760393195E9, -224.9923813343048, -609.6336119771004, -2014.6392273306847, -234.08781802654266
 1.7075957604232247E9, -206.8015079498291, -590.9640313982964, -1979.9329557418823, -206.3228007555008
 1.7075957604232247E9, -205.12603276968002, -560.805478155613, -1929.9080539345741, -197.4667176604271
 1.7075957604237516E9, -224.9923813343048, -607.479429602623, -1995.2515859603882, -228.34333169460297
 1.7075957604237516E9, -214.70017665624619, -598.3839929103851, -2005.0650834441185, -223.55625975131989
 1.7075957604244711E9, -222.35949176549911, -583.7834234833717, -1950.9711704850197, -218.2904806137085
 1.7075957604244711E9, -240.55036514997482, -615.8568055033684, -1983.2839061021805, -243.66196191310883
 1.7075957604366264E9, -217.09371262788773, -607.479429602623, -2005.783144235611, -219.72660219669342
 1.7075957604366264E9, -186.69580578804016, -561.7628925442696, -1943.0725017786026, -199.14219284057617
 1.707595760452292E9, -178.07907629013062, -544.2900799512863, -1914.3500701189041, -193.87641370296478
 1.707595760452292E9, -180.233258664608, -576.363461971283, -1974.4278230071068, -208.23762953281403
 1.707595760453118E9, -156.7766061425209, -536.3914112448692, -1940.678965806961, -189.80740255117416
 1.707595760453118E9, -136.4315503835678, -492.58970296382904, -1869.3515938520432, -162.5210924744606
 1.7075957604666545E9, -141.93668311834335, -521.7908418178558, -1920.8126172423363, -181.19067305326462
 1.7075957604666545E9, -147.20246225595474, -529.2108033299446, -1945.7053913474083, -177.6003690958023
 1.707595760482277E9, -120.39485937356949, -470.808525621891, -1856.4264996051788, -137.86767196655273
 1.707595760482277E9, -143.13345110416412, -506.2328580021858, -1885.6276384592056, -160.60626369714737
 1.7075957604829974E9, -157.97337412834167, -543.3326655626297, -1955.7582424283028, -190.28610974550247
 1.7075957604829974E9, -143.85151189565659, -497.13742130994797, -1900.228207886219, -171.8558827638626
 1.7075957604966164E9, -148.87793743610382, -492.8290565609932, -1885.1489312648773, -171.3771755695343
 1.7075957604966164E9, -166.59010362625122, -547.6410303115845, -1954.0827672481537, -194.11576730012894
 1.7075957605124433E9, -157.73402053117752, -533.0404608845711, -1935.891893863678, -181.43002665042877
 1.7075957605124433E9, -150.31405901908875, -502.1638468503952, -1876.5322017669678, -166.59010362625122
 1.7075957605130172E9, -168.98363959789276, -544.5294335484505, -1936.8493082523346, -191.00417053699493
 1.7075957605130172E9, -168.7442860007286, -548.3590911030769, -1952.1679384708405, -184.54162341356277
 1.7075957605266564E9, -160.12755650281906, -510.30186915397644, -1889.9360032081604, -170.898468375206
 1.7075957605266564E9, -177.36101549863815, -536.1520576477051, -1914.11071652174, -180.47261226177216
 1.707595760542595E9, -188.84998816251755, -579.9537659287453, -1984.4806740880013, -211.10987269878387
 1.707595760542595E9, -169.22299319505692, -527.5353281497955, -1931.104821920395, -191.00417053699493
 1.7075957605430334E9, -178.31842988729477, -539.2636544108391, -1917.4616668820381, -206.08344715833664
 1.7075957605430334E9, -205.60473996400833, -595.9904569387436, -1992.8580499887466, -225.23173493146896
 1.707595760557029E9, -199.86025363206863, -572.7731580138206, -1973.231055021286, -214.70017665624619
 1.707595760557029E9, -188.13192737102509, -541.1784831881523, -1914.3500701189041, -204.64732557535172
 1.7075957605725863E9, -219.00854140520096, -596.9478713274002, -1981.6084309220314, -233.13040363788605
 1.7075957605725863E9, -204.64732557535172, -586.8950202465057, -1988.0709780454636, -217.09371262788773
 1.707595760573112E9, -169.46234679222107, -526.0992065668106, -1907.4088158011436, -185.4990378022194
 1.707595760573112E9, -195.07318168878555, -564.3957821130753, -1944.2692697644234, -211.34922629594803
 1.7075957605868604E9, -197.9454248547554, -591.2033849954605, -1994.0548179745674, -219.48724859952927
 1.7075957605868604E9, -183.10550183057785, -547.6410303115845, -1934.9344794750214, -191.2435241341591
 1.707595760602604E9, -181.19067305326462, -547.4016767144203, -1914.5894237160683, -195.3125352859497
 1.707595760602604E9, -211.58857989311218, -599.5807608962059, -1997.1664147377014, -234.08781802654266
 1.7075957606033812E9, -186.69580578804016, -562.0022461414337, -1965.571739912033, -211.34922629594803
 1.7075957606033812E9, -176.88230830430984, -535.4339968562126, -1907.6481693983078, -195.3125352859497
 1.707595760616858E9, -205.84409356117249, -584.5014842748642, -1970.3588118553162, -216.85435903072357
 1.707595760616858E9, -200.33896082639694, -578.038937151432, -1988.3103316426277, -215.1788838505745
 1.7075957606322796E9, -181.43002665042877, -547.6410303115845, -1916.9829596877098, -193.15835291147232
 1.7075957606322796E9, -201.5357288122177, -565.1138429045677, -1944.9873305559158, -206.56215435266495
 1.7075957606329894E9, -221.16272377967834, -616.0961591005325, -2019.1869456768036, -235.04523241519928
 1.7075957606329894E9, -195.79124248027802, -562.0022461414337, -1953.6040600538254, -210.63116550445557
 1.707595760646917E9, -202.01443600654602, -561.5235389471054, -1933.7377114892006, -216.1362982392311
 1.707595760646917E9, -211.58857989311218, -600.0594680905342, -1994.2941715717316, -223.07755255699158
 1.70759576066274E9, -193.63706010580063, -573.0125116109848, -1965.8110935091972, -204.64732557535172
 1.70759576066274E9, -193.63706010580063, -545.0081407427788, -1914.8287773132324, -206.8015079498291
 1.707595760663299E9, -219.00854140520096, -593.1182137727737, -1976.1032981872559, -225.47108852863312
 1.707595760663299E9, -207.75892233848572, -587.373727440834, -1988.5496852397919, -216.61500543355942
 1.7075957606766293E9, -189.56804895401, -543.3326655626297, -1911.7171805500984, -191.2435241341591
 1.7075957606766293E9, -206.08344715833664, -573.251865208149, -1948.338280916214, -218.05112701654434
 1.7075957606923835E9, -220.68401658535004, -614.8993911147118, -2009.8521553874016, -232.17298924922943
 1.7075957606923835E9, -200.0996072292328, -567.5073788762093, -1944.7479769587517, -203.6899111866951
 1.7075957606930408E9, -204.1686183810234, -565.3531965017319, -1930.3867611289024, -209.4343975186348
 1.7075957606930408E9, -226.6678565144539, -613.9419767260551, -2005.3044370412827, -239.83230435848236
 1.7075957607067099E9, -212.5459942817688, -585.698252260685, -1979.6936021447182, -220.44466298818588
 1.7075957607067099E9, -200.5783144235611, -556.0184062123299, -1925.5996891856194, -207.75892233848572
 1.7075957607223475E9, -228.1039780974388, -610.591026365757, -1990.7038676142693, -236.4813539981842
 1.7075957607223475E9, -227.6252709031105, -613.4632695317268, -2002.4321938753128, -225.94979572296143
 1.707595760723046E9, -205.12603276968002, -557.2151741981506, -1924.4029211997986, -196.50930327177048
 1.707595760723046E9, -219.48724859952927, -583.5440698862076, -1951.449877679348, -222.12013816833496
 1.707595760736604E9, -231.69428205490112, -621.6012918353081, -2013.2031057476997, -234.56652522087097
 1.707595760736604E9, -204.88667917251587, -560.5661245584488, -1944.5086233615875, -197.9454248547554
 1.7075957607523851E9, -211.58857989311218, -566.0712572932243, -1926.7964571714401, -203.2112039923668
 1.7075957607523851E9, -242.94390112161636, -625.9096565842628, -2011.0489233732224, -234.80587881803513
 1.707595760753106E9, -214.22146946191788, -586.8950202465057, -1980.1723093390465, -214.46082305908203
 1.707595760753106E9, -194.3551208972931, -544.7687871456146, -1908.126876592636, -191.48287773132324
 1.7075957607665632E9, -218.7691878080368, -600.7775288820267, -1981.3690773248672, -222.59884536266327
 1.7075957607665632E9, -200.0996072292328, -592.4001529812813, -1992.1399891972542, -228.58268529176712
 1.7075957607828743E9, -190.04675614833832, -555.3003454208374, -1932.5409435033798, -208.23762953281403
 1.7075957607828743E9, -193.87641370296478, -565.3531965017319, -1950.7318168878555, -216.61500543355942
 1.7075957607831788E9, -206.8015079498291, -609.1549047827721, -2013.681812942028, -239.1142435669899
 1.7075957607831788E9, -188.37128096818924, -563.917074918747, -1954.8008280396461, -214.70017665624619
 1.7075957607969072E9, -197.9454248547554, -560.0874173641205, -1933.0196506977081, -220.20530939102173
 1.7075957607969072E9, -209.9131047129631, -604.6071864366531, -2006.2618514299393, -237.19941478967667
 1.7075957608127897E9, -193.15835291147232, -581.6292411088943, -1977.5394197702408, -216.37565183639526
 1.7075957608127897E9, -183.344855427742, -542.8539583683014, -1921.770031630993, -207.04086154699326
 1.7075957608131025E9, -205.84409356117249, -591.2033849954605, -1981.6084309220314, -228.82203888893127
 1.7075957608131025E9, -206.8015079498291, -593.596920967102, -2000.0386579036713, -226.42850291728973
 1.707595760826867E9, -174.9674795269966, -541.4178367853165, -1916.9829596877098, -202.73249679803848
 1.707595760826867E9, -194.11576730012894, -569.9009148478508, -1948.8169881105423, -214.22146946191788
 1.7075957608425996E9, -209.19504392147064, -601.256236076355, -2000.5173650979996, -224.5136741399765
 1.7075957608425996E9, -176.40360110998154, -548.1197375059128, -1927.0358107686043, -191.2435241341591
 1.7075957608430438E9, -189.56804895401, -553.8642238378525, -1926.3177499771118, -203.92926478385925
 1.7075957608430438E9, -208.71633672714233, -606.0433080196381, -1997.1664147377014, -233.60911083221436
 1.7075957608569047E9, -197.70607125759125, -581.150533914566, -1979.2148949503899, -213.0247014760971
 1.7075957608569047E9, -184.78097701072693, -544.2900799512863, -1920.0945564508438, -206.56215435266495
 1.7075957608726785E9, -200.5783144235611, -592.1607993841171, -1972.2736406326294, -224.27432054281235
 1.7075957608726785E9, -205.84409356117249, -594.5543353557587, -1994.0548179745674, -221.64143097400665
 1.7075957608731177E9, -186.93515938520432, -550.9919806718826, -1930.1474075317383, -204.64732557535172
 1.7075957608731177E9, -203.2112039923668, -577.7995835542679, -1954.3221208453178, -214.46082305908203
 1.7075957608866577E9, -208.9556903243065, -608.6761975884438, -2005.3044370412827, -220.9233701825142
 1.7075957608866577E9, -193.63706010580063, -562.2415997385979, -1943.3118553757668, -203.6899111866951
 1.7075957609023545E9, -196.50930327177048, -561.5235389471054, -1924.4029211997986, -204.1686183810234
 1.7075957609023545E9, -207.2802151441574, -597.6659321188927, -2001.7141330838203, -225.47108852863312
 1.7075957609031386E9, -197.70607125759125, -570.8583292365074, -1974.906530201435, -209.19504392147064
 1.7075957609031386E9, -188.84998816251755, -541.6571903824806, -1912.674594938755, -196.03059607744217
 1.7075957609166048E9, -213.26405507326126, -596.9478713274002, -1975.3852373957634, -220.68401658535004
 1.7075957609166048E9, -202.49314320087433, -591.4427385926247, -1990.7038676142693, -218.2904806137085
 1.7075957609326267E9, -188.6106345653534, -550.9919806718826, -1930.1474075317383, -202.25378960371017
 1.7075957609326267E9, -203.2112039923668, -578.2782907485962, -1951.2105240821838, -216.61500543355942
 1.707595760933076E9, -210.15245831012726, -604.367832839489, -2010.570216178894, -226.6678565144539
 1.707595760933076E9, -186.456452190876, -556.7364670038223, -1946.902159333229, -204.1686183810234
 1.7075957609636667E9, -200.5783144235611, -558.1725885868073, -1934.216418683529, -205.36538636684418
 1.7075957609636667E9, -219.2478950023651, -605.0858936309814, -2011.0489233732224, -228.82203888893127
 1.7075957609640152E9, -196.03059607744217, -577.5602299571037, -1982.3264917135239, -211.58857989311218
 1.7075957609640152E9, -189.0893417596817, -548.1197375059128, -1923.2061532139778, -196.50930327177048
 1.7075957609645731E9, -220.9233701825142, -605.8039544224739, -1996.2090003490448, -231.93363565206528
 1.7075957609645731E9, -205.36538636684418, -600.0594680905342, -2004.347022652626, -225.71044212579727
 1.7075957609766235E9, -184.54162341356277, -547.8803839087486, -1925.3603355884552, -199.62090003490448
 1.7075957609766235E9, -202.73249679803848, -570.140268445015, -1955.0401816368103, -217.09371262788773
 1.7075957609922895E9, -221.64143097400665, -610.8303799629211, -2014.1605201363564, -230.01880687475204
 1.7075957609922895E9, -204.88667917251587, -567.5073788762093, -1955.0401816368103, -208.9556903243065
 1.7075957609930208E9, -216.85435903072357, -580.6718267202377, -1953.8434136509895, -228.58268529176712
 1.7075957609930208E9, -239.83230435848236, -630.2180213332176, -2023.9740176200867, -242.7045475244522
 1.7075957610068412E9, -199.38154643774033, -578.5176443457603, -1963.6569111347198, -193.63706010580063
 1.7075957610068412E9, -205.36538636684418, -550.5132734775543, -1915.5468381047249, -185.73839139938354
 1.7075957610223513E9, -236.72070759534836, -605.5646008253098, -1978.2574805617332, -214.22146946191788
 1.7075957610223513E9, -235.76329320669174, -607.7187831997871, -1988.0709780454636, -199.14219284057617
 1.7075957610231452E9, -216.1362982392311, -559.6087101697922, -1912.1958877444267, -168.2655788064003
 1.7075957610231452E9, -240.55036514997482, -584.0227770805359, -1951.6892312765121, -200.81766802072525
 1.7075957610367937E9, -245.3374370932579, -616.0961591005325, -2007.2192658185959, -211.82793349027634
 1.7075957610367937E9, -227.86462450027466, -581.150533914566, -1950.013756096363, -193.39770650863647
 1.7075957610523586E9, -237.19941478967667, -583.7834234833717, -1938.5247834324837, -195.55188888311386
 1.7075957610523586E9, -251.32127702236176, -630.2180213332176, -2009.8521553874016, -223.79561334848404
 1.7075957610530443E9, -235.04523241519928, -593.8362745642662, -1974.4278230071068, -199.62090003490448
 1.7075957610530443E9, -224.9923813343048, -562.9596605300903, -1924.4029211997986, -193.87641370296478
 1.707595761066645E9, -252.27869141101837, -611.5484407544136, -1987.8316244482994, -219.00854140520096
 1.707595761066645E9, -237.91747558116913, -598.3839929103851, -1995.2515859603882, -205.84409356117249
 1.7075957610823452E9, -225.47108852863312, -561.0448317527771, -1935.1738330721855, -196.98801046609879
 1.7075957610823452E9, -240.07165795564651, -588.5704954266548, -1959.8272535800934, -210.15245831012726
 1.7075957610830753E9, -249.16709464788437, -620.6438774466515, -2010.33086258173, -215.41823744773865
 1.7075957610830753E9, -224.0349669456482, -574.2092795968056, -1944.9873305559158, -188.37128096818924
 1.7075957610967846E9, -228.1039780974388, -571.5763900279999, -1929.4293467402458, -199.14219284057617
 1.7075957610967846E9, -251.79998421669006, -628.5425461530685, -2008.4160338044167, -227.1465637087822
 1.7075957611125228E9, -234.56652522087097, -592.8788601756096, -1972.0342870354652, -200.0996072292328
 1.7075957611125228E9, -223.79561334848404, -564.3957821130753, -1929.66870033741, -193.63706010580063
 1.7075957611130693E9, -247.01291227340698, -611.0697335600853, -1978.2574805617332, -210.3918119072914
 1.7075957611130693E9, -242.46519392728806, -609.1549047827721, -2004.1076690554619, -212.0672870874405
 1.707595761143282E9, -219.00854140520096, -559.1300029754639, -1930.6261147260666, -191.96158492565155
 1.707595761143282E9, -240.55036514997482, -594.5543353557587, -1960.0666071772575, -207.75892233848572
 1.7075957611438272E9, -249.64580184221268, -626.6277173757553, -2016.793409705162, -221.4020773768425
 1.7075957611438272E9, -219.00854140520096, -568.70414686203, -1946.4234521389008, -192.44029211997986
 1.707595761144516E9, -223.07755255699158, -574.2092795968056, -1933.2590042948723, -196.50930327177048
 1.707595761144516E9, -238.15682917833328, -616.5748662948608, -2000.0386579036713, -210.87051910161972
 1.7075957611566422E9, -224.27432054281235, -588.809849023819, -1973.231055021286, -199.62090003490448
 1.7075957611566422E9, -219.96595579385757, -563.1990141272545, -1922.7274460196495, -189.56804895401
 1.707595761172386E9, -240.07165795564651, -610.1123191714287, -1984.001966893673, -216.61500543355942
 1.707595761172386E9, -233.8484644293785, -606.7613688111305, -1997.8844755291939, -206.3228007555008
 1.707595761173107E9, -218.2904806137085, -559.369356572628, -1919.8552028536797, -177.36101549863815
 1.707595761173107E9, -226.90721011161804, -579.2357051372528, -1949.2956953048706, -199.62090003490448
 1.70759576118719E9, -232.65169644355774, -612.7452087402344, -1996.9270611405373, -205.12603276968002
 1.70759576118719E9, -211.10987269878387, -565.592550098896, -1930.8654683232307, -174.4887723326683
 1.707595761202428E9, -213.74276226758957, -558.4119421839714, -1915.786191701889, -173.5313579440117
 1.707595761202428E9, -230.97622126340866, -610.8303799629211, -2001.9534866809845, -209.9131047129631
 1.7075957612030714E9, -219.2478950023651, -583.5440698862076, -1969.6407510638237, -190.52546334266663
 1.7075957612030714E9, -225.94979572296143, -562.7203069329262, -1935.1738330721855, -195.79124248027802
 1.7075957612168274E9, -220.9233701825142, -594.3149817585945, -1980.4116629362106, -215.89694464206696
 1.7075957612168274E9, -223.55625975131989, -599.82011449337, -2014.3998737335205, -224.27432054281235
 1.7075957612327638E9, -201.5357288122177, -555.0609918236732, -1927.7538715600967, -188.6106345653534
 1.7075957612327638E9, -226.42850291728973, -592.1607993841171, -1957.9124248027802, -210.63116550445557
 1.7075957612331808E9, -226.90721011161804, -613.9419767260551, -2008.6553874015808, -214.93953025341034
 1.7075957612331808E9, -196.26994967460632, -553.14616304636, -1938.0460762381554, -183.58420902490616
 1.7075957612469203E9, -210.3918119072914, -557.2151741981506, -1927.993225157261, -191.7222313284874
 1.7075957612469203E9, -234.32717162370682, -618.2503414750099, -2006.5012050271034, -221.16272377967834
 1.7075957612628615E9, -206.8015079498291, -579.475058734417, -1970.8375190496445, -200.5783144235611
 1.7075957612628615E9, -212.78534787893295, -556.0184062123299, -1925.3603355884552, -197.22736406326294
 1.7075957612631743E9, -230.7368676662445, -607.9581367969513, -1993.8154643774033, -228.82203888893127
 1.7075957612631743E9, -230.01880687475204, -607.2400760054588, -1995.7302931547165, -210.87051910161972
 1.7075957612769167E9, -201.29637521505356, -554.1035774350166, -1919.8552028536797, -181.66938024759293
 1.7075957612769167E9, -222.35949176549911, -583.7834234833717, -1961.2633751630783, -214.70017665624619
 1.7075957612924728E9, -224.27432054281235, -606.2826616168022, -2017.7508240938187, -223.55625975131989
 1.7075957612924728E9, -198.66348564624786, -563.917074918747, -1954.561474442482, -204.1686183810234
 1.7075957612930582E9, -208.47698312997818, -568.70414686203, -1936.3706010580063, -204.64732557535172
 1.7075957612930582E9, -222.83819895982742, -612.9845623373985, -1999.0812435150146, -221.64143097400665
 1.707595761306945E9, -211.34922629594803, -581.150533914566, -1977.778773367405, -207.75892233848572
 1.707595761306945E9, -203.2112039923668, -549.0771518945694, -1912.1958877444267, -183.10550183057785
 1.7075957613224845E9, -232.41234284639359, -604.367832839489, -1981.129723727703, -214.46082305908203
 1.7075957613224845E9, -213.74276226758957, -589.0492026209831, -1985.677442073822, -200.5783144235611
 1.7075957613230543E9, -207.75892233848572, -554.1035774350166, -1929.4293467402458, -191.7222313284874
 1.7075957613230543E9, -227.86462450027466, -590.9640313982964, -1961.2633751630783, -216.85435903072357
 1.7075957613367133E9, -234.56652522087097, -612.5058551430702, -2012.7243985533714, -221.8807845711708
 1.7075957613367133E9, -213.74276226758957, -567.028671681881, -1949.0563417077065, -202.73249679803848
 1.707595761351676E9, -213.74276226758957, -558.6512957811356, -1937.567369043827, -203.6899111866951
 1.707595761351676E9, -229.06139248609543, -607.9581367969513, -2007.9373266100883, -227.38591730594635
 1.7075957613673947E9, -202.49314320087433, -555.5396990180016, -1923.445506811142, -195.07318168878555
 1.7075957613673947E9, -219.72660219669342, -594.5543353557587, -1983.2839061021805, -228.1039780974388
 1.7075957613680797E9, -210.87051910161972, -585.698252260685, -1990.225160419941, -208.71633672714233
 1.7075957613680797E9, -199.38154643774033, -550.034566283226, -1921.2913244366646, -191.96158492565155
 1.707595761381656E9, -236.72070759534836, -596.9478713274002, -1967.4865686893463, -221.8807845711708
 1.707595761381656E9, -215.41823744773865, -594.7936889529228, -1984.9593812823296, -194.59447449445724
 1.7075957613974135E9, -176.40360110998154, -525.6204993724823, -1909.8023517727852, -152.70759499073029
 1.7075957613974135E9, -196.03059607744217, -536.1520576477051, -1900.228207886219, -168.98363959789276
 1.7075957613982093E9, -214.70017665624619, -589.7672634124756, -1984.4806740880013, -204.40797197818756
 1.7075957613982093E9, -190.52546334266663, -559.1300029754639, -1950.2531096935272, -179.03649067878723
 1.7075957614116273E9, -187.17451298236847, -529.4501569271088, -1894.7230751514435, -170.41976118087769
 1.7075957614116273E9, -215.41823744773865, -583.0653626918793, -1966.7685078978539, -209.67375111579895
 1.707595761427822E9, -210.3918119072914, -587.6130810379982, -1982.0871381163597, -199.38154643774033
 1.707595761427822E9, -198.18477845191956, -543.811372756958, -1915.5468381047249, -187.65322017669678
 1.707595761428195E9, -212.30664068460464, -568.2254396677017, -1942.8331481814384, -207.04086154699326
 1.707595761428195E9, -211.58857989311218, -590.7246778011322, -1995.012232363224, -206.56215435266495
 1.7075957614418828E9, -196.26994967460632, -541.8965439796448, -1932.0622363090515, -185.25968420505524
 1.7075957614418828E9, -206.8015079498291, -552.4281022548676, -1921.5306780338287, -191.48287773132324
 1.7075957614578347E9, -221.64143097400665, -597.9052857160568, -1992.3793427944183, -202.25378960371017
 1.7075957614578347E9, -202.01443600654602, -564.6351357102394, -1958.1517783999443, -183.8235626220703
 1.7075957614583213E9, -194.11576730012894, -541.1784831881523, -1906.6907550096512, -179.51519787311554
 1.7075957614583213E9, -213.26405507326126, -578.7569979429245, -1955.5188888311386, -189.80740255117416
 1.7075957614718368E9, -210.15245831012726, -585.698252260685, -1978.9755413532257, -198.66348564624786
 1.7075957614718368E9, -191.7222313284874, -539.0243008136749, -1909.0842909812927, -173.29200434684753
 1.7075957614873846E9, -212.0672870874405, -573.251865208149, -1937.0886618494987, -197.22736406326294
 1.7075957614873846E9, -220.9233701825142, -601.0168824791908, -1996.448353946209, -206.3228007555008
 1.7075957614880896E9, -196.03059607744217, -552.4281022548676, -1925.3603355884552, -180.7119658589363
 1.7075957614880896E9, -206.56215435266495, -551.4706878662109, -1924.1635676026344, -194.3551208972931
 1.7075957615016484E9, -223.79561334848404, -599.5807608962059, -1996.448353946209, -207.2802151441574
 1.7075957615016484E9, -207.2802151441574, -568.9435004591942, -1959.109192788601, -192.44029211997986
 1.707595761517301E9, -197.4667176604271, -545.0081407427788, -1900.4675614833832, -175.68554031848907
 1.707595761517301E9, -223.31690615415573, -590.485324203968, -1973.4704086184502, -206.56215435266495
 1.7075957615179873E9, -219.48724859952927, -590.485324203968, -1983.2839061021805, -202.01443600654602
 1.7075957615179873E9, -199.14219284057617, -540.4604223966599, -1905.015279829502, -176.16424751281738
 1.7075957615318797E9, -222.59884536266327, -581.8685947060585, -1943.551208972931, -205.60473996400833
 1.7075957615318797E9, -226.18914932012558, -602.6923576593399, -1992.3793427944183, -208.23762953281403
 1.707595761547519E9, -207.04086154699326, -555.7790526151657, -1928.232578754425, -179.7545514702797
 1.707595761547519E9, -208.47698312997818, -552.4281022548676, -1921.5306780338287, -188.84998816251755
 1.707595761548076E9, -227.38591730594635, -604.6071864366531, -1989.0283924341202, -206.3228007555008
 1.707595761548076E9, -206.08344715833664, -565.592550098896, -1958.3911319971085, -190.28610974550247
 1.707595761561844E9, -198.66348564624786, -540.699775993824, -1905.7333406209946, -177.36101549863815
 1.707595761561844E9, -217.33306622505188, -589.5279098153114, -1967.4865686893463, -206.8015079498291
 1.7075957615773282E9, -215.1788838505745, -595.033042550087, -1985.4380884766579, -204.88667917251587
 1.7075957615773282E9, -203.45055758953094, -546.2049087285995, -1905.4939870238304, -172.09523636102676
 1.7075957615780852E9, -209.67375111579895, -569.1828540563583, -1929.1899931430817, -181.90873384475708
 1.7075957615780852E9, -229.30074608325958, -610.8303799629211, -1993.8154643774033, -206.8015079498291
 1.7075957615916977E9, -201.5357288122177, -558.4119421839714, -1929.4293467402458, -185.25968420505524
 1.7075957615916977E9, -210.63116550445557, -557.6938813924789, -1919.3764956593513, -190.04675614833832
 1.7075957616073956E9, -221.16272377967834, -603.8891256451607, -1991.4219284057617, -209.4343975186348
 1.7075957616073956E9, -203.92926478385925, -571.3370364308357, -1955.997596025467, -194.11576730012894
 1.7075957616080859E9, -200.5783144235611, -548.3590911030769, -1909.8023517727852, -187.41386657953262
 1.7075957616080859E9, -232.41234284639359, -599.5807608962059, -1978.7361877560616, -217.57241982221603
 1.7075957616216817E9, -221.64143097400665, -593.1182137727737, -1985.9167956709862, -203.2112039923668
 1.7075957616216817E9, -198.4241320490837, -548.3590911030769, -1910.2810589671135, -177.6003690958023
 1.7075957616539488E9, -216.37565183639526, -581.6292411088943, -1943.0725017786026, -200.5783144235611
 1.7075957616539488E9, -228.1039780974388, -611.5484407544136, -1991.90063560009, -209.4343975186348
 1.7075957616544597E9, -201.29637521505356, -558.4119421839714, -1924.4029211997986, -180.95131945610046
 1.7075957616544597E9, -206.08344715833664, -557.2151741981506, -1906.6907550096512, -186.456452190876
 1.7075957616554065E9, -223.31690615415573, -606.5220152139664, -1989.7464532256126, -211.34922629594803
 1.7075957616554065E9, -207.2802151441574, -581.8685947060585, -1954.0827672481537, -193.87641370296478
 1.7075957616560526E9, -203.6899111866951, -553.8642238378525, -1905.2546334266663, -183.344855427742
 1.7075957616560526E9, -227.38591730594635, -602.6923576593399, -1979.2148949503899, -211.10987269878387
 1.707595761666587E9, -224.0349669456482, -604.6071864366531, -1982.3264917135239, -208.71633672714233
 1.707595761666587E9, -206.8015079498291, -549.7952126860619, -1917.7010204792023, -187.17451298236847
 1.7075957616816232E9, -222.12013816833496, -587.1343738436699, -1945.9447449445724, -203.92926478385925
 1.7075957616816232E9, -228.1039780974388, -613.2239159345627, -1996.448353946209, -211.58857989311218
 1.707595761697819E9, -209.9131047129631, -563.6777213215828, -1933.2590042948723, -187.41386657953262
 1.707595761697819E9, -212.30664068460464, -563.917074918747, -1922.009385228157, -193.87641370296478
 1.7075957616981244E9, -233.8484644293785, -615.6174519062042, -1997.4057683348656, -226.18914932012558
 1.7075957616981244E9, -208.9556903243065, -579.9537659287453, -1957.4337176084518, -205.60473996400833
 1.7075957617118928E9, -201.77508240938187, -554.1035774350166, -1910.5204125642776, -187.89257377386093
 1.7075957617118928E9, -229.06139248609543, -599.3414072990417, -1975.1458837985992, -210.15245831012726
 1.7075957617273953E9, -212.78534787893295, -588.809849023819, -1978.4968341588974, -200.5783144235611
 1.7075957617273953E9, -208.47698312997818, -556.257759809494, -1915.3074845075607, -192.91899931430817
 1.7075957617280567E9, -235.76329320669174, -597.4265785217285, -1957.9124248027802, -218.7691878080368
 1.7075957617280567E9, -230.7368676662445, -618.2503414750099, -2007.9373266100883, -218.52983421087265
 1.7075957617420032E9, -196.50930327177048, -561.2841853499413, -1925.5996891856194, -188.6106345653534
 1.7075957617420032E9, -210.63116550445557, -565.3531965017319, -1926.7964571714401, -199.14219284057617
 1.7075957617575736E9, -239.5929507613182, -620.8832310438156, -2009.3734481930733, -230.7368676662445
 1.7075957617575736E9, -214.22146946191788, -585.4588986635208, -1973.231055021286, -209.67375111579895
 1.707595761758179E9, -207.51956874132156, -557.4545277953148, -1926.3177499771118, -200.0996072292328
 1.707595761758179E9, -223.55625975131989, -595.033042550087, -1975.3852373957634, -213.74276226758957
 1.7075957617715936E9, -221.16272377967834, -600.5381752848625, -1986.8742100596428, -204.1686183810234
 1.7075957617715936E9, -197.4667176604271, -550.5132734775543, -1913.3926557302475, -188.84998816251755
 1.7075957617874796E9, -232.8910500407219, -597.6659321188927, -1970.5981654524803, -219.96595579385757
 1.7075957617874796E9, -236.24200040102005, -618.7290486693382, -2016.554056107998, -232.41234284639359
 1.7075957617881916E9, -214.93953025341034, -572.0550972223282, -1950.9711704850197, -208.23762953281403
 1.7075957617881916E9, -216.85435903072357, -571.5763900279999, -1935.1738330721855, -203.6899111866951
 1.707595761801598E9, -242.94390112161636, -626.149010181427, -2005.3044370412827, -232.41234284639359
 1.707595761801598E9, -224.75302773714066, -592.1607993841171, -1974.1884694099426, -209.9131047129631
 1.7075957618173306E9, -210.3918119072914, -560.5661245584488, -1924.6422747969627, -200.81766802072525
 1.7075957618173306E9, -230.97622126340866, -607.0007224082947, -1989.0283924341202, -227.6252709031105
 1.7075957618180377E9, -227.38591730594635, -606.0433080196381, -1996.448353946209, -219.00854140520096
 1.7075957618180377E9, -219.72660219669342, -569.9009148478508, -1938.7641370296478, -209.4343975186348
 1.7075957618322313E9, -226.6678565144539, -598.6233465075493, -1971.555579841137, -230.7368676662445
 1.7075957618322313E9, -216.1362982392311, -603.8891256451607, -2010.33086258173, -232.8910500407219
 1.7075957618476093E9, -184.54162341356277, -557.2151741981506, -1941.1576730012894, -206.08344715833664
 1.7075957618476093E9, -205.60473996400833, -574.2092795968056, -1935.6525402665138, -216.1362982392311
 1.7075957618481448E9, -224.9923813343048, -620.8832310438156, -2022.0591888427734, -248.20968025922775
 1.7075957618481448E9, -197.22736406326294, -581.8685947060585, -1979.454248547554, -218.7691878080368
 1.7075957618616805E9, -192.44029211997986, -562.0022461414337, -1930.6261147260666, -222.83819895982742
 1.7075957618616805E9, -208.47698312997818, -601.4955896735191, -1992.8580499887466, -240.78971874713898
 1.707595761877669E9, -204.1686183810234, -600.0594680905342, -1996.2090003490448, -226.42850291728973
 1.707595761877669E9, -193.87641370296478, -564.6351357102394, -1933.9770650863647, -222.12013816833496
 1.707595761878063E9, -216.37565183639526, -600.7775288820267, -1972.5129942297935, -239.5929507613182
 1.707595761878063E9, -230.7368676662445, -630.4573749303818, -2026.3675535917282, -248.68838745355606
 1.7075957618919933E9, -201.29637521505356, -579.475058734417, -1961.7420823574066, -228.34333169460297
 1.7075957618919933E9, -203.2112039923668, -580.6718267202377, -1947.1415129303932, -229.54009968042374
 1.7075957619075985E9, -224.9923813343048, -625.1915957927704, -2023.01660323143, -254.91158097982407
 1.7075957619075985E9, -203.45055758953094, -586.8950202465057, -1979.454248547554, -227.86462450027466
 1.7075957619081764E9, -180.47261226177216, -545.9655551314354, -1915.786191701889, -200.33896082639694
 1.7075957619081764E9, -216.37565183639526, -607.2400760054588, -1995.9696467518806, -241.26842594146729
 1.7075957619219904E9, -215.6575910449028, -603.1710648536682, -1995.9696467518806, -225.94979572296143
 1.7075957619219904E9, -196.98801046609879, -560.5661245584488, -1931.8228827118874, -219.48724859952927
 1.7075957619375737E9, -208.9556903243065, -587.6130810379982, -1967.7259222865105, -230.7368676662445
 1.7075957619375737E9, -218.2904806137085, -615.6174519062042, -2011.0489233732224, -229.7794532775879
 1.7075957619382548E9, -197.9454248547554, -564.6351357102394, -1947.8595737218857, -210.3918119072914
 1.7075957619382548E9, -210.63116550445557, -576.6028155684471, -1948.0989273190498, -226.18914932012558
 1.7075957619516747E9, -223.31690615415573, -626.149010181427, -2020.8624208569527, -248.4490338563919
 1.7075957619516747E9, -202.97185039520264, -581.6292411088943, -1980.4116629362106, -227.38591730594635
 1.707595761967333E9, -199.62090003490448, -562.9596605300903, -1929.9080539345741, -215.6575910449028
 1.707595761967333E9, -222.12013816833496, -610.591026365757, -1985.1987348794937, -231.45492845773697
 1.707595761968074E9, -212.78534787893295, -593.8362745642662, -1995.012232363224, -226.42850291728973
 1.707595761968074E9, -192.679645717144, -547.1623231172562, -1927.993225157261, -208.9556903243065
 1.707595761981918E9, -214.70017665624619, -588.3311418294907, -1962.220789551735, -228.82203888893127
 1.707595761981918E9, -228.58268529176712, -622.5587062239647, -2015.3572881221771, -244.61937630176544
 1.7075957619975548E9, -201.0570216178894, -570.140268445015, -1948.5776345133781, -214.22146946191788
 1.7075957619975548E9, -210.15245831012726, -573.0125116109848, -1942.8331481814384, -223.07755255699158
 1.7075957619981062E9, -223.79561334848404, -613.702623128891, -2004.1076690554619, -236.0026468038559
 1.7075957619981062E9, -207.04086154699326, -579.2357051372528, -1969.4013974666595, -208.47698312997818
 1.707595762012077E9, -201.77508240938187, -561.0448317527771, -1924.881628394127, -209.67375111579895
 1.707595762012077E9, -225.23173493146896, -600.2988216876984, -1991.6612820029259, -239.35359716415405
 1.7075957620274668E9, -219.72660219669342, -604.8465400338173, -2004.8257298469543, -233.8484644293785
 1.7075957620274668E9, -198.18477845191956, -555.7790526151657, -1927.2751643657684, -208.47698312997818
 1.707595762028079E9, -217.33306622505188, -589.5279098153114, -1961.7420823574066, -226.18914932012558
 1.707595762028079E9, -220.9233701825142, -606.7613688111305, -2001.4747794866562, -228.1039780974388
 1.7075957620418987E9, -197.9454248547554, -564.8744893074036, -1952.6466456651688, -212.5459942817688
 1.7075957620418987E9, -203.92926478385925, -564.1564285159111, -1929.1899931430817, -207.2802151441574
 1.70759576205767E9, -214.22146946191788, -606.7613688111305, -2004.5863762497902, -229.54009968042374
 1.70759576205767E9, -194.8338280916214, -567.028671681881, -1963.896264731884, -210.63116550445557
 1.7075957620582032E9, -184.78097701072693, -542.1358975768089, -1904.2972190380096, -187.17451298236847
 1.7075957620582032E9, -216.1362982392311, -595.2723961472511, -1974.4278230071068, -213.74276226758957
 1.707595762088264E9, -208.47698312997818, -597.9052857160568, -1984.241320490837, -210.87051910161972
 1.707595762088264E9, -192.44029211997986, -555.3003454208374, -1922.009385228157, -191.2435241341591
 1.7075957620888765E9, -205.84409356117249, -578.2782907485962, -1951.6892312765121, -214.46082305908203
 1.7075957620888765E9, -218.7691878080368, -606.2826616168022, -2004.1076690554619, -222.83819895982742
 1.7075957620894895E9, -193.87641370296478, -553.3855166435242, -1938.7641370296478, -195.3125352859497
 1.7075957620894895E9, -206.08344715833664, -578.038937151432, -1934.455772280693, -204.88667917251587
 1.7075957621019576E9, -226.6678565144539, -617.5322806835175, -2002.4321938753128, -222.59884536266327
 1.7075957621019576E9, -204.64732557535172, -580.9111803174019, -1963.1782039403915, -203.45055758953094
 1.707595762117324E9, -202.97185039520264, -557.2151741981506, -1923.9242140054703, -202.73249679803848
 1.707595762117324E9, -228.82203888893127, -605.8039544224739, -1989.5070996284485, -224.27432054281235
 1.7075957621180215E9, -210.15245831012726, -593.3575673699379, -1992.1399891972542, -217.09371262788773
 1.7075957621180215E9, -199.86025363206863, -555.3003454208374, -1920.8126172423363, -192.91899931430817
 1.7075957621316524E9, -225.23173493146896, -594.7936889529228, -1968.683336675167, -225.47108852863312
 1.7075957621316524E9, -230.01880687475204, -617.2929270863533, -2013.681812942028, -222.83819895982742
 1.707595762163665E9, -202.49314320087433, -565.592550098896, -1940.439612209797, -191.00417053699493
 1.707595762163665E9, -212.78534787893295, -572.0550972223282, -1934.6951258778572, -202.25378960371017
 1.7075957621643953E9, -220.20530939102173, -606.2826616168022, -1999.559950709343, -220.20530939102173
 1.7075957621643953E9, -196.98801046609879, -573.0125116109848, -1963.896264731884, -204.64732557535172
 1.7075957621651964E9, -183.8235626220703, -540.9391295909882, -1910.7597661614418, -185.02033060789108
 1.7075957621651964E9, -214.22146946191788, -596.9478713274002, -1982.565845310688, -209.9131047129631
 1.707595762165934E9, -211.10987269878387, -597.6659321188927, -1993.336757183075, -207.04086154699326
 1.707595762165934E9, -196.50930327177048, -551.2313342690468, -1923.9242140054703, -191.96158492565155
 1.7075957621768916E9, -207.75892233848572, -577.7995835542679, -1951.449877679348, -206.56215435266495
 1.7075957621768916E9, -218.05112701654434, -605.0858936309814, -2003.3896082639694, -221.16272377967834
 1.7075957621919386E9, -201.29637521505356, -565.3531965017319, -1942.3544409871101, -200.81766802072525
 1.7075957621919386E9, -205.84409356117249, -572.0550972223282, -1932.5409435033798, -203.6899111866951
 1.707595762207368E9, -228.1039780974388, -618.9684022665024, -2006.0224978327751, -226.6678565144539
 1.707595762207368E9, -203.2112039923668, -578.7569979429245, -1971.3162262439728, -208.9556903243065
 1.7075957622080405E9, -198.4241320490837, -556.9758206009865, -1918.897788465023, -201.77508240938187
 1.7075957622080405E9, -224.75302773714066, -606.2826616168022, -1989.7464532256126, -227.86462450027466
 1.7075957622217615E9, -209.4343975186348, -591.2033849954605, -1982.0871381163597, -205.60473996400833
 1.7075957622217615E9, -187.41386657953262, -542.6146047711372, -1912.1958877444267, -179.7545514702797
 1.7075957622373977E9, -217.33306622505188, -586.6556666493416, -1952.4072920680046, -217.33306622505188
 1.7075957622373977E9, -219.48724859952927, -608.1974903941154, -2000.9960722923279, -220.20530939102173
 1.7075957622380643E9, -203.45055758953094, -563.6777213215828, -1944.5086233615875, -200.5783144235611
 1.7075957622380643E9, -203.45055758953094, -564.6351357102394, -1927.5145179629326, -199.38154643774033
 1.707595762252538E9, -224.9923813343048, -614.4206839203835, -1995.4909395575523, -226.42850291728973
 1.707595762252538E9, -198.4241320490837, -574.6879867911339, -1957.1943640112877, -209.4343975186348
 1.7075957622677617E9, -198.90283924341202, -552.6674558520317, -1912.674594938755, -192.2009385228157
 1.7075957622677617E9, -218.7691878080368, -598.144639313221, -1977.5394197702408, -214.93953025341034
 1.7075957622681952E9, -205.12603276968002, -587.1343738436699, -1976.34265178442, -202.97185039520264
 1.7075957622681952E9, -189.80740255117416, -544.5294335484505, -1904.2972190380096, -177.6003690958023
 1.707595762282002E9, -209.19504392147064, -580.9111803174019, -1946.1840985417366, -208.23762953281403
 1.707595762282002E9, -218.2904806137085, -610.3516727685928, -1996.2090003490448, -216.61500543355942
 1.7075957622976947E9, -202.73249679803848, -568.9435004591942, -1937.0886618494987, -199.38154643774033
 1.7075957622976947E9, -209.4343975186348, -571.815743625164, -1928.232578754425, -210.87051910161972
 1.7075957622983472E9, -228.58268529176712, -620.1651702523232, -1996.2090003490448, -230.2581604719162
 1.7075957622983472E9, -202.25378960371017, -577.3208763599396, -1959.5878999829292, -204.1686183810234
 1.707595762311904E9, -200.0996072292328, -558.8906493782997, -1915.786191701889, -207.2802151441574
 1.707595762311904E9, -230.7368676662445, -620.4045238494873, -1991.1825748085976, -242.7045475244522
 1.7075957623273847E9, -222.12013816833496, -610.1123191714287, -1994.7728787660599, -227.6252709031105
 1.7075957623273847E9, -194.8338280916214, -558.8906493782997, -1917.7010204792023, -201.0570216178894
 1.7075957623281715E9, -217.09371262788773, -590.0066170096397, -1955.7582424283028, -223.79561334848404
 1.7075957623281715E9, -221.16272377967834, -610.3516727685928, -2009.1340945959091, -227.86462450027466
 1.7075957623419404E9, -195.3125352859497, -555.5396990180016, -1930.6261147260666, -190.04675614833832
 1.7075957623419404E9, -207.51956874132156, -569.1828540563583, -1927.5145179629326, -202.25378960371017
 1.7075957623568354E9, -225.94979572296143, -615.1387447118759, -1997.1664147377014, -218.2904806137085
 1.7075957623568354E9, -204.1686183810234, -582.586655497551, -1957.673071205616, -199.14219284057617
 1.7075957623727655E9, -219.00854140520096, -596.4691641330719, -1971.794933438301, -213.26405507326126
 1.7075957623727655E9, -207.99827593564987, -594.7936889529228, -1986.1561492681503, -214.22146946191788
 1.7075957623731425E9, -189.80740255117416, -545.4868479371071, -1913.3926557302475, -190.04675614833832
 1.7075957623731425E9, -208.23762953281403, -574.4486331939697, -1947.3808665275574, -206.56215435266495
 1.7075957623866577E9, -211.10987269878387, -598.6233465075493, -1988.789038836956, -212.30664068460464
 1.7075957623866577E9, -201.5357288122177, -566.0712572932243, -1937.0886618494987, -201.77508240938187
 1.707595762402379E9, -205.36538636684418, -572.7731580138206, -1929.1899931430817, -203.45055758953094
 1.707595762402379E9, -228.58268529176712, -612.9845623373985, -1995.2515859603882, -216.61500543355942
 1.7075957624030273E9, -193.15835291147232, -568.70414686203, -1950.9711704850197, -194.8338280916214
 1.7075957624030273E9, -187.41386657953262, -549.5558590888977, -1911.23847335577, -189.32869535684586
 1.7075957624167707E9, -197.22736406326294, -582.8260090947151, -1961.2633751630783, -199.38154643774033
 1.7075957624167707E9, -204.40797197818756, -590.7246778011322, -1976.34265178442, -206.8015079498291
 1.7075957624323547E9, -165.6326892375946, -528.9714497327805, -1885.8669920563698, -166.59010362625122
 1.7075957624323547E9, -176.16424751281738, -552.6674558520317, -1931.8228827118874, -187.41386657953262
 1.707595762433075E9, -166.82945722341537, -566.5499644875526, -1968.9226902723312, -182.62679463624954
 1.707595762433075E9, -140.50056153535843, -508.8657475709915, -1891.1327711939812, -150.79276621341705
 1.7075957624470356E9, -135.23478239774704, -495.9406533241272, -1876.2928481698036, -151.98953419923782
 1.7075957624470356E9, -135.23478239774704, -532.5617536902428, -1937.328015446663, -162.76044607162476
 1.7075957624627008E9, -99.81045001745224, -482.7762054800987, -1892.568892776966, -136.4315503835678
 1.7075957624627008E9, -88.560830950737, -449.027348279953, -1839.1930406093597, -121.83098095655441
 1.707595762463097E9, -108.18782591819763, -487.0845702290535, -1903.339804649353, -144.3302190899849
 1.707595762463097E9, -85.449234187603, -472.4840008020401, -1891.6114783883095, -121.3522737622261
 1.707595762477095E9, -77.0718582868576, -425.5706957578659, -1825.549885571003, -100.76786440610886
 1.707595762477095E9, -88.32147735357285, -456.68666338920593, -1866.4793506860733, -127.81482088565826
 1.707595762492633E9, -87.12470936775208, -475.83495116233826, -1907.6481693983078, -131.64447844028473
 1.707595762492633E9, -73.00284713506699, -435.14483964443207, -1838.7143334150314, -105.31558275222778
 1.7075957624931004E9, -89.75759893655777, -451.1815306544304, -1846.6130021214485, -127.57546728849411
 1.7075957624931004E9, -102.44333958625793, -492.8290565609932, -1911.4778269529343, -139.0644399523735
 1.7075957625070395E9, -101.24657160043716, -477.51042634248734, -1889.9360032081604, -138.5857327580452
 1.7075957625070395E9, -102.92204678058624, -454.53248101472855, -1846.3736485242844, -135.23478239774704
 1.7075957625225585E9, -141.2186223268509, -522.2695490121841, -1922.7274460196495, -169.46234679222107
 1.7075957625225585E9, -148.3992302417755, -533.2798144817352, -1937.8067226409912, -175.92489391565323
 1.7075957625231783E9, -152.70759499073029, -508.3870403766632, -1888.7392352223396, -169.46234679222107
 1.7075957625231783E9, -175.92489391565323, -552.9068094491959, -1931.5835291147232, -197.4667176604271
 1.7075957625368946E9, -192.44029211997986, -583.0653626918793, -1984.9593812823296, -208.47698312997818
 1.7075957625368946E9, -174.24941873550415, -542.8539583683014, -1920.0945564508438, -190.76481693983078
 1.7075957625523422E9, -201.29637521505356, -563.917074918747, -1922.7274460196495, -206.8015079498291
 1.7075957625523422E9, -216.1362982392311, -601.0168824791908, -1991.1825748085976, -219.96595579385757
 1.7075957625532475E9, -210.87051910161972, -586.1769594550133, -1966.7685078978539, -206.08344715833664
 1.7075957625532475E9, -212.0672870874405, -567.5073788762093, -1918.658434867859, -201.29637521505356
 1.7075957625666587E9, -233.13040363788605, -609.1549047827721, -1986.6348564624786, -219.00854140520096
 1.7075957625666587E9, -227.1465637087822, -607.0007224082947, -1982.3264917135239, -213.26405507326126
 1.707595762582358E9, -216.37565183639526, -571.0976828336716, -1926.3177499771118, -200.5783144235611
 1.707595762582358E9, -247.01291227340698, -608.4368439912796, -1966.7685078978539, -226.90721011161804
 1.7075957625830727E9, -253.95416659116745, -638.3560436367989, -2023.7346640229225, -235.5239396095276
 1.7075957625830727E9, -230.01880687475204, -590.485324203968, -1955.7582424283028, -217.8117734193802
 1.70759576259695E9, -248.20968025922775, -599.82011449337, -1959.109192788601, -232.17298924922943
 1.70759576259695E9, -263.0496032834053, -649.6056627035141, -2031.3939791321754, -253.95416659116745
 1.707595762612959E9, -239.1142435669899, -615.1387447118759, -1980.890370130539, -221.16272377967834
 1.707595762612959E9, -241.7471331357956, -595.2723961472511, -1946.662805736065, -225.23173493146896
 1.7075957626440125E9, -268.794089615345, -650.8024306893349, -2022.5378960371017, -259.9380065202713
 1.7075957626440125E9, -257.54447054862976, -638.1166900396347, -2019.665652871132, -243.90131551027298
 1.7075957626445408E9, -237.67812198400497, -589.7672634124756, -1939.2428442239761, -219.96595579385757
 1.7075957626445408E9, -250.84256982803345, -624.7128885984421, -1988.0709780454636, -241.50777953863144
 1.707595762645223E9, -256.347702562809, -643.6218227744102, -2028.0430287718773, -243.90131551027298
 1.707595762645223E9, -240.07165795564651, -599.3414072990417, -1965.332386314869, -217.33306622505188
 1.7075957626459424E9, -246.53420507907867, -603.8891256451607, -1961.2633751630783, -222.83819895982742
 1.7075957626459424E9, -275.017283141613, -664.2062321305275, -2044.3190733790398, -258.02317774295807
 1.7075957626730504E9, -247.73097306489944, -621.3619382381439, -1998.8418899178505, -236.9600611925125
 1.7075957626730504E9, -234.32717162370682, -594.5543353557587, -1946.1840985417366, -218.2904806137085
 1.7075957626737647E9, -262.81024968624115, -645.7760051488876, -2016.554056107998, -252.99675220251083
 1.7075957626737647E9, -245.8161442875862, -629.4999605417252, -2001.235425889492, -231.93363565206528
 1.7075957626745236E9, -225.47108852863312, -575.6454011797905, -1924.1635676026344, -205.84409356117249
 1.7075957626745236E9, -246.53420507907867, -614.8993911147118, -1973.231055021286, -228.34333169460297
 1.7075957626866822E9, -253.7148129940033, -641.706993997097, -2033.0694543123245, -239.1142435669899
 1.7075957626866822E9, -226.6678565144539, -591.4427385926247, -1956.9550104141235, -215.89694464206696
 1.7075957627024071E9, -234.56652522087097, -598.3839929103851, -1943.551208972931, -220.20530939102173
 1.7075957627024071E9, -248.4490338563919, -640.9889332056046, -2011.7669841647148, -234.32717162370682
 1.7075957627030373E9, -236.24200040102005, -607.0007224082947, -1978.9755413532257, -225.47108852863312
 1.7075957627030373E9, -229.54009968042374, -584.2621306777, -1936.6099546551704, -217.33306622505188
 1.7075957627172043E9, -257.54447054862976, -635.483800470829, -2004.347022652626, -235.5239396095276
 1.7075957627172043E9, -241.7471331357956, -621.3619382381439, -2005.3044370412827, -229.7794532775879
 1.7075957627326138E9, -225.23173493146896, -581.3898875117302, -1936.8493082523346, -218.2904806137085
 1.7075957627326138E9, -245.8161442875862, -620.4045238494873, -1973.7097622156143, -235.28458601236343
 1.7075957627331953E9, -248.68838745355606, -636.6805684566498, -2017.2721168994904, -238.15682917833328
 1.7075957627331953E9, -216.85435903072357, -578.2782907485962, -1939.003490626812, -202.25378960371017
 1.7075957627467227E9, -230.01880687475204, -583.3047162890434, -1943.551208972931, -219.72660219669342
 1.7075957627467227E9, -252.99675220251083, -643.6218227744102, -2015.5966417193413, -237.43876838684082
 1.7075957627623525E9, -230.01880687475204, -601.7349432706833, -1969.1620438694954, -215.6575910449028
 1.7075957627623525E9, -215.89694464206696, -570.3796220421791, -1916.9829596877098, -200.5783144235611
 1.7075957627630455E9, -235.5239396095276, -611.7877943515778, -1978.7361877560616, -213.74276226758957
 1.7075957627630455E9, -228.58268529176712, -610.1123191714287, -1979.2148949503899, -208.23762953281403
 1.70759576277705E9, -216.61500543355942, -564.8744893074036, -1917.222313284874, -194.3551208972931
 1.70759576277705E9, -232.41234284639359, -598.144639313221, -1955.997596025467, -213.98211586475372
 1.7075957627923398E9, -239.5929507613182, -627.8244853615761, -2004.8257298469543, -227.38591730594635
 1.7075957627923398E9, -226.18914932012558, -592.1607993841171, -1959.5878999829292, -218.7691878080368
 1.7075957627931228E9, -243.18325471878052, -599.3414072990417, -1949.774402499199, -216.1362982392311
 1.7075957627931228E9, -247.01291227340698, -627.8244853615761, -1998.3631827235222, -217.09371262788773
 1.7075957628070092E9, -230.7368676662445, -591.921445786953, -1957.1943640112877, -187.17451298236847
 1.7075957628070092E9, -224.0349669456482, -556.257759809494, -1910.999119758606, -175.68554031848907
 1.7075957628226717E9, -259.459299325943, -620.8832310438156, -1983.0445525050163, -204.40797197818756
 1.7075957628226717E9, -249.16709464788437, -603.8891256451607, -1983.7626132965088, -189.56804895401
 1.7075957628232346E9, -230.01880687475204, -558.1725885868073, -1907.1694622039795, -170.41976118087769
 1.7075957628232346E9, -257.06576335430145, -599.1020537018776, -1953.125352859497, -193.63706010580063
 1.7075957628368447E9, -252.75739860534668, -616.0961591005325, -1992.3793427944183, -200.5783144235611
 1.7075957628368447E9, -238.15682917833328, -579.2357051372528, -1928.232578754425, -177.6003690958023
 1.7075957628523042E9, -238.6355363726616, -580.6718267202377, -1936.8493082523346, -190.04675614833832
 1.7075957628523042E9, -253.7148129940033, -624.4735350012779, -1996.9270611405373, -203.45055758953094
 1.7075957628530283E9, -236.24200040102005, -593.1182137727737, -1962.9388503432274, -191.48287773132324
 1.7075957628530283E9, -227.86462450027466, -563.6777213215828, -1916.9829596877098, -185.02033060789108
 1.7075957628666413E9, -256.58705615997314, -619.925816655159, -1989.5070996284485, -214.93953025341034
 1.7075957628666413E9, -245.8161442875862, -612.0271479487419, -1990.225160419941, -204.1686183810234
 1.707595762882326E9, -224.75302773714066, -565.1138429045677, -1918.897788465023, -180.95131945610046
 1.707595762882326E9, -249.88515543937683, -604.367832839489, -1962.460143148899, -204.88667917251587
 1.70759576288304E9, -247.01291227340698, -624.9522421956062, -2002.671547472477, -207.99827593564987
 1.70759576288304E9, -232.41234284639359, -575.8847547769547, -1938.7641370296478, -187.89257377386093
 1.7075957628966467E9, -231.69428205490112, -576.1241083741188, -1932.780297100544, -187.41386657953262
 1.7075957628966467E9, -249.16709464788437, -627.5851317644119, -2002.910901069641, -224.27432054281235
 1.7075957629122975E9, -235.76329320669174, -595.9904569387436, -1970.5981654524803, -198.90283924341202
 1.7075957629122975E9, -227.6252709031105, -572.2944508194923, -1917.222313284874, -190.52546334266663
 1.7075957629132829E9, -258.5018849372864, -627.5851317644119, -1993.336757183075, -220.44466298818588
 1.7075957629132829E9, -241.50777953863144, -612.9845623373985, -1987.5922708511353, -202.97185039520264
 1.707595762927258E9, -226.90721011161804, -571.3370364308357, -1917.222313284874, -183.58420902490616
 1.707595762927258E9, -248.20968025922775, -603.8891256451607, -1950.7318168878555, -201.0570216178894
 1.7075957629424036E9, -246.29485148191452, -619.4471094608307, -1995.4909395575523, -204.64732557535172
 1.7075957629424036E9, -221.64143097400665, -570.3796220421791, -1928.4719323515892, -179.27584427595139
 1.7075957629431906E9, -234.56652522087097, -583.3047162890434, -1936.3706010580063, -195.79124248027802
 1.7075957629431906E9, -247.73097306489944, -622.5587062239647, -2001.9534866809845, -217.33306622505188
 1.707595762956648E9, -223.07755255699158, -584.9801914691925, -1961.7420823574066, -195.3125352859497
 1.707595762956648E9, -228.1039780974388, -574.6879867911339, -1920.333910048008, -194.59447449445724
 1.707595762972582E9, -241.26842594146729, -612.2665015459061, -1986.3955028653145, -210.15245831012726
 1.707595762972582E9, -229.54009968042374, -609.1549047827721, -1987.5922708511353, -207.04086154699326
 1.7075957629731283E9, -219.00854140520096, -560.3267709612846, -1919.6158492565155, -186.456452190876
 1.7075957629731283E9, -247.25226587057114, -607.2400760054588, -1973.7097622156143, -226.90721011161804
 1.7075957629870715E9, -249.16709464788437, -628.3031925559044, -2009.8521553874016, -223.07755255699158
 1.7075957629870715E9, -218.7691878080368, -567.2680252790451, -1945.22668415308, -196.98801046609879
 1.7075957630023906E9, -224.75302773714066, -572.0550972223282, -1936.3706010580063, -202.25378960371017
 1.7075957630023906E9, -245.09808349609375, -626.6277173757553, -2008.4160338044167, -222.83819895982742
 1.7075957630030353E9, -230.7368676662445, -596.2298105359077, -1961.5027287602425, -194.11576730012894
 1.7075957630030353E9, -216.61500543355942, -558.4119421839714, -1910.999119758606, -184.30226981639862
 1.707595763016914E9, -246.53420507907867, -613.702623128891, -1975.6245909929276, -211.34922629594803
 1.707595763016914E9, -228.82203888893127, -596.2298105359077, -1981.8477845191956, -195.07318168878555
 1.7075957630326383E9, -214.93953025341034, -555.5396990180016, -1908.3662301898003, -175.44618672132492
 1.7075957630326383E9, -228.34333169460297, -588.3311418294907, -1941.6363801956177, -191.2435241341591
 1.7075957630330932E9, -243.90131551027298, -624.4735350012779, -2005.3044370412827, -215.41823744773865
 1.7075957630330932E9, -219.48724859952927, -564.8744893074036, -1929.4293467402458, -185.02033060789108
 1.7075957630469522E9, -233.13040363788605, -579.7144123315811, -1937.328015446663, -200.0996072292328
 1.7075957630469522E9, -251.32127702236176, -627.5851317644119, -2017.7508240938187, -232.17298924922943
 1.7075957630624168E9, -228.34333169460297, -587.8524346351624, -1972.7523478269577, -207.04086154699326
 1.7075957630624168E9, -231.69428205490112, -574.927340388298, -1933.4983578920364, -205.60473996400833
 1.7075957630631044E9, -251.32127702236176, -628.5425461530685, -2009.8521553874016, -236.72070759534836
 1.7075957630631044E9, -233.8484644293785, -612.5058551430702, -1992.3793427944183, -213.0247014760971
 1.707595763076982E9, -216.1362982392311, -568.4647932648659, -1927.7538715600967, -199.86025363206863
 1.707595763076982E9, -236.4813539981842, -606.5220152139664, -1972.2736406326294, -227.86462450027466
 1.7075957630927267E9, -239.83230435848236, -618.4896950721741, -2013.9211665391922, -230.49751406908035
 1.7075957630927267E9, -217.33306622505188, -571.815743625164, -1948.8169881105423, -204.1686183810234
 1.707595763093145E9, -230.2581604719162, -586.8950202465057, -1944.7479769587517, -209.19504392147064
 1.707595763093145E9, -246.53420507907867, -624.4735350012779, -2011.5276305675507, -222.35949176549911
 1.707595763107113E9, -220.20530939102173, -584.9801914691925, -1959.5878999829292, -199.62090003490448
 1.707595763107113E9, -220.44466298818588, -564.8744893074036, -1921.770031630993, -186.456452190876
 1.7075957631225555E9, -243.66196191310883, -621.3619382381439, -1994.2941715717316, -216.85435903072357
 1.7075957631225555E9, -234.32717162370682, -605.0858936309814, -1988.789038836956, -210.87051910161972
 1.7075957631232584E9, -213.50340867042542, -557.9332349896431, -1913.8713629245758, -189.32869535684586
 1.7075957631232584E9, -240.31101155281067, -600.2988216876984, -1967.7259222865105, -219.96595579385757
 1.707595763136758E9, -246.53420507907867, -628.5425461530685, -2013.681812942028, -226.90721011161804
 1.707595763136758E9, -226.6678565144539, -583.3047162890434, -1952.6466456651688, -204.40797197818756
 1.7075957631524155E9, -238.87488996982574, -590.0066170096397, -1940.9183194041252, -204.88667917251587
 1.7075957631524155E9, -242.7045475244522, -628.0638389587402, -2012.4850449562073, -224.0349669456482
 1.7075957631530857E9, -208.9556903243065, -578.038937151432, -1961.7420823574066, -199.62090003490448
 1.7075957631530857E9, -220.44466298818588, -573.251865208149, -1923.6848604083061, -201.29637521505356
 1.7075957631667087E9, -250.12450903654099, -627.8244853615761, -1998.123829126358, -231.93363565206528
 1.7075957631667087E9, -232.8910500407219, -607.0007224082947, -2003.8683154582977, -218.52983421087265
 1.7075957631823788E9, -211.10987269878387, -556.0184062123299, -1923.445506811142, -187.41386657953262
 1.7075957631823788E9, -233.13040363788605, -597.9052857160568, -1973.231055021286, -214.22146946191788
 1.7075957631831071E9, -228.82203888893127, -614.4206839203835, -2006.9799122214317, -221.4020773768425
 1.7075957631831071E9, -224.75302773714066, -580.9111803174019, -1944.9873305559158, -199.14219284057617
 1.7075957631966953E9, -234.08781802654266, -587.1343738436699, -1941.8757337927818, -202.25378960371017
 1.7075957631966953E9, -245.8161442875862, -631.4147893190384, -2012.006337761879, -226.90721011161804
 1.7075957632129314E9, -225.71044212579727, -589.2885562181473, -1968.9226902723312, -203.6899111866951
 1.7075957632129314E9, -213.0247014760971, -561.5235389471054, -1921.770031630993, -195.55188888311386
 1.7075957632131686E9, -237.67812198400497, -615.3780983090401, -1999.3205971121788, -225.47108852863312
 1.7075957632131686E9, -233.3697572350502, -611.0697335600853, -1993.8154643774033, -217.57241982221603
 1.7075957632270114E9, -217.33306622505188, -565.8319036960602, -1936.1312474608421, -203.92926478385925
 1.7075957632270114E9, -241.7471331357956, -609.6336119771004, -1974.906530201435, -225.23173493146896
 1.7075957632427788E9, -244.8587298989296, -633.8083252906799, -2018.9475920796394, -230.2581604719162
 1.7075957632427788E9, -212.30664068460464, -569.4222076535225, -1947.8595737218857, -199.86025363206863
 1.7075957632431493E9, -223.31690615415573, -579.2357051372528, -1941.6363801956177, -210.63116550445557
 1.7075957632431493E9, -234.80587881803513, -617.0535734891891, -2006.2618514299393, -219.00854140520096
 1.7075957632568135E9, -220.20530939102173, -587.8524346351624, -1959.8272535800934, -191.96158492565155
 1.7075957632568135E9, -211.58857989311218, -560.0874173641205, -1918.1797276735306, -188.6106345653534
 1.7075957632724507E9, -240.07165795564651, -620.8832310438156, -1994.2941715717316, -227.86462450027466
 1.7075957632724507E9, -226.6678565144539, -606.2826616168022, -1990.464514017105, -214.22146946191788
 1.7075957632731044E9, -206.56215435266495, -556.7364670038223, -1909.562998175621, -184.30226981639862
 1.7075957632731044E9, -216.85435903072357, -586.4163130521774, -1955.0401816368103, -199.62090003490448
 1.7075957632866457E9, -220.68401658535004, -601.9742968678474, -1998.3631827235222, -209.19504392147064
 1.7075957632866457E9, -207.2802151441574, -557.6938813924789, -1931.104821920395, -184.06291621923447
 1.7075957633024044E9, -223.55625975131989, -579.9537659287453, -1940.2002586126328, -204.88667917251587
 1.7075957633024044E9, -243.18325471878052, -620.8832310438156, -2014.6392273306847, -231.69428205490112
 1.7075957633031108E9, -214.22146946191788, -578.2782907485962, -1970.119458258152, -206.8015079498291
 1.7075957633031108E9, -211.34922629594803, -556.7364670038223, -1924.4029211997986, -198.90283924341202
 1.707595763317008E9, -226.18914932012558, -602.4530040621758, -1986.1561492681503, -222.12013816833496
 1.707595763317008E9, -223.07755255699158, -598.6233465075493, -1986.6348564624786, -206.3228007555008
 1.7075957633327968E9, -214.70017665624619, -568.9435004591942, -1929.1899931430817, -199.86025363206863
 1.7075957633327968E9, -239.5929507613182, -600.5381752848625, -1974.4278230071068, -220.9233701825142
 1.7075957633330736E9, -231.45492845773697, -613.702623128891, -2009.3734481930733, -221.16272377967834
 1.7075957633330736E9, -199.86025363206863, -550.7526270747185, -1932.780297100544, -187.41386657953262
 1.7075957633469727E9, -215.1788838505745, -562.2415997385979, -1930.3867611289024, -204.40797197818756
 1.7075957633469727E9, -228.34333169460297, -612.0271479487419, -2007.45861941576, -227.38591730594635
 1.707595763361832E9, -213.26405507326126, -581.3898875117302, -1963.896264731884, -203.2112039923668
 1.707595763361832E9, -211.10987269878387, -559.369356572628, -1918.4190812706947, -197.4667176604271
 1.7075957633779204E9, -215.89694464206696, -592.8788601756096, -1983.0445525050163, -202.97185039520264
 1.7075957633779204E9, -201.5357288122177, -546.6836159229279, -1909.8023517727852, -176.16424751281738
 1.7075957633781557E9, -226.90721011161804, -590.485324203968, -1959.109192788601, -204.64732557535172
 1.7075957633781557E9, -236.24200040102005, -626.3883637785912, -2016.554056107998, -223.79561334848404
 1.70759576339207E9, -213.98211586475372, -568.9435004591942, -1941.8757337927818, -200.81766802072525
 1.70759576339207E9, -224.9923813343048, -583.7834234833717, -1949.2956953048706, -211.10987269878387
 1.7075957634074483E9, -241.50777953863144, -629.9786677360535, -2020.3837136626244, -230.49751406908035
 1.7075957634074483E9, -216.37565183639526, -585.2195450663567, -1966.7685078978539, -204.88667917251587
 1.7075957634081695E9, -213.98211586475372, -566.0712572932243, -1926.557103574276, -202.01443600654602
 1.7075957634081695E9, -236.4813539981842, -611.5484407544136, -1998.3631827235222, -223.79561334848404
 1.707595763421788E9, -218.2904806137085, -596.4691641330719, -1989.5070996284485, -209.19504392147064
 1.707595763421788E9, -203.6899111866951, -546.4442623257637, -1920.0945564508438, -192.44029211997986
 1.707595763437356E9, -229.30074608325958, -594.5543353557587, -1966.7685078978539, -222.83819895982742
 1.707595763437356E9, -240.31101155281067, -621.1225846409798, -2012.4850449562073, -227.38591730594635
 1.7075957634381025E9, -211.82793349027634, -564.1564285159111, -1939.2428442239761, -195.07318168878555
 1.7075957634381025E9, -216.61500543355942, -573.0125116109848, -1937.567369043827, -198.18477845191956
 1.7075957634517686E9, -240.55036514997482, -626.3883637785912, -2013.9211665391922, -225.71044212579727
 1.7075957634517686E9, -214.22146946191788, -584.0227770805359, -1958.8698391914368, -198.4241320490837
 1.7075957634673617E9, -198.66348564624786, -555.5396990180016, -1914.8287773132324, -186.456452190876
 1.7075957634673617E9, -236.24200040102005, -615.6174519062042, -1995.9696467518806, -220.44466298818588
 1.7075957634680748E9, -220.68401658535004, -590.2459706068039, -1979.2148949503899, -199.38154643774033
 1.7075957634680748E9, -198.4241320490837, -543.3326655626297, -1910.0417053699493, -181.19067305326462
 1.707595763481974E9, -224.0349669456482, -589.0492026209831, -1956.236949622631, -203.92926478385925
 1.707595763481974E9, -228.58268529176712, -606.0433080196381, -1997.4057683348656, -205.36538636684418
 1.707595763497846E9, -208.9556903243065, -560.805478155613, -1933.2590042948723, -190.76481693983078
 1.707595763497846E9, -215.1788838505745, -568.9435004591942, -1929.4293467402458, -197.22736406326294
 1.70759576349828E9, -222.83819895982742, -606.5220152139664, -1993.576110780239, -210.63116550445557
 1.70759576349828E9, -205.84409356117249, -571.5763900279999, -1957.4337176084518, -192.679645717144
 1.7075957635116975E9, -196.98801046609879, -548.3590911030769, -1910.999119758606, -190.04675614833832
 1.7075957635116975E9, -228.34333169460297, -597.9052857160568, -1989.2677460312843, -214.22146946191788
 1.707595763527588E9, -214.22146946191788, -594.5543353557587, -1984.9593812823296, -205.60473996400833
 1.707595763527588E9, -197.4667176604271, -547.4016767144203, -1915.0681309103966, -184.06291621923447
 1.707595763528159E9, -215.1788838505745, -581.8685947060585, -1957.4337176084518, -209.67375111579895
 1.707595763528159E9, -214.22146946191788, -598.144639313221, -1993.8154643774033, -207.04086154699326
 1.7075957635421858E9, -183.58420902490616, -545.9655551314354, -1915.5468381047249, -165.39333564043045
 1.7075957635421858E9, -195.07318168878555, -548.5984447002411, -1911.4778269529343, -171.8558827638626
 1.70759576355759E9, -217.09371262788773, -595.9904569387436, -1991.6612820029259, -209.4343975186348
 1.70759576355759E9, -194.11576730012894, -563.4383677244186, -1950.013756096363, -182.8661482334137
 1.707595763558107E9, -193.39770650863647, -533.5191680788994, -1893.7656607627869, -171.61652916669846
 1.707595763558107E9, -216.61500543355942, -595.9904569387436, -1975.3852373957634, -204.40797197818756
 1.707595763571906E9, -210.3918119072914, -586.1769594550133, -1974.667176604271, -190.28610974550247
 1.707595763571906E9, -191.00417053699493, -535.6733504533768, -1900.9462686777115, -171.61652916669846
 1.707595763587686E9, -209.4343975186348, -573.4912188053131, -1949.774402499199, -191.96158492565155
 1.707595763587686E9, -212.0672870874405, -599.5807608962059, -1991.4219284057617, -203.6899111866951
 1.707595763588168E9, -197.9454248547554, -548.3590911030769, -1923.9242140054703, -184.54162341356277
 1.707595763588168E9, -210.87051910161972, -564.6351357102394, -1931.5835291147232, -199.38154643774033
 1.7075957636018827E9, -236.72070759534836, -616.814219892025, -2011.7669841647148, -228.34333169460297
 1.7075957636018827E9, -200.5783144235611, -572.5338044166565, -1955.997596025467, -197.70607125759125
 1.7075957636173403E9, -200.5783144235611, -552.4281022548676, -1914.8287773132324, -188.6106345653534
 1.7075957636173403E9, -234.08781802654266, -616.3355126976967, -2000.2780115008354, -230.49751406908035
 1.7075957636180356E9, -217.09371262788773, -595.033042550087, -1989.5070996284485, -218.52983421087265
 1.7075957636180356E9, -193.15835291147232, -547.6410303115845, -1921.0519708395004, -193.39770650863647
 1.707595763631908E9, -221.16272377967834, -587.1343738436699, -1963.4175575375557, -216.61500543355942
 1.707595763631908E9, -227.86462450027466, -607.7187831997871, -1999.3205971121788, -211.34922629594803
 1.7075957636474512E9, -199.38154643774033, -558.6512957811356, -1935.6525402665138, -196.03059607744217
 1.7075957636474512E9, -209.67375111579895, -566.7893180847168, -1939.4821978211403, -203.92926478385925
 1.7075957636481073E9, -232.41234284639359, -613.2239159345627, -2008.894740998745, -220.20530939102173
 1.7075957636481073E9, -211.58857989311218, -573.7305724024773, -1960.3059607744217, -198.18477845191956
 1.7075957636619701E9, -209.9131047129631, -555.7790526151657, -1920.8126172423363, -198.4241320490837
 1.7075957636619701E9, -226.6678565144539, -602.4530040621758, -1986.1561492681503, -216.37565183639526
 1.7075957636776764E9, -211.10987269878387, -584.5014842748642, -1977.778773367405, -195.55188888311386
 1.7075957636776764E9, -194.59447449445724, -534.9552896618843, -1903.1004510521889, -167.786871612072
 1.707595763678157E9, -226.90721011161804, -590.2459706068039, -1953.3647064566612, -204.1686183810234
 1.707595763678157E9, -237.91747558116913, -621.6012918353081, -2006.7405586242676, -219.96595579385757
 1.7075957636920536E9, -212.0672870874405, -566.7893180847168, -1938.0460762381554, -192.91899931430817
 1.7075957636920536E9, -225.23173493146896, -579.7144123315811, -1944.9873305559158, -208.71633672714233
 1.7075957637074072E9, -231.69428205490112, -623.037413418293, -2007.2192658185959, -222.83819895982742
 1.7075957637074072E9, -214.46082305908203, -577.7995835542679, -1959.348546385765, -196.50930327177048
 1.7075957637080803E9, -204.64732557535172, -553.3855166435242, -1916.9829596877098, -193.15835291147232
 1.7075957637080803E9, -239.1142435669899, -614.4206839203835, -1996.2090003490448, -224.75302773714066
 1.7075957637217016E9, -219.96595579385757, -599.1020537018776, -1990.225160419941, -213.98211586475372
 1.7075957637217016E9, -211.34922629594803, -560.805478155613, -1925.120981991291, -195.55188888311386
 1.7075957637373576E9, -236.72070759534836, -608.1974903941154, -1972.5129942297935, -216.61500543355942
 1.7075957637373576E9, -230.2581604719162, -619.2077558636665, -2012.2456913590431, -223.07755255699158
 1.7075957637381258E9, -209.19504392147064, -565.1138429045677, -1948.0989273190498, -201.0570216178894
 1.7075957637381258E9, -217.8117734193802, -575.6454011797905, -1950.4924632906914, -213.26405507326126
 1.7075957637516615E9, -233.8484644293785, -618.2503414750099, -2014.6392273306847, -230.49751406908035
 1.7075957637516615E9, -214.46082305908203, -583.3047162890434, -1964.6143255233765, -200.81766802072525
 1.7075957637837524E9, -209.9131047129631, -563.6777213215828, -1925.5996891856194, -201.77508240938187
 1.7075957637837524E9, -222.59884536266327, -603.4104184508324, -1979.6936021447182, -214.22146946191788
 1.707595763784487E9, -216.85435903072357, -595.2723961472511, -1987.8316244482994, -212.0672870874405
 1.707595763784487E9, -196.26994967460632, -545.0081407427788, -1918.1797276735306, -188.84998816251755
 1.707595763785166E9, -224.0349669456482, -590.9640313982964, -1965.0930327177048, -216.61500543355942
 1.707595763785166E9, -223.79561334848404, -600.2988216876984, -1988.3103316426277, -202.01443600654602
 1.7075957637859676E9, -203.6899111866951, -551.9493950605392, -1916.9829596877098, -179.03649067878723
 1.7075957637859676E9, -207.51956874132156, -558.6512957811356, -1924.4029211997986, -192.2009385228157
 1.707595763796991E9, -233.3697572350502, -616.0961591005325, -1997.4057683348656, -212.5459942817688
 1.707595763796991E9, -214.70017665624619, -575.6454011797905, -1955.0401816368103, -195.79124248027802
 1.7075957638116524E9, -214.22146946191788, -557.2151741981506, -1917.222313284874, -195.07318168878555
 1.7075957638116524E9, -230.7368676662445, -607.0007224082947, -1978.9755413532257, -211.10987269878387
 1.7075957638278625E9, -219.00854140520096, -587.6130810379982, -1978.9755413532257, -207.75892233848572
 1.7075957638278625E9, -194.59447449445724, -542.8539583683014, -1900.228207886219, -176.88230830430984
 1.7075957638282433E9, -220.68401658535004, -588.5704954266548, -1956.4763032197952, -211.10987269878387
 1.7075957638282433E9, -221.4020773768425, -601.9742968678474, -2002.910901069641, -213.0247014760971
 1.7075957638418548E9, -200.81766802072525, -563.1990141272545, -1938.2854298353195, -191.00417053699493
 1.7075957638418548E9, -207.75892233848572, -564.1564285159111, -1926.3177499771118, -194.8338280916214
 1.7075957638577137E9, -224.27432054281235, -614.8993911147118, -2000.5173650979996, -215.6575910449028
 1.7075957638577137E9, -208.71633672714233, -576.1241083741188, -1953.8434136509895, -192.91899931430817
 1.7075957638583E9, -205.36538636684418, -550.2739198803902, -1918.897788465023, -189.56804895401
 1.7075957638583E9, -231.93363565206528, -604.367832839489, -1989.2677460312843, -221.16272377967834
 1.7075957638717732E9, -219.00854140520096, -591.6820921897888, -1990.464514017105, -209.19504392147064
 1.7075957638717732E9, -195.3125352859497, -544.7687871456146, -1910.7597661614418, -187.89257377386093
 1.70759576388748E9, -224.75302773714066, -590.0066170096397, -1955.997596025467, -201.5357288122177
 1.70759576388748E9, -223.55625975131989, -603.4104184508324, -2000.7567186951637, -214.70017665624619
 1.707595763888209E9, -204.40797197818756, -555.3003454208374, -1926.0783963799477, -185.25968420505524
 1.707595763888209E9, -221.64143097400665, -573.9699259996414, -1940.2002586126328, -204.40797197818756
 1.7075957639016645E9, -238.87488996982574, -621.6012918353081, -2005.783144235611, -223.31690615415573
 1.7075957639016645E9, -214.70017665624619, -579.475058734417, -1963.4175575375557, -201.0570216178894
 1.7075957639173613E9, -209.19504392147064, -561.7628925442696, -1923.2061532139778, -200.5783144235611
 1.7075957639173613E9, -226.6678565144539, -611.0697335600853, -1991.4219284057617, -228.1039780974388
 1.707595763918078E9, -207.99827593564987, -588.809849023819, -1983.5232596993446, -207.51956874132156
 1.707595763918078E9, -202.01443600654602, -545.7262015342712, -1916.2648988962173, -190.04675614833832
 1.707595763931679E9, -224.9923813343048, -598.3839929103851, -1967.9652758836746, -216.61500543355942
 1.707595763931679E9, -234.80587881803513, -619.6864630579948, -2006.5012050271034, -224.75302773714066
 1.707595763947361E9, -202.49314320087433, -565.1138429045677, -1929.1899931430817, -184.54162341356277
 1.707595763947361E9, -223.55625975131989, -577.3208763599396, -1934.6951258778572, -203.45055758953094
 1.7075957639480572E9, -234.56652522087097, -619.925816655159, -2007.9373266100883, -223.55625975131989
 1.7075957639480572E9, -212.30664068460464, -572.0550972223282, -1959.348546385765, -195.3125352859497
 1.7075957639616723E9, -203.45055758953094, -546.6836159229279, -1915.5468381047249, -188.6106345653534
 1.7075957639616723E9, -228.58268529176712, -599.5807608962059, -1982.565845310688, -206.8015079498291
 1.7075957639773817E9, -231.21557486057281, -602.2136504650116, -1982.3264917135239, -204.1686183810234
 1.7075957639773817E9, -209.67375111579895, -559.1300029754639, -1924.881628394127, -194.3551208972931
 1.7075957639780834E9, -205.84409356117249, -573.251865208149, -1946.662805736065, -196.50930327177048
 1.7075957639780834E9, -209.67375111579895, -598.6233465075493, -1992.6186963915825, -213.50340867042542
 1.7075957639920366E9, -189.0893417596817, -547.1623231172562, -1923.2061532139778, -187.89257377386093
 1.7075957639920366E9, -207.2802151441574, -563.6777213215828, -1935.6525402665138, -207.51956874132156
 1.707595764007995E9, -212.0672870874405, -607.2400760054588, -2006.5012050271034, -228.1039780974388
 1.707595764007995E9, -191.7222313284874, -562.0022461414337, -1955.2795352339745, -202.25378960371017
 1.7075957640081599E9, -188.84998816251755, -546.922969520092, -1912.4352413415909, -194.8338280916214
 1.7075957640081599E9, -222.83819895982742, -605.5646008253098, -1989.0283924341202, -225.94979572296143
 1.7075957640219114E9, -207.99827593564987, -594.7936889529228, -1985.1987348794937, -211.58857989311218
 1.7075957640219114E9, -194.3551208972931, -553.3855166435242, -1921.0519708395004, -204.64732557535172
 1.707595764037424E9, -204.40797197818756, -576.8421691656113, -1954.561474442482, -213.50340867042542
 1.707595764037424E9, -212.30664068460464, -607.479429602623, -2001.7141330838203, -224.0349669456482
 1.707595764038292E9, -183.344855427742, -549.0771518945694, -1921.0519708395004, -188.37128096818924
 1.707595764038292E9, -195.79124248027802, -563.1990141272545, -1928.9506395459175, -205.60473996400833
 1.7075957640516808E9, -217.8117734193802, -613.9419767260551, -1998.6025363206863, -221.4020773768425
 1.7075957640516808E9, -198.18477845191956, -566.7893180847168, -1950.4924632906914, -193.15835291147232
 1.707595764067372E9, -195.3125352859497, -556.7364670038223, -1915.786191701889, -199.14219284057617
 1.707595764067372E9, -214.22146946191788, -602.2136504650116, -1987.352917253971, -222.83819895982742
 1.7075957640680892E9, -196.98801046609879, -582.8260090947151, -1982.0871381163597, -216.1362982392311
 1.7075957640680892E9, -184.30226981639862, -542.8539583683014, -1915.3074845075607, -194.3551208972931
 1.7075957640817783E9, -208.23762953281403, -590.2459706068039, -1959.348546385765, -216.85435903072357
 1.7075957640817783E9, -207.51956874132156, -603.6497720479965, -1992.6186963915825, -214.93953025341034
 1.7075957640973756E9, -179.99390506744385, -543.811372756958, -1916.0255452990532, -187.89257377386093
 1.7075957640973756E9, -205.84409356117249, -567.7467324733734, -1935.6525402665138, -211.58857989311218
 1.707595764098084E9, -215.1788838505745, -608.4368439912796, -2001.4747794866562, -224.5136741399765
 1.707595764098084E9, -200.0996072292328, -572.5338044166565, -1956.7156568169594, -202.73249679803848
 1.7075957641117063E9, -189.0893417596817, -560.0874173641205, -1916.0255452990532, -196.74865686893463
 1.7075957641117063E9, -214.70017665624619, -605.3252472281456, -1988.5496852397919, -225.71044212579727
 1.7075957641274023E9, -198.90283924341202, -585.9376058578491, -1984.001966893673, -212.30664068460464
 1.7075957641274023E9, -185.9777449965477, -550.2739198803902, -1913.8713629245758, -192.2009385228157
 1.7075957641281111E9, -202.01443600654602, -580.6718267202377, -1956.4763032197952, -211.10987269878387
 1.7075957641281111E9, -198.18477845191956, -593.1182137727737, -1991.90063560009, -213.26405507326126
 1.7075957641419773E9, -187.17451298236847, -554.8216382265091, -1926.0783963799477, -190.76481693983078
 1.7075957641419773E9, -203.92926478385925, -570.6189756393433, -1935.6525402665138, -210.3918119072914
