 Timestamp, EXG Channel 0, EXG Channel 1, EXG Channel 2, EXG Channel 3
 1.706387777664476E9, -566.7893180847168, -723.0872170329094, -545.9655551314354, -424.134574174881
 1.706387777664476E9, 0.0, 0.0, 0.0, 0.0
 1.7063877777072198E9, -472.9627079963684, -716.1459627151489, -546.2049087285995, -297.0378140807152
 1.7063877777072198E9, -591.4427385926247, -726.4381673932076, -543.811372756958, -445.4370443224907
 1.7063877777218528E9, -542.8539583683014, -734.5761896967888, -552.1887486577034, -421.74103820323944
 1.7063877777218528E9, -453.57506662607193, -720.6936810612679, -554.3429310321808, -291.2933277487755
 1.706387777736334E9, -555.5396990180016, -722.1298026442528, -558.4119421839714, -401.6353360414505
 1.706387777736334E9, -590.7246778011322, -747.5012839436531, -556.7364670038223, -472.4840008020401
 1.7063877777370768E9, -468.4149896502495, -736.9697256684303, -563.1990141272545, -329.350549697876
 1.7063877777370768E9, -518.4398914575577, -725.7201066017151, -553.14616304636, -345.14788711071014
 1.706387777751202E9, -606.5220152139664, -737.6877864599228, -556.7364670038223, -478.46784073114395
 1.706387777751202E9, -500.7277252674103, -738.8845544457436, -565.8319036960602, -376.024501144886
 1.706387777766373E9, -477.98913353681564, -723.5659242272377, -554.3429310321808, -308.04807955026627
 1.706387777766373E9, -596.9478713274002, -736.7303720712662, -548.3590911030769, -452.6176522374153
 1.706387777767134E9, -544.5294335484505, -741.038736820221, -552.6674558520317, -427.96423172950745
 1.706387777767134E9, -449.26670187711716, -718.5394986867905, -550.5132734775543, -290.0965597629547
 1.7063877777806954E9, -548.3590911030769, -718.5394986867905, -547.6410303115845, -394.9334353208542
 1.7063877777806954E9, -568.4647932648659, -726.6775209903717, -544.5294335484505, -457.8834313750267
 1.7063877777974427E9, -454.7718346118927, -724.7626922130585, -550.2739198803902, -318.10093063116074
 1.7063877777974427E9, -511.4986371397972, -719.4969130754471, -544.2900799512863, -337.72792559862137
 1.7063877777978592E9, -600.7775288820267, -735.2942504882812, -546.4442623257637, -475.35624396800995
 1.7063877777978592E9, -501.92449325323105, -739.1239080429077, -551.4706878662109, -366.92906445264816
 1.7063877778271813E9, -472.0052936077118, -717.1033771038055, -542.8539583683014, -293.686863720417
 1.7063877778271813E9, -602.6923576593399, -741.2780904173851, -547.6410303115845, -442.804154753685
 1.7063877778278391E9, -549.3165054917336, -740.3206760287285, -551.9493950605392, -421.5016846060753
 1.7063877778278391E9, -459.0801993608475, -726.6775209903717, -554.8216382265091, -291.7720349431038
 1.7063877778285556E9, -562.0022461414337, -730.267824947834, -557.9332349896431, -390.86442416906357
 1.7063877778285556E9, -600.0594680905342, -754.9212454557419, -564.6351357102394, -470.56917202472687
 1.7063877778406248E9, -474.39882957935333, -744.6290407776833, -557.2151741981506, -325.5208921432495
 1.7063877778406248E9, -520.5940738320351, -730.7465321421623, -554.3429310321808, -343.47241193056107
 1.7063877778563063E9, -609.6336119771004, -744.3896871805191, -557.6938813924789, -471.76594001054764
 1.7063877778563063E9, -505.2754436135292, -742.4748584032059, -560.805478155613, -367.6471252441406
 1.7063877778570337E9, -477.031719148159, -722.8478634357452, -546.4442623257637, -301.5855324268341
 1.7063877778570337E9, -592.6395065784454, -731.7039465308189, -547.1623231172562, -443.52221554517746
 1.7063877778721373E9, -540.699775993824, -741.038736820221, -544.7687871456146, -417.911380648613
 1.7063877778721373E9, -456.4473097920418, -721.8904490470886, -547.4016767144203, -292.01138854026794
 1.7063877778862936E9, -551.2313342690468, -716.6246699094772, -536.1520576477051, -386.31670582294464
 1.7063877778862936E9, -575.8847547769547, -734.8155432939529, -543.5720191597939, -457.4047241806984
 1.7063877778870246E9, -452.138945043087, -719.0182058811188, -545.0081407427788, -306.13325077295303
 1.7063877778870246E9, -503.5999684333801, -714.9491947293282, -540.4604223966599, -333.8982680439949
 1.7063877779008565E9, -591.4427385926247, -731.7039465308189, -546.922969520092, -465.7821000814438
 1.7063877779008565E9, -489.95681339502335, -732.6613609194756, -547.1623231172562, -361.18457812070847
 1.7063877779162955E9, -469.8511112332344, -719.0182058811188, -546.2049087285995, -303.02165400981903
 1.7063877779162955E9, -594.3149817585945, -730.267824947834, -553.14616304636, -448.5486410856247
 1.7063877779170208E9, -549.0771518945694, -744.3896871805191, -561.0448317527771, -427.48552453517914
 1.7063877779170208E9, -463.38856410980225, -729.0710569620132, -557.9332349896431, -301.1068252325058
 1.7063877779306517E9, -566.5499644875526, -733.379421710968, -557.6938813924789, -402.35339683294296
 1.7063877779306517E9, -594.7936889529228, -752.049002289772, -567.2680252790451, -475.5955975651741
 1.706387777946346E9, -473.4414151906967, -741.5174440145493, -564.8744893074036, -329.58990329504013
 1.706387777946346E9, -515.0889410972595, -724.044631421566, -558.4119421839714, -345.14788711071014
 1.7063877779471474E9, -613.4632695317268, -744.8683943748474, -557.4545277953148, -477.7497799396515
 1.7063877779471474E9, -500.96707886457443, -739.3632616400719, -559.369356572628, -375.30644035339355
 1.7063877779606333E9, -470.3298184275627, -717.5820842981339, -551.9493950605392, -304.93648278713226
 1.7063877779606333E9, -586.4163130521774, -730.9858857393265, -550.5132734775543, -446.3944587111473
 1.7063877779765196E9, -540.9391295909882, -736.2516648769379, -552.6674558520317, -423.6558669805527
 1.7063877779765196E9, -452.6176522374153, -719.2575594782829, -548.1197375059128, -298.23458206653595
 1.7063877779772203E9, -553.3855166435242, -720.2149738669395, -552.1887486577034, -400.1992144584656
 1.7063877779772203E9, -583.3047162890434, -740.5600296258926, -558.6512957811356, -465.7821000814438
 1.70638777799063E9, -459.3195529580116, -731.7039465308189, -563.1990141272545, -329.1111961007118
 1.70638777799063E9, -500.7277252674103, -713.0343659520149, -552.4281022548676, -342.7543511390686
 1.7063877780063963E9, -592.8788601756096, -735.5336040854454, -556.257759809494, -476.0743047595024
 1.7063877780063963E9, -487.32392382621765, -735.0548968911171, -554.5822846293449, -371.71613639593124
 1.70638777800713E9, -459.5589065551758, -712.0769515633583, -547.8803839087486, -304.2184219956398
 1.70638777800713E9, -584.9801914691925, -725.9594601988792, -546.6836159229279, -445.915751516819
 1.7063877780206485E9, -537.1094720363617, -735.2942504882812, -548.3590911030769, -420.7836238145828
 1.7063877780206485E9, -449.9847626686096, -720.4543274641037, -550.5132734775543, -297.27716767787933
 1.706387778036615E9, -547.8803839087486, -713.9917803406715, -542.1358975768089, -392.3005457520485
 1.706387778036615E9, -579.9537659287453, -741.038736820221, -552.9068094491959, -464.34597849845886
 1.7063877780371284E9, -465.7821000814438, -737.4484328627586, -556.257759809494, -322.64864897727966
 1.7063877780371284E9, -509.583808362484, -720.6936810612679, -556.0184062123299, -341.0788759589195
 1.706387778050629E9, -597.1872249245644, -737.2090792655945, -546.6836159229279, -469.3724040389061
 1.706387778050629E9, -495.4619461297989, -736.7303720712662, -556.257759809494, -369.801307618618
 1.706387778066579E9, -479.42525511980057, -722.6085098385811, -557.6938813924789, -307.3300187587738
 1.706387778066579E9, -585.2195450663567, -729.0710569620132, -553.14616304636, -447.83058029413223
 1.7063877780671606E9, -537.1094720363617, -737.927140057087, -557.9332349896431, -425.0919885635376
 1.7063877780671606E9, -450.4634698629379, -721.8904490470886, -559.6087101697922, -294.8836317062378
 1.7063877780806658E9, -544.0507263541222, -718.0607914924622, -544.5294335484505, -387.9921810030937
 1.7063877780806658E9, -570.8583292365074, -733.379421710968, -549.3165054917336, -457.64407777786255
 1.7063877780966983E9, -447.11251950263977, -720.6936810612679, -545.7262015342712, -310.68096911907196
 1.7063877780966983E9, -494.5045317411423, -707.2898796200752, -541.4178367853165, -332.2227928638458
 1.7063877780971868E9, -578.038937151432, -719.2575594782829, -541.1784831881523, -466.02145367860794
 1.7063877780971868E9, -478.94654792547226, -717.1033771038055, -547.4016767144203, -367.40777164697647
 1.706387778110628E9, -451.42088425159454, -708.7260012030602, -544.2900799512863, -298.71328926086426
 1.706387778110628E9, -576.8421691656113, -719.9756202697754, -546.4442623257637, -445.67639791965485
 1.706387778126443E9, -526.8172673583031, -726.6775209903717, -547.1623231172562, -423.17715978622437
 1.706387778126443E9, -435.14483964443207, -709.6834155917168, -544.2900799512863, -289.6178525686264
 1.706387778127322E9, -534.476582467556, -707.0505260229111, -536.1520576477051, -386.31670582294464
 1.706387778127322E9, -564.8744893074036, -724.044631421566, -543.811372756958, -457.4047241806984
 1.7063877781406436E9, -448.0699338912964, -718.7788522839546, -546.6836159229279, -315.7073946595192
 1.7063877781406436E9, -500.0096644759178, -704.4176364541054, -542.1358975768089, -335.573743224144
 1.706387778156375E9, -590.2459706068039, -725.4807530045509, -548.1197375059128, -469.61175763607025
 1.706387778156375E9, -486.1271558403969, -725.0020458102226, -545.2474943399429, -365.49294286966324
 1.706387778157072E9, -466.50016087293625, -711.1195371747017, -545.7262015342712, -299.910057246685
 1.706387778157072E9, -586.4163130521774, -726.4381673932076, -546.922969520092, -448.5486410856247
 1.7063877781710556E9, -534.476582467556, -735.7729576826096, -553.3855166435242, -422.69845259189606
 1.7063877781710556E9, -463.6279177069664, -727.6349353790283, -555.3003454208374, -294.4049245119095
 1.7063877781863675E9, -556.9758206009865, -726.1988137960434, -549.7952126860619, -398.5237392783165
 1.7063877781863675E9, -583.3047162890434, -744.8683943748474, -555.3003454208374, -468.8936968445778
 1.7063877781870794E9, -465.7821000814438, -731.2252393364906, -559.6087101697922, -325.0421849489212
 1.7063877781870794E9, -510.78057634830475, -722.6085098385811, -545.4868479371071, -336.5311576128006
 1.706387778200946E9, -600.0594680905342, -738.4058472514153, -544.5294335484505, -465.54274648427963
 1.706387778200946E9, -494.5045317411423, -729.0710569620132, -553.3855166435242, -370.04066121578217
 1.7063877782164745E9, -464.1066249012947, -709.2047083973885, -537.8275328278542, -293.2081565260887
 1.7063877782164745E9, -586.6556666493416, -723.0872170329094, -543.5720191597939, -440.1712651848793
 1.706387778217081E9, -531.364985704422, -728.5923497676849, -542.1358975768089, -414.5604302883148
 1.706387778217081E9, -444.9583371281624, -714.4704875349998, -546.2049087285995, -292.01138854026794
 1.706387778230894E9, -542.8539583683014, -712.0769515633583, -538.7849472165108, -388.2315346002579
 1.706387778230894E9, -566.7893180847168, -732.6613609194756, -548.3590911030769, -457.64407777786255
 1.706387778246375E9, -451.6602378487587, -726.9168745875359, -553.8642238378525, -318.8189914226532
 1.706387778246375E9, -495.4619461297989, -710.4014763832092, -551.2313342690468, -338.685339987278
 1.706387778247066E9, -584.5014842748642, -725.7201066017151, -548.5984447002411, -474.6381831765175
 1.706387778247066E9, -487.5632774233818, -732.4220073223114, -548.5984447002411, -362.6206997036934
 1.7063877782611024E9, -464.1066249012947, -713.2737195491791, -545.9655551314354, -302.0642396211624
 1.7063877782611024E9, -576.6028155684471, -719.0182058811188, -541.1784831881523, -444.00092273950577
 1.7063877782763624E9, -529.9288641214371, -732.4220073223114, -550.9919806718826, -423.8952205777168
 1.7063877782763624E9, -436.1022540330887, -707.5292332172394, -545.9655551314354, -288.6604381799698
 1.7063877782770507E9, -536.1520576477051, -706.5718188285828, -543.0933119654655, -392.7792529463768
 1.7063877782770507E9, -570.140268445015, -730.9858857393265, -552.1887486577034, -460.5163209438324
 1.7063877782909594E9, -455.250541806221, -728.3529961705208, -555.7790526151657, -324.5634777545929
 1.7063877782909594E9, -512.2166979312897, -723.0872170329094, -558.4119421839714, -349.4562518596649
 1.7063877783068938E9, -599.82011449337, -744.150333583355, -555.7790526151657, -480.8613767027855
 1.7063877783068938E9, -501.92449325323105, -745.5864551663399, -571.3370364308357, -379.6148051023483
 1.706387778307124E9, -475.1168903708458, -725.7201066017151, -560.805478155613, -313.31385868787766
 1.706387778307124E9, -596.708517730236, -738.1664936542511, -553.3855166435242, -455.250541806221
 1.706387778320661E9, -544.0507263541222, -741.7567976117134, -559.6087101697922, -429.40035331249237
 1.706387778320661E9, -451.6602378487587, -719.7362666726112, -557.6938813924789, -297.9952284693718
 1.706387778336406E9, -550.034566283226, -722.1298026442528, -549.5558590888977, -399.0024464726448
 1.706387778336406E9, -574.4486331939697, -735.0548968911171, -559.1300029754639, -467.9362824559212
 1.7063877783370707E9, -454.05377382040024, -725.0020458102226, -550.9919806718826, -319.7764058113098
 1.7063877783370707E9, -505.2754436135292, -716.8640235066414, -546.4442623257637, -341.3182295560837
 1.7063877783507617E9, -587.8524346351624, -730.0284713506699, -549.3165054917336, -472.9627079963684
 1.7063877783507617E9, -483.4942662715912, -726.9168745875359, -555.0609918236732, -375.5457939505577
 1.706387778366829E9, -461.9524425268173, -710.4014763832092, -547.1623231172562, -307.56937235593796
 1.706387778366829E9, -574.927340388298, -717.5820842981339, -544.7687871456146, -443.52221554517746
 1.7063877783671913E9, -528.9714497327805, -733.6187753081322, -551.7100414633751, -422.21974539756775
 1.7063877783671913E9, -444.00092273950577, -714.4704875349998, -550.9919806718826, -296.3197532892227
 1.7063877783806689E9, -549.3165054917336, -718.3001450896263, -548.3590911030769, -398.0450320839882
 1.7063877783806689E9, -570.6189756393433, -734.3368360996246, -550.5132734775543, -461.71308892965317
 1.7063877783966048E9, -454.53248101472855, -725.4807530045509, -547.4016767144203, -319.05834501981735
 1.7063877783966048E9, -501.6851396560669, -714.709841132164, -550.034566283226, -348.25948387384415
 1.7063877783972383E9, -590.0066170096397, -733.1400681138039, -550.7526270747185, -478.7071943283081
 1.7063877783972383E9, -490.1961669921875, -733.8581289052963, -554.8216382265091, -370.2800148129463
 1.7063877784106529E9, -475.5955975651741, -722.1298026442528, -559.1300029754639, -309.72355473041534
 1.7063877784106529E9, -588.809849023819, -727.6349353790283, -557.9332349896431, -450.4634698629379
 1.706387778426324E9, -547.1623231172562, -745.3471015691757, -555.3003454208374, -429.6397069096565
 1.706387778426324E9, -460.75567454099655, -730.9858857393265, -563.1990141272545, -303.2610076069832
 1.7063877784270196E9, -556.9758206009865, -727.8742889761925, -560.5661245584488, -404.98628640174866
 1.7063877784270196E9, -590.9640313982964, -757.0754278302193, -564.8744893074036, -478.46784073114395
 1.7063877784410062E9, -467.45757526159286, -739.1239080429077, -559.8480637669563, -326.4783065319061
 1.7063877784410062E9, -515.0889410972595, -728.3529961705208, -557.9332349896431, -346.8233622908592
 1.7063877784643798E9, -600.7775288820267, -744.3896871805191, -552.9068094491959, -477.2710727453232
 1.7063877784643798E9, -500.96707886457443, -744.8683943748474, -563.6777213215828, -379.3754515051842
 1.706387778464424E9, -481.3400838971138, -727.6349353790283, -561.0448317527771, -314.27127307653427
 1.706387778464424E9, -594.5543353557587, -737.6877864599228, -554.8216382265091, -451.89959144592285
 1.7063877784873745E9, -539.5030080080032, -738.4058472514153, -558.8906493782997, -421.26233100891113
 1.7063877784873745E9, -446.8731659054756, -720.933034658432, -549.5558590888977, -295.60169249773026
 1.7063877784878361E9, -543.5720191597939, -712.0769515633583, -544.7687871456146, -390.1463633775711
 1.7063877784878361E9, -570.3796220421791, -731.9433001279831, -545.2474943399429, -461.9524425268173
 1.706387778488596E9, -452.6176522374153, -719.2575594782829, -559.369356572628, -322.16994178295135
 1.706387778488596E9, -501.92449325323105, -714.9491947293282, -551.9493950605392, -347.30206948518753
 1.706387778500874E9, -590.2459706068039, -733.379421710968, -548.5984447002411, -474.6381831765175
 1.706387778500874E9, -490.43552058935165, -730.7465321421623, -553.14616304636, -373.15225797891617
 1.7063877785166705E9, -463.6279177069664, -711.3588907718658, -545.0081407427788, -301.1068252325058
 1.7063877785166705E9, -586.1769594550133, -725.2413994073868, -542.1358975768089, -443.7615691423416
 1.706387778517306E9, -536.8701184391975, -734.0974825024605, -554.3429310321808, -424.85263496637344
 1.706387778517306E9, -448.5486410856247, -719.4969130754471, -550.034566283226, -296.55910688638687
 1.7063877785332372E9, -549.5558590888977, -713.0343659520149, -540.9391295909882, -391.1037777662277
 1.7063877785332372E9, -572.0550972223282, -730.7465321421623, -545.9655551314354, -459.79826015233994
 1.7063877785465171E9, -454.05377382040024, -718.0607914924622, -547.1623231172562, -318.3402842283249
 1.7063877785465171E9, -505.2754436135292, -715.1885483264923, -546.6836159229279, -339.88210797309875
 1.706387778547127E9, -586.4163130521774, -728.8317033648491, -547.8803839087486, -471.0478792190552
 1.706387778547127E9, -486.36650943756104, -726.9168745875359, -549.3165054917336, -368.8438932299614
 1.706387778560897E9, -465.7821000814438, -708.0079404115677, -543.5720191597939, -300.38876444101334
 1.706387778560897E9, -584.0227770805359, -722.1298026442528, -546.922969520092, -449.9847626686096
 1.70638777857656E9, -533.0404608845711, -730.5071785449982, -553.3855166435242, -422.9378061890602
 1.70638777857656E9, -444.2402763366699, -716.3853163123131, -549.3165054917336, -297.27716767787933
 1.7063877785770943E9, -547.8803839087486, -715.1885483264923, -547.1623231172562, -399.72050726413727
 1.7063877785770943E9, -569.1828540563583, -730.9858857393265, -556.9758206009865, -463.86727130413055
 1.7063877785906732E9, -453.3357130289078, -727.1562281847, -559.1300029754639, -323.3667097687721
 1.7063877785906732E9, -500.7277252674103, -714.4704875349998, -549.3165054917336, -342.51499754190445
 1.7063877786063437E9, -594.0756281614304, -732.1826537251472, -552.6674558520317, -473.4414151906967
 1.7063877786063437E9, -484.69103425741196, -725.9594601988792, -547.6410303115845, -367.1684180498123
 1.7063877786070602E9, -466.50016087293625, -711.8375979661942, -555.0609918236732, -307.09066516160965
 1.7063877786070602E9, -584.9801914691925, -721.6510954499245, -542.6146047711372, -447.11251950263977
 1.7063877786211464E9, -528.9714497327805, -729.0710569620132, -545.9655551314354, -418.62944144010544
 1.7063877786211464E9, -446.3944587111473, -714.4704875349998, -546.4442623257637, -292.96880292892456
 1.7063877786363592E9, -548.5984447002411, -718.0607914924622, -546.6836159229279, -396.13020330667496
 1.7063877786363592E9, -579.7144123315811, -740.0813224315643, -556.257759809494, -468.65434324741364
 1.7063877786370976E9, -461.23438173532486, -730.7465321421623, -551.7100414633751, -320.9731737971306
 1.7063877786370976E9, -512.9347587227821, -722.1298026442528, -546.4442623257637, -341.796936750412
 1.7063877786672895E9, -600.5381752848625, -740.0813224315643, -555.5396990180016, -479.6646087169647
 1.7063877786672895E9, -494.9832389354706, -736.0123112797737, -558.6512957811356, -372.4341971874237
 1.7063877786677659E9, -477.98913353681564, -727.1562281847, -553.3855166435242, -310.68096911907196
 1.7063877786677659E9, -595.9904569387436, -738.1664936542511, -556.9758206009865, -458.60149216651917
 1.7063877786684744E9, -540.9391295909882, -737.4484328627586, -555.7790526151657, -425.33134216070175
 1.7063877786684744E9, -456.68666338920593, -728.8317033648491, -554.8216382265091, -298.71328926086426
 1.7063877786811223E9, -556.4971134066582, -726.4381673932076, -549.3165054917336, -392.7792529463768
 1.7063877786811223E9, -580.4324731230736, -738.6452008485794, -543.811372756958, -456.9260169863701
 1.7063877786956873E9, -461.71308892965317, -735.5336040854454, -550.9919806718826, -315.2286874651909
 1.7063877786956873E9, -507.19027239084244, -713.5130731463432, -547.8803839087486, -340.6001687645912
 1.7063877787115576E9, -487.80263102054596, -733.379421710968, -552.4281022548676, -369.3226004242897
 1.7063877787115576E9, -468.1756360530853, -712.3163051605225, -548.1197375059128, -305.41518998146057
 1.7063877787121153E9, -590.2459706068039, -732.9007145166397, -544.7687871456146, -448.5486410856247
 1.7063877787121153E9, -536.1520576477051, -735.0548968911171, -551.7100414633751, -419.10814863443375
 1.706387778725898E9, -450.2241162657738, -720.933034658432, -543.5720191597939, -291.7720349431038
 1.706387778725898E9, -549.5558590888977, -714.9491947293282, -539.5030080080032, -393.97602093219757
 1.7063877787417388E9, -578.9963515400887, -737.4484328627586, -543.0933119654655, -455.01118820905685
 1.7063877787417388E9, -453.3357130289078, -723.3265706300735, -543.3326655626297, -313.79256588220596
 1.7063877787421873E9, -506.9509187936783, -714.4704875349998, -542.3752511739731, -336.29180401563644
 1.7063877787421873E9, -595.033042550087, -730.7465321421623, -542.8539583683014, -467.45757526159286
 1.7063877787557137E9, -484.69103425741196, -723.5659242272377, -540.699775993824, -357.59427416324615
 1.7063877787557137E9, -466.7395144701004, -712.5556587576866, -539.7423616051674, -293.686863720417
 1.7063877787715397E9, -581.3898875117302, -723.5659242272377, -532.5617536902428, -435.6235468387604
 1.7063877787715397E9, -535.1946432590485, -733.1400681138039, -550.2739198803902, -419.3475022315979
 1.7063877787867696E9, -452.6176522374153, -720.4543274641037, -548.5984447002411, -293.44751012325287
 1.7063877787867696E9, -554.3429310321808, -719.7362666726112, -541.4178367853165, -391.1037777662277
 1.7063877787871034E9, -573.4912188053131, -731.4645929336548, -541.8965439796448, -456.4473097920418
 1.7063877787871034E9, -453.8144202232361, -721.6510954499245, -552.6674558520317, -316.90416264533997
 1.7063877788016343E9, -511.0199299454689, -721.6510954499245, -548.1197375059128, -343.2330583333969
 1.7063877788016343E9, -598.144639313221, -738.1664936542511, -548.1197375059128, -468.65434324741364
 1.706387778802266E9, -495.70129972696304, -734.8155432939529, -556.7364670038223, -372.67355078458786
 1.706387778802266E9, -472.4840008020401, -715.9066091179848, -553.6248702406883, -309.4842011332512
 1.7063877788156483E9, -600.0594680905342, -735.0548968911171, -552.6674558520317, -456.2079561948776
 1.7063877788156483E9, -545.9655551314354, -749.1767591238022, -557.6938813924789, -429.40035331249237
 1.7063877788313928E9, -458.60149216651917, -729.0710569620132, -554.8216382265091, -294.4049245119095
 1.7063877788313928E9, -565.3531965017319, -730.5071785449982, -561.2841853499413, -402.83210402727127
 1.7063877788322363E9, -590.2459706068039, -750.373527109623, -559.8480637669563, -468.4149896502495
 1.7063877788322363E9, -471.76594001054764, -738.4058472514153, -561.2841853499413, -326.4783065319061
 1.7063877788456695E9, -522.7482562065125, -725.9594601988792, -558.8906493782997, -350.6530198454857
 1.7063877788456695E9, -613.4632695317268, -747.7406375408173, -554.5822846293449, -477.7497799396515
 1.7063877788616219E9, -507.19027239084244, -743.4322727918625, -559.369356572628, -372.912904381752
 1.7063877788616219E9, -477.98913353681564, -716.3853163123131, -547.6410303115845, -303.50036120414734
 1.7063877788621447E9, -592.8788601756096, -732.9007145166397, -545.4868479371071, -448.78799468278885
 1.7063877788621447E9, -540.9391295909882, -740.7993832230568, -550.9919806718826, -421.26233100891113
 1.7063877788758743E9, -454.2931274175644, -719.4969130754471, -548.1197375059128, -294.16557091474533
 1.7063877788758743E9, -557.2151741981506, -723.3265706300735, -543.5720191597939, -398.76309287548065
 1.7063877788913443E9, -580.1931195259094, -740.0813224315643, -548.3590911030769, -460.5163209438324
 1.7063877788913443E9, -464.34597849845886, -729.7891177535057, -556.9758206009865, -321.69123458862305
 1.7063877788921173E9, -517.4824770689011, -723.0872170329094, -554.5822846293449, -348.73819106817245
 1.7063877788921173E9, -602.4530040621758, -741.9961512088776, -557.4545277953148, -483.25491267442703
 1.7063877789056473E9, -496.65871411561966, -742.2355048060417, -559.8480637669563, -373.87031877040863
 1.7063877789056473E9, -486.36650943756104, -733.379421710968, -557.9332349896431, -319.2976986169815
 1.7063877789213572E9, -596.4691641330719, -738.6452008485794, -553.14616304636, -459.3195529580116
 1.7063877789213572E9, -545.4868479371071, -749.1767591238022, -562.2415997385979, -433.70871806144714
 1.70638777893633E9, -460.9950281381607, -726.9168745875359, -552.4281022548676, -299.19199645519257
 1.70638777893633E9, -559.1300029754639, -725.7201066017151, -547.8803839087486, -403.0714576244354
 1.7063877789370642E9, -577.5602299571037, -736.9697256684303, -553.6248702406883, -472.9627079963684
 1.7063877789370642E9, -455.01118820905685, -727.8742889761925, -553.14616304636, -326.7176601290703
 1.70638777895136E9, -507.19027239084244, -715.4279019236565, -541.6571903824806, -348.02013027668
 1.70638777895136E9, -591.921445786953, -736.7303720712662, -550.5132734775543, -477.98913353681564
 1.7063877789520793E9, -487.0845702290535, -729.5497641563416, -546.2049087285995, -371.9554899930954
 1.7063877789520793E9, -473.4414151906967, -714.709841132164, -549.7952126860619, -314.0319194793701
 1.7063877789656928E9, -588.5704954266548, -725.4807530045509, -543.3326655626297, -457.8834313750267
 1.7063877789656928E9, -538.0668864250183, -737.6877864599228, -548.5984447002411, -426.0494029521942
 1.7063877789813683E9, -452.37829864025116, -720.2149738669395, -552.1887486577034, -305.1758363842964
 1.7063877789813683E9, -554.8216382265091, -717.1033771038055, -540.9391295909882, -398.28438568115234
 1.7063877789821498E9, -570.140268445015, -732.4220073223114, -544.0507263541222, -459.5589065551758
 1.7063877789821498E9, -443.52221554517746, -717.3427307009697, -543.5720191597939, -318.57963782548904
 1.70638777899587E9, -498.33418929576874, -705.375050842762, -539.7423616051674, -344.908533513546
 1.70638777899587E9, -591.2033849954605, -729.7891177535057, -545.9655551314354, -479.1859015226364
 1.7063877790113208E9, -488.99939900636673, -732.4220073223114, -547.6410303115845, -371.9554899930954
 1.7063877790113208E9, -472.4840008020401, -717.1033771038055, -544.7687871456146, -308.7661403417587
 1.7063877790120528E9, -591.4427385926247, -729.7891177535057, -548.3590911030769, -455.96860259771347
 1.7063877790120528E9, -538.0668864250183, -736.9697256684303, -557.2151741981506, -432.9906572699547
 1.7063877790256515E9, -452.6176522374153, -720.2149738669395, -554.1035774350166, -302.7823004126549
 1.7063877790256515E9, -550.034566283226, -722.6085098385811, -545.2474943399429, -403.7895184159279
 1.7063877790413694E9, -575.4060475826263, -740.3206760287285, -554.5822846293449, -467.45757526159286
 1.7063877790413694E9, -455.01118820905685, -724.044631421566, -553.6248702406883, -323.12735617160797
 1.7063877790420964E9, -510.5412227511406, -715.1885483264923, -547.4016767144203, -348.02013027668
 1.7063877790420964E9, -601.9742968678474, -737.927140057087, -545.2474943399429, -478.7071943283081
 1.706387779055858E9, -499.5309572815895, -741.038736820221, -554.8216382265091, -373.3916115760803
 1.706387779055858E9, -481.8187910914421, -725.4807530045509, -553.3855166435242, -319.05834501981735
 1.7063877790714164E9, -593.8362745642662, -729.5497641563416, -553.8642238378525, -464.1066249012947
 1.7063877790714164E9, -538.5455936193466, -736.491018474102, -552.9068094491959, -432.5119500756264
 1.7063877790721204E9, -458.60149216651917, -719.0182058811188, -554.8216382265091, -304.93648278713226
 1.7063877790721204E9, -554.3429310321808, -715.4279019236565, -544.5294335484505, -404.02887201309204
 1.7063877790860925E9, -573.251865208149, -736.491018474102, -553.14616304636, -472.72335439920425
 1.7063877790860925E9, -451.89959144592285, -720.933034658432, -548.3590911030769, -320.4944666028023
 1.706387779101436E9, -501.2064324617386, -709.2047083973885, -538.5455936193466, -340.1214615702629
 1.706387779101436E9, -584.7408378720284, -716.8640235066414, -533.2798144817352, -465.54274648427963
 1.7063877791021163E9, -481.8187910914421, -718.0607914924622, -541.4178367853165, -363.33876049518585
 1.7063877791021163E9, -454.2931274175644, -697.4763821363449, -535.9127040505409, -301.82488602399826
 1.706387779115648E9, -578.7569979429245, -715.9066091179848, -535.1946432590485, -449.027348279953
 1.706387779115648E9, -527.7746817469597, -723.0872170329094, -549.3165054917336, -424.134574174881
 1.7063877791314209E9, -447.3518730998039, -712.0769515633583, -550.034566283226, -298.71328926086426
 1.7063877791314209E9, -548.8377982974052, -715.9066091179848, -538.7849472165108, -397.80567848682404
 1.7063877791321144E9, -565.1138429045677, -732.1826537251472, -547.4016767144203, -458.60149216651917
 1.7063877791321144E9, -447.5912266969681, -723.5659242272377, -550.034566283226, -321.9305881857872
 1.7063877791457388E9, -501.92449325323105, -713.7524267435074, -541.4178367853165, -342.2756439447403
 1.7063877791457388E9, -591.921445786953, -732.6613609194756, -546.922969520092, -474.87753677368164
 1.7063877791614287E9, -478.7071943283081, -724.5233386158943, -544.5294335484505, -362.1419925093651
 1.7063877791614287E9, -460.5163209438324, -703.4602220654488, -537.1094720363617, -300.6281180381775
 1.7063877791621296E9, -576.363461971283, -715.4279019236565, -539.7423616051674, -446.8731659054756
 1.7063877791621296E9, -523.9450241923332, -726.4381673932076, -543.811372756958, -415.7571982741356
 1.7063877791756494E9, -444.71898353099823, -711.3588907718658, -540.699775993824, -286.5062558054924
 1.7063877791756494E9, -548.1197375059128, -713.2737195491791, -535.4339968562126, -391.58248496055603
 1.7063877791916957E9, -569.1828540563583, -730.267824947834, -549.5558590888977, -458.60149216651917
 1.7063877791916957E9, -449.9847626686096, -720.4543274641037, -544.7687871456146, -314.7499802708626
 1.7063877791921942E9, -503.5999684333801, -711.59824436903, -548.3590911030769, -344.4298263192177
 1.7063877791921942E9, -590.7246778011322, -729.3104105591774, -550.9919806718826, -470.808525621891
 1.7063877792056684E9, -486.84521663188934, -733.8581289052963, -559.1300029754639, -367.6471252441406
 1.7063877792056684E9, -464.1066249012947, -711.8375979661942, -544.5294335484505, -301.82488602399826
 1.7063877792213972E9, -576.1241083741188, -716.8640235066414, -543.3326655626297, -443.2828619480133
 1.7063877792213972E9, -526.3385601639748, -726.1988137960434, -550.5132734775543, -418.8687950372696
 1.7063877792221224E9, -442.56480115652084, -710.1621227860451, -550.034566283226, -292.01138854026794
 1.7063877792221224E9, -543.0933119654655, -712.0769515633583, -539.2636544108391, -393.49731373786926
 1.7063877792356963E9, -562.0022461414337, -725.0020458102226, -545.4868479371071, -454.05377382040024
 1.7063877792356963E9, -452.6176522374153, -722.8478634357452, -549.7952126860619, -317.1435162425041
 1.706387779251397E9, -508.62639397382736, -714.9491947293282, -550.7526270747185, -340.1214615702629
 1.706387779251397E9, -589.0492026209831, -731.2252393364906, -545.2474943399429, -471.76594001054764
 1.7063877792520845E9, -484.9303878545761, -730.267824947834, -552.4281022548676, -365.01423567533493
 1.7063877792520845E9, -469.8511112332344, -709.9227691888809, -544.5294335484505, -303.02165400981903
 1.7063877792657156E9, -592.1607993841171, -728.3529961705208, -548.3590911030769, -449.9847626686096
 1.7063877792657156E9, -537.8275328278542, -743.1929191946983, -560.3267709612846, -425.5706957578659
 1.706387779281382E9, -457.4047241806984, -724.2839850187302, -559.8480637669563, -300.1494108438492
 1.706387779281382E9, -560.3267709612846, -720.6936810612679, -551.9493950605392, -400.6779216527939
 1.7063877792820685E9, -583.5440698862076, -743.9109799861908, -554.1035774350166, -464.585332095623
 1.7063877792820685E9, -467.696928858757, -733.6187753081322, -558.6512957811356, -324.5634777545929
 1.7063877792957582E9, -519.3973058462143, -725.4807530045509, -558.1725885868073, -350.41366624832153
 1.7063877792957582E9, -605.5646008253098, -740.5600296258926, -556.257759809494, -474.1594759821892
 1.7063877793113692E9, -493.7864709496498, -736.9697256684303, -557.6938813924789, -369.801307618618
 1.7063877793113692E9, -475.5955975651741, -715.9066091179848, -550.5132734775543, -306.3726043701172
 1.7063877793120766E9, -596.2298105359077, -730.0284713506699, -552.9068094491959, -454.05377382040024
 1.7063877793120766E9, -529.2108033299446, -728.5923497676849, -553.3855166435242, -420.7836238145828
 1.7063877793259492E9, -452.6176522374153, -718.5394986867905, -551.9493950605392, -296.798460483551
 1.7063877793259492E9, -553.3855166435242, -723.0872170329094, -549.3165054917336, -397.3269712924957
 1.7063877793413985E9, -572.2944508194923, -734.8155432939529, -554.3429310321808, -468.1756360530853
 1.7063877793413985E9, -457.4047241806984, -724.5233386158943, -557.4545277953148, -320.2551130056381
 1.7063877793420906E9, -513.6528195142746, -717.5820842981339, -553.6248702406883, -348.73819106817245
 1.7063877793420906E9, -598.8627001047134, -741.2780904173851, -553.6248702406883, -479.42525511980057
 1.7063877793559136E9, -490.91422778367996, -735.5336040854454, -556.9758206009865, -370.04066121578217
 1.7063877793559136E9, -476.5530119538307, -719.7362666726112, -550.2739198803902, -309.72355473041534
 1.706387779371349E9, -594.0756281614304, -728.5923497676849, -549.7952126860619, -449.5060554742813
 1.706387779371349E9, -530.4075713157654, -731.9433001279831, -552.4281022548676, -417.6720270514488
 1.7063877793720756E9, -449.5060554742813, -719.2575594782829, -544.7687871456146, -292.7294493317604
 1.7063877793720756E9, -554.8216382265091, -717.821437895298, -540.2210687994957, -400.1992144584656
 1.7063877793857481E9, -573.7305724024773, -737.2090792655945, -551.9493950605392, -458.8408457636833
 1.7063877793857481E9, -455.96860259771347, -729.3104105591774, -553.8642238378525, -320.2551130056381
 1.706387779401694E9, -505.2754436135292, -715.1885483264923, -546.4442623257637, -342.51499754190445
 1.706387779401694E9, -596.708517730236, -739.1239080429077, -551.9493950605392, -473.920122385025
 1.7063877794020936E9, -492.58970296382904, -734.3368360996246, -555.0609918236732, -367.6471252441406
 1.7063877794020936E9, -472.72335439920425, -715.4279019236565, -545.0081407427788, -307.56937235593796
 1.706387779415741E9, -588.3311418294907, -726.4381673932076, -551.7100414633751, -451.6602378487587
 1.706387779415741E9, -532.8011072874069, -733.6187753081322, -554.3429310321808, -425.0919885635376
 1.7063877794314404E9, -450.4634698629379, -713.9917803406715, -549.0771518945694, -295.3623389005661
 1.7063877794314404E9, -555.3003454208374, -714.2311339378357, -546.922969520092, -400.91727524995804
 1.7063877794321854E9, -568.70414686203, -729.0710569620132, -550.9919806718826, -460.75567454099655
 1.7063877794321854E9, -457.8834313750267, -727.6349353790283, -558.8906493782997, -320.9731737971306
 1.706387779445718E9, -505.51479721069336, -709.4440619945526, -546.922969520092, -345.8659479022026
 1.706387779445718E9, -597.6659321188927, -734.8155432939529, -549.3165054917336, -475.5955975651741
 1.7063877794614384E9, -495.22259253263474, -734.3368360996246, -551.7100414633751, -369.801307618618
 1.7063877794614384E9, -482.2974982857704, -724.7626922130585, -556.4971134066582, -312.83515149354935
 1.706387779462083E9, -604.367832839489, -736.7303720712662, -556.4971134066582, -459.5589065551758
 1.706387779462083E9, -545.4868479371071, -748.6980519294739, -562.2415997385979, -425.33134216070175
 1.7063877794756873E9, -463.6279177069664, -720.6936810612679, -561.2841853499413, -299.19199645519257
 1.7063877794756873E9, -564.3957821130753, -728.1136425733566, -548.1197375059128, -399.72050726413727
 1.7063877794913485E9, -582.3473019003868, -739.602615237236, -552.4281022548676, -458.12278497219086
 1.7063877794913485E9, -465.0640392899513, -729.5497641563416, -555.5396990180016, -318.8189914226532
 1.7063877794920807E9, -509.583808362484, -713.2737195491791, -556.257759809494, -343.9511191248894
 1.7063877794920807E9, -600.7775288820267, -738.4058472514153, -554.5822846293449, -474.39882957935333
 1.7063877795062027E9, -493.06841015815735, -736.2516648769379, -559.1300029754639, -362.1419925093651
 1.7063877795062027E9, -478.7071943283081, -717.5820842981339, -553.3855166435242, -307.8087259531021
 1.7063877795215733E9, -598.8627001047134, -731.7039465308189, -548.5984447002411, -453.8144202232361
 1.7063877795215733E9, -534.7159360647202, -735.7729576826096, -547.1623231172562, -420.3049166202545
 1.706387779522092E9, -456.68666338920593, -722.3691562414169, -550.7526270747185, -296.55910688638687
 1.706387779522092E9, -563.1990141272545, -725.0020458102226, -552.1887486577034, -400.6779216527939
 1.7063877795356896E9, -573.0125116109848, -735.5336040854454, -551.4706878662109, -458.8408457636833
 1.7063877795356896E9, -457.16537058353424, -724.7626922130585, -556.257759809494, -316.1861018538475
 1.706387779551411E9, -509.3444547653198, -711.1195371747017, -543.3326655626297, -338.685339987278
 1.706387779551411E9, -593.8362745642662, -731.9433001279831, -545.9655551314354, -468.65434324741364
 1.7063877795520694E9, -488.5206918120384, -727.3955817818642, -541.8965439796448, -351.6104342341423
 1.7063877795520694E9, -475.1168903708458, -718.0607914924622, -551.4706878662109, -297.5165212750435
 1.7063877795657055E9, -597.9052857160568, -731.4645929336548, -543.3326655626297, -446.8731659054756
 1.7063877795657055E9, -542.1358975768089, -742.4748584032059, -549.3165054917336, -417.1933198571205
 1.706387779581348E9, -469.8511112332344, -730.5071785449982, -555.5396990180016, -299.4313500523567
 1.706387779581348E9, -573.251865208149, -729.0710569620132, -556.7364670038223, -404.7469328045845
 1.7063877795820844E9, -584.0227770805359, -746.0651623606682, -556.4971134066582, -464.34597849845886
 1.7063877795820844E9, -461.23438173532486, -727.8742889761925, -556.9758206009865, -317.6222234368324
 1.7063877795960553E9, -521.0727810263634, -725.0020458102226, -551.9493950605392, -346.58400869369507
 1.7063877795960553E9, -598.6233465075493, -734.5761896967888, -550.7526270747185, -474.1594759821892
 1.7063877796113548E9, -486.6058630347252, -731.4645929336548, -553.6248702406883, -365.97165006399155
 1.7063877796113548E9, -472.24464720487595, -716.6246699094772, -552.9068094491959, -301.34617882966995
 1.7063877796121137E9, -591.4427385926247, -730.0284713506699, -543.5720191597939, -451.89959144592285
 1.7063877796121137E9, -547.1623231172562, -746.0651623606682, -559.1300029754639, -428.44293892383575
 1.7063877796257403E9, -450.94217705726624, -711.3588907718658, -545.9655551314354, -287.70302379131317
 1.7063877796257403E9, -539.9817152023315, -701.5453932881355, -516.2857090830803, -372.912904381752
 1.7063877796413827E9, -578.9963515400887, -742.2355048060417, -548.8377982974052, -451.42088425159454
 1.7063877796413827E9, -446.8731659054756, -706.0931116342545, -526.3385601639748, -286.9849629998207
 1.7063877796420813E9, -511.4986371397972, -708.9653548002243, -534.9552896618843, -330.3079640865326
 1.7063877796420813E9, -587.1343738436699, -715.1885483264923, -527.5353281497955, -450.4634698629379
 1.7063877796559567E9, -492.58970296382904, -722.1298026442528, -540.2210687994957, -345.3872407078743
 1.7063877796559567E9, -463.1492105126381, -693.4073709845543, -528.253388941288, -275.9746975302696
 1.7063877796772418E9, -591.2033849954605, -722.1298026442528, -540.699775993824, -438.7351436018944
 1.7063877796772418E9, -534.9552896618843, -725.9594601988792, -542.3752511739731, -400.91727524995804
 1.7063877796775432E9, -452.6176522374153, -708.0079404115677, -543.811372756958, -275.4959903359413
 1.7063877796775432E9, -555.3003454208374, -712.5556587576866, -536.8701184391975, -380.57221949100494
 1.7063877796857312E9, -574.6879867911339, -730.5071785449982, -541.6571903824806, -447.5912266969681
 1.7063877796857312E9, -456.68666338920593, -720.933034658432, -542.6146047711372, -302.0642396211624
 1.7063877797042408E9, -515.0889410972595, -712.5556587576866, -539.7423616051674, -332.9408536553383
 1.7063877797042408E9, -596.4691641330719, -725.9594601988792, -540.2210687994957, -459.3195529580116
 1.7063877797164311E9, -473.68076878786087, -709.4440619945526, -537.8275328278542, -285.30948781967163
 1.7063877797164311E9, -593.3575673699379, -724.044631421566, -539.7423616051674, -436.34160763025284
 1.706387779717137E9, -540.2210687994957, -733.6187753081322, -544.5294335484505, -410.0127119421959
 1.706387779717137E9, -456.4473097920418, -719.7362666726112, -548.1197375059128, -282.4372446537018
 1.706387779730761E9, -564.6351357102394, -722.8478634357452, -541.6571903824806, -387.27412021160126
 1.706387779730761E9, -579.9537659287453, -734.3368360996246, -545.2474943399429, -449.9847626686096
 1.7063877797463713E9, -459.0801993608475, -722.8478634357452, -548.5984447002411, -306.8513115644455
 1.7063877797463713E9, -519.6366594433784, -719.4969130754471, -545.9655551314354, -342.51499754190445
 1.7063877797471485E9, -598.144639313221, -734.8155432939529, -545.2474943399429, -460.75567454099655
 1.7063877797471485E9, -494.2651781439781, -733.6187753081322, -542.8539583683014, -355.44009178876877
 1.7063877797607093E9, -477.7497799396515, -715.1885483264923, -547.6410303115845, -300.38876444101334
 1.7063877797607093E9, -597.9052857160568, -730.7465321421623, -542.3752511739731, -446.15510511398315
 1.7063877797763512E9, -531.8436928987503, -732.9007145166397, -547.8803839087486, -408.57659035921097
 1.7063877797763512E9, -452.37829864025116, -714.9491947293282, -539.0243008136749, -286.9849629998207
 1.7063877797770567E9, -552.6674558520317, -711.1195371747017, -533.5191680788994, -388.470888197422
 1.7063877797770567E9, -568.9435004591942, -726.1988137960434, -540.9391295909882, -449.74540907144547
 1.7063877797908525E9, -451.42088425159454, -720.4543274641037, -546.2049087285995, -305.1758363842964
 1.7063877797908525E9, -519.1579522490501, -723.0872170329094, -546.922969520092, -342.03629034757614
 1.706387779806631E9, -606.5220152139664, -743.1929191946983, -547.4016767144203, -471.76594001054764
 1.706387779806631E9, -502.40320044755936, -739.3632616400719, -550.2739198803902, -361.6632853150368
 1.7063877798071392E9, -488.99939900636673, -724.7626922130585, -551.4706878662109, -309.24484753608704
 1.7063877798071392E9, -607.7187831997871, -742.71421200037, -552.9068094491959, -456.9260169863701
 1.706387779832164E9, -553.3855166435242, -748.6980519294739, -562.7203069329262, -425.33134216070175
 1.706387779832164E9, -464.585332095623, -727.6349353790283, -555.3003454208374, -298.9526428580284
 1.7063877798363647E9, -566.5499644875526, -726.6775209903717, -545.9655551314354, -399.24180006980896
 1.7063877798363647E9, -578.7569979429245, -740.3206760287285, -554.1035774350166, -460.27696734666824
 1.7063877798370676E9, -461.23438173532486, -725.7201066017151, -553.14616304636, -311.6383835077286
 1.7063877798370676E9, -517.7218306660652, -717.5820842981339, -541.4178367853165, -336.29180401563644
 1.7063877798510363E9, -602.9317112565041, -734.8155432939529, -546.6836159229279, -466.7395144701004
 1.7063877798510363E9, -495.22259253263474, -734.5761896967888, -550.5132734775543, -357.11556696891785
 1.706387779882725E9, -475.5955975651741, -713.5130731463432, -539.5030080080032, -299.4313500523567
 1.706387779882725E9, -593.8362745642662, -727.8742889761925, -543.811372756958, -447.83058029413223
 1.7063877798834548E9, -537.3488256335258, -739.8419688344002, -550.034566283226, -410.73077273368835
 1.7063877798834548E9, -454.2931274175644, -715.6672555208206, -538.5455936193466, -281.9585374593735
 1.706387779884188E9, -556.0184062123299, -719.2575594782829, -536.8701184391975, -388.94959539175034
 1.706387779884188E9, -567.5073788762093, -729.7891177535057, -539.5030080080032, -446.3944587111473
 1.7063877798849702E9, -452.37829864025116, -720.6936810612679, -541.1784831881523, -303.02165400981903
 1.7063877798849702E9, -505.99350440502167, -711.8375979661942, -537.58817923069, -336.29180401563644
 1.7063877798957028E9, -594.0756281614304, -731.7039465308189, -544.2900799512863, -465.7821000814438
 1.7063877798957028E9, -487.32392382621765, -727.6349353790283, -545.9655551314354, -360.22716373205185
 1.7063877799107535E9, -477.2710727453232, -715.9066091179848, -547.4016767144203, -299.19199645519257
 1.7063877799107535E9, -589.5279098153114, -722.1298026442528, -533.5191680788994, -441.3680331707001
 1.7063877799264188E9, -530.1682177186012, -734.8155432939529, -537.8275328278542, -403.3108112215996
 1.7063877799264188E9, -444.71898353099823, -714.4704875349998, -541.1784831881523, -281.7191838622093
 1.706387779927112E9, -558.1725885868073, -722.3691562414169, -541.1784831881523, -395.4121425151825
 1.706387779927112E9, -570.6189756393433, -730.0284713506699, -544.5294335484505, -449.26670187711716
 1.7063877799408777E9, -458.60149216651917, -727.8742889761925, -548.8377982974052, -312.5957978963852
 1.7063877799408777E9, -507.9083331823349, -714.2311339378357, -539.7423616051674, -342.99370473623276
 1.7063877799565573E9, -592.6395065784454, -730.5071785449982, -547.8803839087486, -469.13305044174194
 1.7063877799565573E9, -490.43552058935165, -729.5497641563416, -547.8803839087486, -358.3123349547386
 1.7063877799571645E9, -473.4414151906967, -714.4704875349998, -547.8803839087486, -302.30359321832657
 1.7063877799571645E9, -591.6820921897888, -726.9168745875359, -541.8965439796448, -444.9583371281624
 1.7063877799711647E9, -531.1256321072578, -737.4484328627586, -549.3165054917336, -408.8159439563751
 1.7063877799711647E9, -447.5912266969681, -717.3427307009697, -552.4281022548676, -293.686863720417
 1.7063877799863784E9, -553.3855166435242, -719.4969130754471, -545.2474943399429, -398.76309287548065
 1.7063877799863784E9, -565.592550098896, -730.0284713506699, -544.2900799512863, -455.250541806221
 1.7063877799871213E9, -443.52221554517746, -714.709841132164, -548.5984447002411, -307.3300187587738
 1.7063877799871213E9, -506.71156519651413, -706.3324652314186, -537.8275328278542, -334.8556824326515
 1.7063877800008636E9, -576.1241083741188, -718.3001450896263, -535.6733504533768, -459.3195529580116
 1.7063877800008636E9, -477.031719148159, -718.7788522839546, -546.4442623257637, -354.00397020578384
 1.7063877800164473E9, -470.56917202472687, -710.8801835775375, -542.8539583683014, -302.30359321832657
 1.7063877800164473E9, -590.9640313982964, -726.6775209903717, -542.8539583683014, -448.78799468278885
 1.706387780017115E9, -532.3224000930786, -737.927140057087, -550.7526270747185, -412.40624791383743
 1.706387780017115E9, -455.250541806221, -719.4969130754471, -556.4971134066582, -294.16557091474533
 1.7063877800306902E9, -565.8319036960602, -727.6349353790283, -548.8377982974052, -405.7043471932411
 1.7063877800306902E9, -573.7305724024773, -742.9535655975342, -555.5396990180016, -463.86727130413055
 1.7063877800464728E9, -457.4047241806984, -725.9594601988792, -557.6938813924789, -314.98933386802673
 1.7063877800464728E9, -515.807001888752, -716.3853163123131, -547.8803839087486, -347.0627158880234
 1.7063877800470965E9, -595.5117497444153, -731.7039465308189, -548.3590911030769, -473.20206159353256
 1.7063877800470965E9, -490.43552058935165, -735.5336040854454, -558.8906493782997, -367.1684180498123
 1.7063877800608757E9, -476.31365835666656, -715.9066091179848, -546.4442623257637, -307.8087259531021
 1.7063877800608757E9, -599.5807608962059, -732.4220073223114, -553.3855166435242, -455.48989540338516
 1.7063877800764415E9, -539.9817152023315, -737.4484328627586, -557.6938813924789, -417.43267345428467
 1.7063877800764415E9, -458.60149216651917, -713.5130731463432, -548.8377982974052, -292.01138854026794
 1.7063877800771043E9, -557.9332349896431, -715.4279019236565, -543.5720191597939, -405.2256399989128
 1.7063877800771043E9, -566.0712572932243, -730.0284713506699, -546.922969520092, -458.362138569355
 1.706387780090813E9, -453.3357130289078, -721.8904490470886, -550.7526270747185, -317.8615770339966
 1.706387780090813E9, -515.5676482915878, -712.7950123548508, -550.2739198803902, -350.6530198454857
 1.7063877801064584E9, -597.6659321188927, -735.0548968911171, -553.6248702406883, -472.72335439920425
 1.7063877801064584E9, -493.54711735248566, -732.1826537251472, -553.3855166435242, -364.0568212866783
 1.706387780107126E9, -478.94654792547226, -715.9066091179848, -546.2049087285995, -307.3300187587738
 1.706387780107126E9, -599.3414072990417, -731.4645929336548, -550.2739198803902, -452.6176522374153
 1.7063877801209445E9, -541.4178367853165, -744.8683943748474, -557.2151741981506, -421.022977411747
 1.7063877801209445E9, -463.1492105126381, -727.3955817818642, -558.8906493782997, -300.38876444101334
 1.7063877801364267E9, -569.4222076535225, -724.5233386158943, -549.5558590888977, -405.7043471932411
 1.7063877801364267E9, -578.038937151432, -742.2355048060417, -555.3003454208374, -460.75567454099655
 1.7063877801370964E9, -461.473735332489, -726.4381673932076, -550.2739198803902, -307.8087259531021
 1.7063877801370964E9, -521.7908418178558, -714.9491947293282, -548.1197375059128, -347.5414230823517
 1.7063877801507092E9, -599.1020537018776, -733.8581289052963, -545.0081407427788, -469.8511112332344
 1.7063877801507092E9, -492.8290565609932, -730.9858857393265, -547.6410303115845, -359.26974934339523
 1.706387780166682E9, -485.6484486460686, -726.4381673932076, -552.6674558520317, -306.3726043701172
 1.706387780166682E9, -593.596920967102, -725.9594601988792, -545.9655551314354, -448.5486410856247
 1.706387780167159E9, -536.3914112448692, -732.4220073223114, -547.8803839087486, -412.1668943166733
 1.706387780167159E9, -458.362138569355, -716.8640235066414, -545.2474943399429, -288.6604381799698
 1.7063877801808758E9, -563.4383677244186, -720.933034658432, -540.699775993824, -399.0024464726448
 1.7063877801808758E9, -578.7569979429245, -734.8155432939529, -548.3590911030769, -457.16537058353424
 1.7063877801963692E9, -456.2079561948776, -725.2413994073868, -554.3429310321808, -312.35644429922104
 1.7063877801963692E9, -517.4824770689011, -718.0607914924622, -545.7262015342712, -346.10530149936676
 1.7063877801970692E9, -604.6071864366531, -738.6452008485794, -545.9655551314354, -477.031719148159
 1.7063877801970692E9, -496.18000692129135, -735.5336040854454, -554.3429310321808, -366.2110036611557
 1.706387780210694E9, -484.9303878545761, -723.5659242272377, -551.9493950605392, -315.46804106235504
 1.706387780210694E9, -604.367832839489, -735.2942504882812, -547.8803839087486, -453.0963594317436
 1.7063877802263467E9, -545.0081407427788, -743.1929191946983, -550.7526270747185, -416.47525906562805
 1.7063877802263467E9, -469.13305044174194, -730.7465321421623, -556.0184062123299, -298.71328926086426
 1.706387780227078E9, -569.9009148478508, -730.9858857393265, -549.7952126860619, -406.9011151790619
 1.706387780227078E9, -582.8260090947151, -745.3471015691757, -560.3267709612846, -460.9950281381607
 1.706387780240806E9, -462.90985691547394, -729.5497641563416, -553.3855166435242, -316.1861018538475
 1.706387780240806E9, -527.2959745526314, -723.3265706300735, -548.8377982974052, -350.89237344264984
 1.706387780256498E9, -609.3942583799362, -745.3471015691757, -549.5558590888977, -473.920122385025
 1.706387780256498E9, -504.07867562770844, -741.038736820221, -555.7790526151657, -364.29617488384247
 1.7063877802570872E9, -492.11099576950073, -724.044631421566, -554.8216382265091, -312.83515149354935
 1.7063877802570872E9, -604.367832839489, -734.3368360996246, -548.5984447002411, -454.7718346118927
 1.7063877802706923E9, -541.4178367853165, -738.4058472514153, -553.3855166435242, -414.0817230939865
 1.7063877802706923E9, -464.82468569278717, -725.4807530045509, -547.1623231172562, -292.2507421374321
 1.7063877802865648E9, -575.8847547769547, -733.379421710968, -554.3429310321808, -409.5340047478676
 1.7063877802865648E9, -582.586655497551, -746.7832231521606, -559.6087101697922, -466.2608072757721
 1.7063877802872772E9, -466.7395144701004, -731.7039465308189, -559.6087101697922, -320.01575940847397
 1.7063877802872772E9, -519.8760130405426, -719.4969130754471, -555.0609918236732, -352.0891414284706
 1.7063877803006985E9, -597.6659321188927, -736.0123112797737, -551.7100414633751, -477.98913353681564
 1.7063877803006985E9, -490.91422778367996, -731.9433001279831, -556.9758206009865, -364.29617488384247
 1.706387780316636E9, -477.51042634248734, -716.8640235066414, -546.4442623257637, -306.3726043701172
 1.706387780316636E9, -594.3149817585945, -730.0284713506699, -546.2049087285995, -460.0376137495041
 1.706387780317139E9, -532.3224000930786, -736.0123112797737, -552.4281022548676, -418.3900878429413
 1.706387780317139E9, -459.79826015233994, -720.2149738669395, -552.6674558520317, -301.82488602399826
 1.706387780330686E9, -557.6938813924789, -715.1885483264923, -548.8377982974052, -403.3108112215996
 1.706387780330686E9, -566.0712572932243, -730.9858857393265, -548.5984447002411, -457.16537058353424
 1.7063877803463564E9, -449.74540907144547, -724.7626922130585, -554.3429310321808, -318.3402842283249
 1.7063877803463564E9, -513.1741123199463, -712.5556587576866, -545.9655551314354, -347.0627158880234
 1.7063877803470864E9, -591.921445786953, -732.6613609194756, -545.4868479371071, -472.0052936077118
 1.7063877803470864E9, -486.6058630347252, -729.5497641563416, -550.2739198803902, -358.3123349547386
 1.7063877803610651E9, -474.39882957935333, -711.3588907718658, -544.7687871456146, -306.3726043701172
 1.7063877803610651E9, -592.6395065784454, -727.8742889761925, -545.7262015342712, -451.1815306544304
 1.7063877803766413E9, -530.8862785100937, -734.5761896967888, -552.4281022548676, -422.69845259189606
 1.7063877803766413E9, -449.74540907144547, -713.5130731463432, -543.5720191597939, -291.2933277487755
 1.7063877803771267E9, -558.1725885868073, -713.7524267435074, -542.6146047711372, -400.91727524995804
 1.7063877803771267E9, -573.9699259996414, -737.927140057087, -548.5984447002411, -456.9260169863701
 1.7063877803906813E9, -460.27696734666824, -729.3104105591774, -550.9919806718826, -318.10093063116074
 1.7063877803906813E9, -515.807001888752, -712.3163051605225, -538.3062400221825, -345.3872407078743
 1.706387780406427E9, -597.6659321188927, -731.7039465308189, -546.922969520092, -470.56917202472687
 1.706387780406427E9, -488.5206918120384, -728.8317033648491, -553.8642238378525, -358.3123349547386
 1.706387780407172E9, -471.5265864133835, -714.2311339378357, -551.9493950605392, -312.1170907020569
 1.706387780407172E9, -586.8950202465057, -722.3691562414169, -540.699775993824, -449.5060554742813
 1.7063877804207072E9, -521.3121346235275, -728.5923497676849, -541.4178367853165, -407.3798223733902
 1.7063877804207072E9, -454.7718346118927, -713.0343659520149, -540.699775993824, -284.59142702817917
 1.7063877804527285E9, -560.805478155613, -716.6246699094772, -533.7585216760635, -395.17278891801834
 1.7063877804527285E9, -572.0550972223282, -733.1400681138039, -545.0081407427788, -450.4634698629379
 1.706387780453451E9, -458.362138569355, -723.8052778244019, -550.9919806718826, -310.20226192474365
 1.706387780453451E9, -513.4134659171104, -715.4279019236565, -543.5720191597939, -342.7543511390686
 1.706387780454192E9, -600.7775288820267, -740.3206760287285, -552.1887486577034, -475.83495116233826
 1.706387780454192E9, -493.54711735248566, -737.2090792655945, -555.5396990180016, -364.0568212866783
 1.7063877804550555E9, -479.42525511980057, -716.8640235066414, -550.7526270747185, -310.20226192474365
 1.7063877804550555E9, -597.6659321188927, -728.8317033648491, -542.3752511739731, -449.74540907144547
 1.7063877804661713E9, -533.5191680788994, -735.2942504882812, -551.4706878662109, -417.1933198571205
 1.7063877804661713E9, -454.2931274175644, -719.2575594782829, -543.0933119654655, -287.9423773884773
 1.7063877804848237E9, -560.3267709612846, -719.0182058811188, -538.7849472165108, -399.72050726413727
 1.7063877804848237E9, -571.0976828336716, -737.4484328627586, -548.3590911030769, -454.7718346118927
 1.7063877804967325E9, -453.0963594317436, -724.5233386158943, -546.2049087285995, -308.04807955026627
 1.7063877804967325E9, -509.583808362484, -715.1885483264923, -542.3752511739731, -344.908533513546
 1.7063877804973016E9, -594.0756281614304, -734.0974825024605, -546.2049087285995, -468.8936968445778
 1.7063877804973016E9, -491.1535813808441, -733.379421710968, -552.1887486577034, -360.9452245235443
 1.7063877805117843E9, -473.68076878786087, -718.7788522839546, -541.4178367853165, -302.0642396211624
 1.7063877805117843E9, -590.7246778011322, -727.3955817818642, -541.8965439796448, -447.11251950263977
 1.70638778052645E9, -528.0140353441238, -735.7729576826096, -545.4868479371071, -409.0552975535393
 1.70638778052645E9, -455.7292490005493, -715.6672555208206, -546.6836159229279, -291.53268134593964
 1.7063877805271587E9, -566.3106108903885, -720.4543274641037, -545.0081407427788, -403.7895184159279
 1.7063877805271587E9, -575.8847547769547, -744.150333583355, -555.5396990180016, -460.75567454099655
 1.7063877805432744E9, -465.54274648427963, -731.9433001279831, -558.4119421839714, -319.05834501981735
 1.7063877805432744E9, -521.7908418178558, -723.0872170329094, -547.8803839087486, -354.00397020578384
 1.7063877805610728E9, -604.1284792423248, -743.4322727918625, -553.8642238378525, -470.3298184275627
 1.7063877805610728E9, -497.13742130994797, -739.1239080429077, -555.5396990180016, -362.86005330085754
 1.706387780561921E9, -485.8878022432327, -720.6936810612679, -550.7526270747185, -309.0054939389229
 1.706387780561921E9, -602.6923576593399, -730.7465321421623, -546.2049087285995, -447.3518730998039
 1.7063877805707011E9, -538.5455936193466, -736.7303720712662, -546.2049087285995, -406.1830543875694
 1.7063877805707011E9, -455.48989540338516, -715.4279019236565, -543.5720191597939, -284.59142702817917
 1.7063877805863962E9, -559.6087101697922, -714.4704875349998, -537.3488256335258, -398.0450320839882
 1.7063877805863962E9, -567.5073788762093, -728.3529961705208, -535.1946432590485, -448.5486410856247
 1.7063877805871005E9, -450.7028234601021, -720.933034658432, -544.7687871456146, -303.02165400981903
 1.7063877805871005E9, -509.82316195964813, -708.486647605896, -534.476582467556, -342.2756439447403
 1.7063877806009257E9, -592.4001529812813, -729.7891177535057, -539.7423616051674, -464.1066249012947
 1.7063877806009257E9, -483.4942662715912, -730.9858857393265, -542.1358975768089, -351.131727039814
 1.70638778061641E9, -484.4516806602478, -723.3265706300735, -551.2313342690468, -311.6383835077286
 1.70638778061641E9, -597.1872249245644, -730.9858857393265, -551.2313342690468, -459.79826015233994
 1.7063877806170888E9, -527.7746817469597, -733.8581289052963, -545.4868479371071, -413.84236949682236
 1.7063877806170888E9, -455.250541806221, -723.0872170329094, -554.3429310321808, -297.9952284693718
 1.7063877806308005E9, -563.1990141272545, -725.2413994073868, -545.2474943399429, -408.3372367620468
 1.7063877806308005E9, -572.5338044166565, -740.0813224315643, -549.3165054917336, -463.1492105126381
 1.7063877806463947E9, -457.4047241806984, -731.2252393364906, -555.5396990180016, -321.21252739429474
 1.7063877806463947E9, -516.2857090830803, -718.3001450896263, -547.4016767144203, -358.07298135757446
 1.7063877806470942E9, -599.1020537018776, -740.0813224315643, -549.5558590888977, -474.6381831765175
 1.7063877806470942E9, -487.32392382621765, -732.6613609194756, -553.14616304636, -359.9878101348877
 1.7063877806608088E9, -482.2974982857704, -721.6510954499245, -550.2739198803902, -319.05834501981735
 1.7063877806608088E9, -599.5807608962059, -735.0548968911171, -544.7687871456146, -464.82468569278717
 1.7063877806763718E9, -534.7159360647202, -741.9961512088776, -552.1887486577034, -426.5281101465225
 1.7063877806763718E9, -456.9260169863701, -721.4117418527603, -551.2313342690468, -306.13325077295303
 1.706387780677102E9, -571.815743625164, -724.7626922130585, -548.3590911030769, -417.43267345428467
 1.706387780677102E9, -578.9963515400887, -741.038736820221, -550.9919806718826, -470.3298184275627
 1.7063877806975284E9, -462.1917961239815, -728.5923497676849, -555.3003454208374, -321.4518809914589
 1.7063877806975284E9, -524.6630849838257, -718.7788522839546, -545.0081407427788, -359.0303957462311
 1.7063877807057197E9, -597.6659321188927, -736.0123112797737, -549.3165054917336, -490.91422778367996
 1.7063877807057197E9, -488.7600454092026, -734.0974825024605, -553.6248702406883, -371.9554899930954
 1.7063877807214012E9, -594.3149817585945, -730.5071785449982, -556.0184062123299, -462.90985691547394
 1.7063877807214012E9, -533.0404608845711, -741.7567976117134, -551.7100414633751, -425.5706957578659
 1.7063877807221136E9, -460.27696734666824, -722.8478634357452, -552.4281022548676, -304.2184219956398
 1.7063877807221136E9, -563.1990141272545, -724.044631421566, -549.5558590888977, -415.7571982741356
 1.7063877807357795E9, -569.1828540563583, -736.9697256684303, -555.5396990180016, -465.54274648427963
 1.7063877807357795E9, -455.96860259771347, -727.3955817818642, -560.5661245584488, -324.32412415742874
 1.7063877807514992E9, -514.1315267086029, -716.1459627151489, -546.6836159229279, -357.11556696891785
 1.7063877807514992E9, -589.7672634124756, -732.9007145166397, -553.6248702406883, -482.05814468860626
 1.7063877807520835E9, -483.9729734659195, -731.4645929336548, -555.0609918236732, -367.8864788413048
 1.7063877807520835E9, -472.4840008020401, -713.2737195491791, -549.7952126860619, -314.7499802708626
 1.706387780765744E9, -593.1182137727737, -729.3104105591774, -545.2474943399429, -457.8834313750267
 1.706387780765744E9, -529.2108033299446, -733.1400681138039, -551.4706878662109, -416.2359054684639
 1.706387780783292E9, -452.37829864025116, -713.7524267435074, -546.922969520092, -300.38876444101334
 1.706387780783292E9, -561.7628925442696, -716.3853163123131, -543.0933119654655, -409.5340047478676
 1.7063877807834127E9, -573.0125116109848, -735.5336040854454, -550.9919806718826, -459.5589065551758
 1.7063877807834127E9, -457.8834313750267, -724.044631421566, -552.6674558520317, -312.35644429922104
 1.706387780797619E9, -514.6102339029312, -709.6834155917168, -542.1358975768089, -345.14788711071014
 1.706387780797619E9, -587.6130810379982, -729.7891177535057, -537.1094720363617, -468.1756360530853
 1.7063877808167517E9, -481.10073029994965, -723.3265706300735, -547.8803839087486, -358.07298135757446
 1.7063877808167517E9, -475.83495116233826, -711.59824436903, -547.6410303115845, -306.13325077295303
 1.7063877808168845E9, -594.5543353557587, -722.3691562414169, -544.0507263541222, -459.5589065551758
 1.7063877808168845E9, -527.7746817469597, -729.5497641563416, -550.2739198803902, -409.0552975535393
 1.706387780825771E9, -452.85700583457947, -718.0607914924622, -545.0081407427788, -290.8146205544472
 1.706387780825771E9, -559.8480637669563, -717.1033771038055, -544.0507263541222, -404.7469328045845
 1.7063877808417842E9, -563.1990141272545, -725.7201066017151, -540.699775993824, -451.89959144592285
 1.7063877808417842E9, -448.30928748846054, -718.5394986867905, -543.5720191597939, -307.09066516160965
 1.706387780842218E9, -507.19027239084244, -703.9389292597771, -535.1946432590485, -344.4298263192177
 1.706387780842218E9, -586.8950202465057, -727.1562281847, -549.3165054917336, -474.1594759821892
 1.706387780855706E9, -473.68076878786087, -713.9917803406715, -540.9391295909882, -350.89237344264984
 1.706387780855706E9, -467.9362824559212, -700.1092717051506, -537.58817923069, -303.2610076069832
 1.7063877808723128E9, -586.6556666493416, -717.5820842981339, -538.7849472165108, -455.48989540338516
 1.7063877808723128E9, -525.3811457753181, -729.0710569620132, -544.2900799512863, -409.77335834503174
 1.7063877808728604E9, -455.01118820905685, -715.9066091179848, -546.2049087285995, -293.2081565260887
 1.7063877808728604E9, -566.0712572932243, -720.933034658432, -547.1623231172562, -411.68818712234497
 1.7063877808857265E9, -576.363461971283, -741.038736820221, -551.4706878662109, -461.71308892965317
 1.7063877808857265E9, -462.1917961239815, -728.1136425733566, -557.9332349896431, -318.3402842283249
 1.706387780901498E9, -522.7482562065125, -716.8640235066414, -546.4442623257637, -353.7646166086197
 1.706387780901498E9, -594.5543353557587, -734.0974825024605, -549.0771518945694, -471.76594001054764
 1.7063877809021604E9, -489.2387526035309, -730.267824947834, -551.7100414633751, -356.63685977458954
 1.7063877809021604E9, -476.31365835666656, -712.7950123548508, -543.5720191597939, -306.61195796728134
 1.706387780915741E9, -595.5117497444153, -728.5923497676849, -546.922969520092, -456.2079561948776
 1.706387780915741E9, -534.2372288703918, -736.0123112797737, -553.8642238378525, -413.84236949682236
 1.7063877809313345E9, -458.60149216651917, -716.3853163123131, -550.034566283226, -294.16557091474533
 1.7063877809313345E9, -562.9596605300903, -721.1723882555962, -545.0081407427788, -409.29465115070343
 1.7063877809320412E9, -575.1666939854622, -739.1239080429077, -555.7790526151657, -458.8408457636833
 1.7063877809320412E9, -459.79826015233994, -734.3368360996246, -551.7100414633751, -317.6222234368324
 1.706387780945764E9, -523.2269634008408, -718.5394986867905, -552.4281022548676, -358.55168855190277
 1.706387780945764E9, -602.9317112565041, -745.1077479720116, -560.0874173641205, -481.8187910914421
 1.7063877809613655E9, -487.0845702290535, -736.0123112797737, -556.4971134066582, -360.22716373205185
 1.7063877809613655E9, -474.6381831765175, -714.709841132164, -544.2900799512863, -311.6383835077286
 1.70638778096209E9, -590.485324203968, -722.1298026442528, -547.6410303115845, -458.12278497219086
 1.70638778096209E9, -519.8760130405426, -728.5923497676849, -548.3590911030769, -411.68818712234497
 1.70638778097586E9, -457.64407777786255, -717.5820842981339, -553.6248702406883, -300.86747163534164
 1.70638778097586E9, -556.4971134066582, -712.0769515633583, -544.5294335484505, -409.77335834503174
 1.70638778099113E9, -568.2254396677017, -732.4220073223114, -546.6836159229279, -452.138945043087
 1.70638778099113E9, -455.7292490005493, -721.1723882555962, -551.7100414633751, -311.6383835077286
 1.706387781006582E9, -519.6366594433784, -717.3427307009697, -550.2739198803902, -353.7646166086197
 1.706387781006582E9, -593.8362745642662, -731.7039465308189, -554.1035774350166, -473.4414151906967
 1.7063877810071394E9, -494.7438853383064, -739.3632616400719, -557.6938813924789, -361.4239317178726
 1.7063877810071394E9, -484.9303878545761, -722.3691562414169, -551.7100414633751, -314.7499802708626
 1.7063877810214653E9, -600.5381752848625, -731.4645929336548, -550.5132734775543, -459.5589065551758
 1.7063877810214653E9, -533.2798144817352, -738.8845544457436, -548.1197375059128, -415.0391374826431
 1.7063877810221825E9, -460.27696734666824, -722.6085098385811, -556.9758206009865, -301.5855324268341
 1.7063877810221825E9, -568.9435004591942, -724.7626922130585, -551.7100414633751, -411.9275407195091
 1.70638778103598E9, -577.0815227627754, -743.1929191946983, -553.14616304636, -462.90985691547394
 1.70638778103598E9, -467.696928858757, -737.2090792655945, -558.8906493782997, -318.57963782548904
 1.7063877810514214E9, -525.6204993724823, -720.933034658432, -545.4868479371071, -350.89237344264984
 1.7063877810514214E9, -602.2136504650116, -740.3206760287285, -548.1197375059128, -474.39882957935333
 1.706387781052146E9, -489.2387526035309, -734.0974825024605, -559.369356572628, -362.1419925093651
 1.706387781052146E9, -485.6484486460686, -720.4543274641037, -551.2313342690468, -315.7073946595192
 1.706387781066008E9, -593.8362745642662, -727.8742889761925, -542.6146047711372, -454.7718346118927
 1.706387781066008E9, -530.1682177186012, -733.379421710968, -552.1887486577034, -415.7571982741356
 1.706387781081484E9, -453.57506662607193, -714.2311339378357, -541.1784831881523, -292.7294493317604
 1.706387781081484E9, -565.592550098896, -717.5820842981339, -540.2210687994957, -406.4224079847336
 1.7063877810821693E9, -563.917074918747, -730.7465321421623, -542.6146047711372, -449.027348279953
 1.7063877810821693E9, -460.75567454099655, -728.3529961705208, -553.3855166435242, -317.3828698396683
 1.7063877811123264E9, -519.3973058462143, -715.1885483264923, -552.6674558520317, -353.52526301145554
 1.7063877811123264E9, -599.82011449337, -739.8419688344002, -555.5396990180016, -479.42525511980057
 1.7063877811128383E9, -488.7600454092026, -732.6613609194756, -558.6512957811356, -363.33876049518585
 1.7063877811128383E9, -488.7600454092026, -725.9594601988792, -549.7952126860619, -313.31385868787766
 1.706387781113628E9, -601.7349432706833, -738.6452008485794, -548.1197375059128, -462.6705033183098
 1.706387781113628E9, -538.0668864250183, -741.5174440145493, -558.6512957811356, -417.6720270514488
 1.7063877811257849E9, -469.61175763607025, -727.8742889761925, -555.5396990180016, -301.34617882966995
 1.7063877811257849E9, -563.917074918747, -720.6936810612679, -547.6410303115845, -409.77335834503174
 1.7063877811414516E9, -573.7305724024773, -737.4484328627586, -552.9068094491959, -460.75567454099655
 1.7063877811414516E9, -458.60149216651917, -725.0020458102226, -552.1887486577034, -309.0054939389229
 1.7063877811422098E9, -520.3547202348709, -717.821437895298, -552.6674558520317, -353.0465558171272
 1.7063877811422098E9, -594.7936889529228, -736.9697256684303, -547.6410303115845, -474.6381831765175
 1.7063877811557589E9, -483.4942662715912, -731.2252393364906, -553.6248702406883, -358.07298135757446
 1.7063877811557589E9, -480.3826695084572, -713.2737195491791, -551.2313342690468, -311.87773710489273
 1.7063877811737862E9, -591.921445786953, -725.2413994073868, -544.0507263541222, -454.2931274175644
 1.7063877811737862E9, -526.3385601639748, -733.379421710968, -546.922969520092, -406.66176158189774
 1.706387781173822E9, -453.8144202232361, -717.821437895298, -545.7262015342712, -291.2933277487755
 1.706387781173822E9, -561.2841853499413, -724.044631421566, -547.4016767144203, -408.8159439563751
 1.7063877811872635E9, -578.038937151432, -740.3206760287285, -550.9919806718826, -453.0963594317436
 1.7063877811872635E9, -461.71308892965317, -728.3529961705208, -544.2900799512863, -311.15967631340027
 1.7063877812014325E9, -523.7056705951691, -717.5820842981339, -541.1784831881523, -354.7220309972763
 1.7063877812014325E9, -594.0756281614304, -734.3368360996246, -550.034566283226, -474.6381831765175
 1.7063877812021055E9, -485.6484486460686, -733.8581289052963, -547.6410303115845, -356.63685977458954
 1.7063877812021055E9, -479.6646087169647, -713.5130731463432, -547.1623231172562, -310.4416155219078
 1.7063877812157996E9, -595.2723961472511, -728.8317033648491, -551.7100414633751, -457.64407777786255
 1.7063877812157996E9, -529.2108033299446, -735.5336040854454, -550.9919806718826, -412.6456015110016
 1.7063877812313817E9, -462.6705033183098, -723.8052778244019, -544.2900799512863, -297.9952284693718
 1.7063877812313817E9, -560.0874173641205, -714.2311339378357, -543.0933119654655, -405.7043471932411
 1.7063877812321029E9, -570.3796220421791, -736.2516648769379, -548.3590911030769, -452.6176522374153
 1.7063877812321029E9, -454.53248101472855, -725.4807530045509, -548.3590911030769, -304.45777559280396
 1.7063877812621553E9, -517.4824770689011, -712.0769515633583, -535.9127040505409, -340.6001687645912
 1.7063877812621553E9, -592.6395065784454, -729.0710569620132, -539.7423616051674, -463.38856410980225
 1.7063877812628376E9, -480.8613767027855, -729.5497641563416, -546.4442623257637, -346.58400869369507
 1.7063877812628376E9, -475.35624396800995, -710.4014763832092, -546.6836159229279, -302.7823004126549
 1.7063877812635725E9, -587.8524346351624, -723.8052778244019, -543.5720191597939, -451.42088425159454
 1.7063877812635725E9, -520.1153666377068, -730.0284713506699, -545.7262015342712, -406.1830543875694
 1.7063877812757154E9, -456.4473097920418, -721.1723882555962, -548.8377982974052, -289.85720616579056
 1.7063877812757154E9, -562.0022461414337, -721.4117418527603, -550.5132734775543, -408.8159439563751
 1.706387781291754E9, -566.5499644875526, -733.379421710968, -550.2739198803902, -451.89959144592285
 1.706387781291754E9, -453.57506662607193, -723.0872170329094, -555.0609918236732, -309.9629083275795
 1.706387781292181E9, -513.6528195142746, -718.3001450896263, -545.9655551314354, -353.2859094142914
 1.706387781292181E9, -592.1607993841171, -740.7993832230568, -552.6674558520317, -476.7923655509949
 1.7063877813057227E9, -486.6058630347252, -736.491018474102, -552.9068094491959, -357.8336277604103
 1.7063877813057227E9, -477.2710727453232, -716.8640235066414, -548.5984447002411, -307.3300187587738
 1.7063877813217754E9, -598.6233465075493, -734.3368360996246, -550.9919806718826, -458.8408457636833
 1.7063877813217754E9, -528.0140353441238, -735.5336040854454, -547.8803839087486, -407.14046877622604
 1.706387781322206E9, -452.85700583457947, -716.8640235066414, -544.0507263541222, -292.96880292892456
 1.706387781322206E9, -559.369356572628, -719.2575594782829, -543.0933119654655, -407.8585295677185
 1.7063877813357053E9, -562.480953335762, -731.2252393364906, -548.3590911030769, -451.89959144592285
 1.7063877813357053E9, -447.3518730998039, -721.8904490470886, -544.7687871456146, -308.04807955026627
 1.7063877813547013E9, -513.1741123199463, -708.2472940087318, -537.1094720363617, -347.0627158880234
 1.7063877813547013E9, -593.3575673699379, -730.9858857393265, -544.7687871456146, -467.9362824559212
 1.7063877813548338E9, -481.3400838971138, -727.6349353790283, -544.2900799512863, -347.0627158880234
 1.7063877813548338E9, -481.10073029994965, -711.3588907718658, -544.0507263541222, -304.93648278713226
 1.7063877813657856E9, -594.3149817585945, -726.4381673932076, -542.8539583683014, -453.0963594317436
 1.7063877813657856E9, -520.8334274291992, -733.1400681138039, -545.2474943399429, -405.9437007904053
 1.706387781384262E9, -454.2931274175644, -718.5394986867905, -545.2474943399429, -291.7720349431038
 1.706387781384262E9, -559.6087101697922, -718.0607914924622, -542.6146047711372, -408.8159439563751
 1.706387781384375E9, -563.4383677244186, -730.5071785449982, -549.7952126860619, -448.78799468278885
 1.706387781384375E9, -452.138945043087, -725.4807530045509, -549.7952126860619, -312.83515149354935
 1.7063877813999088E9, -515.5676482915878, -715.4279019236565, -546.4442623257637, -351.6104342341423
 1.7063877813999088E9, -592.4001529812813, -736.0123112797737, -541.8965439796448, -469.8511112332344
 1.7063877814150603E9, -477.031719148159, -733.1400681138039, -543.5720191597939, -351.37108063697815
 1.7063877814150603E9, -473.4414151906967, -711.1195371747017, -541.1784831881523, -309.0054939389229
 1.7063877814153805E9, -584.9801914691925, -725.7201066017151, -536.6307648420334, -450.7028234601021
 1.7063877814153805E9, -516.2857090830803, -727.8742889761925, -548.3590911030769, -402.35339683294296
 1.706387781425707E9, -445.67639791965485, -708.486647605896, -542.3752511739731, -291.0539741516113
 1.706387781425707E9, -551.9493950605392, -712.0769515633583, -534.9552896618843, -400.43856805562973
 1.706387781451292E9, -562.480953335762, -729.5497641563416, -536.8701184391975, -443.2828619480133
 1.706387781451292E9, -449.74540907144547, -720.933034658432, -542.3752511739731, -301.34617882966995
 1.706387781456426E9, -515.807001888752, -711.59824436903, -538.7849472165108, -348.25948387384415
 1.706387781456426E9, -590.2459706068039, -735.0548968911171, -547.4016767144203, -469.8511112332344
 1.7063877814566E9, -479.42525511980057, -725.7201066017151, -544.7687871456146, -347.78077667951584
 1.7063877814566E9, -477.98913353681564, -713.9917803406715, -542.6146047711372, -298.23458206653595
 1.7063877814714453E9, -589.7672634124756, -723.5659242272377, -539.5030080080032, -442.56480115652084
 1.7063877814714453E9, -524.1843777894974, -732.9007145166397, -538.3062400221825, -400.1992144584656
 1.7063877814721544E9, -451.42088425159454, -716.3853163123131, -546.6836159229279, -290.8146205544472
 1.7063877814721544E9, -567.028671681881, -720.6936810612679, -543.811372756958, -405.9437007904053
 1.7063877814860053E9, -568.70414686203, -741.7567976117134, -548.8377982974052, -451.42088425159454
 1.7063877814860053E9, -453.3357130289078, -726.9168745875359, -543.5720191597939, -302.0642396211624
 1.7063877815014193E9, -514.3708803057671, -715.1885483264923, -539.5030080080032, -346.8233622908592
 1.7063877815014193E9, -585.698252260685, -729.5497641563416, -544.7687871456146, -462.1917961239815
 1.706387781502117E9, -482.53685188293457, -729.5497641563416, -555.5396990180016, -354.7220309972763
 1.706387781502117E9, -476.31365835666656, -711.59824436903, -544.7687871456146, -299.6707036495209
 1.706387781522519E9, -594.5543353557587, -724.2839850187302, -555.3003454208374, -455.7292490005493
 1.706387781522519E9, -528.253388941288, -737.927140057087, -552.4281022548676, -410.0127119421959
 1.7063877815316443E9, -460.27696734666824, -722.3691562414169, -545.0081407427788, -290.575266957283
 1.7063877815316443E9, -567.028671681881, -722.1298026442528, -544.0507263541222, -407.61917597055435
 1.7063877815321271E9, -569.6615612506866, -739.3632616400719, -549.0771518945694, -452.85700583457947
 1.7063877815321271E9, -457.16537058353424, -728.8317033648491, -551.9493950605392, -307.3300187587738
 1.7063877815621016E9, -518.6792450547218, -713.9917803406715, -539.9817152023315, -347.0627158880234
 1.7063877815621016E9, -594.7936889529228, -731.2252393364906, -542.6146047711372, -467.45757526159286
 1.7063877815683784E9, -484.4516806602478, -731.9433001279831, -555.5396990180016, -350.1743126511574
 1.7063877815683784E9, -484.69103425741196, -719.4969130754471, -553.6248702406883, -311.6383835077286
 1.7063877815690217E9, -599.3414072990417, -732.4220073223114, -549.7952126860619, -460.0376137495041
 1.7063877815690217E9, -533.7585216760635, -739.1239080429077, -558.4119421839714, -405.9437007904053
 1.7063877815765233E9, -464.1066249012947, -721.4117418527603, -552.6674558520317, -294.8836317062378
 1.7063877815765233E9, -569.6615612506866, -724.044631421566, -541.8965439796448, -407.8585295677185
 1.706387781591691E9, -570.6189756393433, -737.2090792655945, -550.2739198803902, -450.7028234601021
 1.706387781591691E9, -458.362138569355, -729.3104105591774, -554.1035774350166, -307.8087259531021
 1.7063877815926905E9, -524.4237313866615, -717.821437895298, -543.5720191597939, -351.37108063697815
 1.7063877815926905E9, -592.6395065784454, -733.6187753081322, -542.3752511739731, -466.50016087293625
 1.706387781605759E9, -481.57943749427795, -732.9007145166397, -552.9068094491959, -351.6104342341423
 1.706387781605759E9, -485.8878022432327, -714.2311339378357, -547.1623231172562, -309.9629083275795
 1.706387781621385E9, -589.5279098153114, -727.1562281847, -545.9655551314354, -454.53248101472855
 1.706387781621385E9, -528.4927425384521, -736.0123112797737, -550.9919806718826, -410.0127119421959
 1.7063877816221035E9, -460.0376137495041, -722.3691562414169, -554.3429310321808, -291.53268134593964
 1.7063877816221035E9, -566.0712572932243, -720.6936810612679, -539.9817152023315, -408.3372367620468
 1.706387781637401E9, -569.9009148478508, -738.4058472514153, -550.034566283226, -454.2931274175644
 1.706387781637401E9, -455.01118820905685, -725.0020458102226, -552.6674558520317, -309.0054939389229
 1.706387781655406E9, -517.9611842632294, -710.4014763832092, -544.2900799512863, -350.1743126511574
 1.706387781655406E9, -588.3311418294907, -730.7465321421623, -548.3590911030769, -470.3298184275627
 1.706387781669176E9, -481.57943749427795, -732.6613609194756, -550.5132734775543, -347.78077667951584
 1.706387781669176E9, -483.9729734659195, -718.7788522839546, -547.6410303115845, -305.41518998146057
 1.7063877816692169E9, -600.2988216876984, -728.5923497676849, -549.7952126860619, -457.64407777786255
 1.7063877816692169E9, -523.9450241923332, -732.9007145166397, -555.3003454208374, -408.57659035921097
 1.7063877816813736E9, -450.4634698629379, -714.4704875349998, -551.2313342690468, -289.1391453742981
 1.7063877816813736E9, -562.480953335762, -713.2737195491791, -546.922969520092, -409.77335834503174
 1.7063877816869621E9, -567.2680252790451, -732.1826537251472, -551.2313342690468, -451.89959144592285
 1.7063877816869621E9, -448.30928748846054, -719.2575594782829, -547.4016767144203, -305.41518998146057
 1.7063877816986752E9, -522.2695490121841, -715.1885483264923, -545.2474943399429, -346.8233622908592
 1.7063877816986752E9, -588.0917882323265, -732.1826537251472, -545.4868479371071, -463.86727130413055
 1.706387781716717E9, -478.94654792547226, -729.0710569620132, -552.1887486577034, -352.0891414284706
 1.706387781716717E9, -481.8187910914421, -713.5130731463432, -555.0609918236732, -313.79256588220596
 1.7063877817322574E9, -524.6630849838257, -738.4058472514153, -554.8216382265091, -404.7469328045845
 1.7063877817322574E9, -460.5163209438324, -721.8904490470886, -551.2313342690468, -292.7294493317604
 1.7063877817323887E9, -563.1990141272545, -717.5820842981339, -543.811372756958, -408.3372367620468
 1.7063877817323887E9, -560.5661245584488, -735.5336040854454, -550.2739198803902, -449.74540907144547
 1.706387781740914E9, -446.3944587111473, -718.3001450896263, -554.5822846293449, -305.41518998146057
 1.706387781740914E9, -508.3870403766632, -703.6995756626129, -544.5294335484505, -353.2859094142914
 1.7063877817565708E9, -580.9111803174019, -719.9756202697754, -542.6146047711372, -469.13305044174194
 1.7063877817565708E9, -470.56917202472687, -721.8904490470886, -546.922969520092, -346.8233622908592
 1.7063877817571552E9, -473.20206159353256, -714.4704875349998, -551.4706878662109, -309.9629083275795
 1.7063877817571552E9, -595.2723961472511, -733.379421710968, -549.0771518945694, -456.4473097920418
 1.7063877817707398E9, -522.2695490121841, -737.2090792655945, -556.9758206009865, -411.9275407195091
 1.7063877817707398E9, -456.9260169863701, -718.0607914924622, -552.4281022548676, -296.08039969205856
 1.7063877817922604E9, -565.1138429045677, -721.1723882555962, -546.6836159229279, -413.1243087053299
 1.7063877817922604E9, -562.480953335762, -735.2942504882812, -555.7790526151657, -454.7718346118927
 1.7063877817924852E9, -450.7028234601021, -727.6349353790283, -556.257759809494, -316.90416264533997
 1.7063877817924852E9, -527.2959745526314, -721.8904490470886, -558.8906493782997, -364.5355284810066
 1.706387781803543E9, -595.9904569387436, -736.9697256684303, -562.7203069329262, -485.8878022432327
 1.706387781803543E9, -488.28133821487427, -739.3632616400719, -563.4383677244186, -365.97165006399155
 1.7063877818164136E9, -486.84521663188934, -723.0872170329094, -558.4119421839714, -317.6222234368324
 1.7063877818164136E9, -593.3575673699379, -729.3104105591774, -549.5558590888977, -461.23438173532486
 1.706387781817108E9, -522.7482562065125, -727.1562281847, -551.9493950605392, -404.2682256102562
 1.706387781817108E9, -453.0963594317436, -716.8640235066414, -555.3003454208374, -293.2081565260887
 1.7063877818306906E9, -560.0874173641205, -715.6672555208206, -549.7952126860619, -413.6030158996582
 1.7063877818306906E9, -562.7203069329262, -732.9007145166397, -554.3429310321808, -454.7718346118927
 1.7063877818464994E9, -449.9847626686096, -719.7362666726112, -556.9758206009865, -309.24484753608704
 1.7063877818464994E9, -524.1843777894974, -714.9491947293282, -548.5984447002411, -358.55168855190277
 1.7063877818471706E9, -591.2033849954605, -736.9697256684303, -550.7526270747185, -475.1168903708458
 1.7063877818471706E9, -479.9039623141289, -728.5923497676849, -553.3855166435242, -357.354920566082
 1.706387781860679E9, -471.0478792190552, -711.8375979661942, -553.3855166435242, -316.42545545101166
 1.706387781860679E9, -589.0492026209831, -720.6936810612679, -555.3003454208374, -461.473735332489
 1.7063877818764625E9, -516.5250626802444, -731.7039465308189, -554.8216382265091, -409.29465115070343
 1.7063877818764625E9, -450.4634698629379, -712.0769515633583, -551.7100414633751, -293.9262173175812
 1.7063877818772452E9, -560.0874173641205, -719.7362666726112, -550.5132734775543, -411.20947992801666
 1.7063877818772452E9, -557.2151741981506, -731.9433001279831, -548.8377982974052, -448.78799468278885
 1.7063877818907084E9, -447.5912266969681, -719.0182058811188, -544.7687871456146, -305.41518998146057
 1.7063877818907084E9, -514.8495875000954, -710.1621227860451, -542.3752511739731, -349.21689826250076
 1.7063877819067812E9, -582.8260090947151, -729.5497641563416, -547.6410303115845, -470.09046483039856
 1.7063877819067812E9, -480.14331591129303, -732.1826537251472, -556.4971134066582, -357.11556696891785
 1.7063877819071736E9, -484.9303878545761, -719.0182058811188, -552.9068094491959, -314.0319194793701
 1.7063877819071736E9, -599.82011449337, -738.4058472514153, -549.5558590888977, -462.90985691547394
 1.7063877819207025E9, -524.4237313866615, -734.3368360996246, -551.4706878662109, -405.9437007904053
 1.7063877819207025E9, -458.12278497219086, -716.1459627151489, -548.5984447002411, -289.85720616579056
 1.7063877819406748E9, -560.0874173641205, -720.933034658432, -541.8965439796448, -410.0127119421959
 1.7063877819406748E9, -565.8319036960602, -739.1239080429077, -553.3855166435242, -455.96860259771347
 1.7063877819407172E9, -454.05377382040024, -731.9433001279831, -556.4971134066582, -316.6648090481758
 1.7063877819407172E9, -521.5514882206917, -720.6936810612679, -547.1623231172562, -360.22716373205185
 1.706387781950682E9, -593.596920967102, -739.602615237236, -556.0184062123299, -478.46784073114395
 1.706387781950682E9, -479.6646087169647, -733.1400681138039, -560.5661245584488, -358.55168855190277
 1.7063877819666858E9, -477.2710727453232, -718.0607914924622, -549.0771518945694, -313.31385868787766
 1.7063877819666858E9, -591.921445786953, -728.1136425733566, -553.14616304636, -461.9524425268173
 1.7063877819671917E9, -516.2857090830803, -726.9168745875359, -551.9493950605392, -406.66176158189774
 1.7063877819671917E9, -450.2241162657738, -710.8801835775375, -543.811372756958, -293.686863720417
 1.7063877819807074E9, -557.2151741981506, -715.9066091179848, -541.6571903824806, -408.57659035921097
 1.7063877819807074E9, -566.5499644875526, -736.2516648769379, -553.6248702406883, -455.01118820905685
 1.7063877819965863E9, -454.53248101472855, -721.1723882555962, -552.4281022548676, -306.13325077295303
 1.7063877819965863E9, -519.3973058462143, -714.4704875349998, -544.5294335484505, -350.6530198454857
 1.7063877819971926E9, -596.2298105359077, -730.267824947834, -550.5132734775543, -470.09046483039856
 1.7063877819971926E9, -483.25491267442703, -726.6775209903717, -551.9493950605392, -345.8659479022026
 1.7063877820108795E9, -482.05814468860626, -712.0769515633583, -549.0771518945694, -311.87773710489273
 1.7063877820108795E9, -596.708517730236, -727.1562281847, -545.4868479371071, -456.9260169863701
 1.7063877820265255E9, -529.6895105242729, -740.5600296258926, -545.9655551314354, -401.39598244428635
 1.7063877820265255E9, -461.473735332489, -721.8904490470886, -553.6248702406883, -296.798460483551
 1.7063877820272503E9, -570.8583292365074, -727.1562281847, -552.6674558520317, -417.1933198571205
 1.7063877820272503E9, -571.815743625164, -743.1929191946983, -555.7790526151657, -455.48989540338516
 1.7063877820407472E9, -456.9260169863701, -728.3529961705208, -559.8480637669563, -305.6545435786247
 1.7063877820407472E9, -529.2108033299446, -721.1723882555962, -556.0184062123299, -359.74845653772354
 1.706387782056562E9, -597.4265785217285, -740.5600296258926, -559.6087101697922, -479.9039623141289
 1.706387782056562E9, -484.9303878545761, -737.4484328627586, -553.8642238378525, -354.48267740011215
 1.7063877820571797E9, -485.16974145174026, -719.4969130754471, -547.4016767144203, -312.1170907020569
 1.7063877820571797E9, -595.033042550087, -727.6349353790283, -547.1623231172562, -455.48989540338516
 1.7063877820706944E9, -527.2959745526314, -734.3368360996246, -556.0184062123299, -406.66176158189774
 1.7063877820706944E9, -457.64407777786255, -718.7788522839546, -550.034566283226, -292.01138854026794
 1.7063877820864413E9, -571.3370364308357, -722.1298026442528, -537.58817923069, -407.8585295677185
 1.7063877820864413E9, -569.6615612506866, -739.1239080429077, -552.4281022548676, -449.74540907144547
 1.7063877820871344E9, -454.7718346118927, -726.9168745875359, -558.4119421839714, -305.6545435786247
 1.7063877820871344E9, -529.6895105242729, -720.2149738669395, -545.2474943399429, -354.96138459444046
 1.7063877821010923E9, -594.0756281614304, -738.4058472514153, -548.1197375059128, -473.20206159353256
 1.7063877821010923E9, -480.14331591129303, -730.0284713506699, -548.8377982974052, -348.73819106817245
 1.7063877821164448E9, -481.3400838971138, -710.1621227860451, -544.5294335484505, -305.41518998146057
 1.7063877821164448E9, -600.5381752848625, -730.9858857393265, -544.7687871456146, -455.96860259771347
 1.7063877821171472E9, -526.8172673583031, -730.5071785449982, -549.0771518945694, -408.09788316488266
 1.7063877821171472E9, -464.585332095623, -723.5659242272377, -548.8377982974052, -298.71328926086426
 1.7063877821309228E9, -569.6615612506866, -720.6936810612679, -539.0243008136749, -411.68818712234497
 1.7063877821309228E9, -571.815743625164, -741.038736820221, -551.7100414633751, -454.53248101472855
 1.7063877821466308E9, -460.9950281381607, -728.1136425733566, -556.257759809494, -308.5267867445946
 1.7063877821466308E9, -527.0566209554672, -720.4543274641037, -550.2739198803902, -361.4239317178726
 1.7063877821472156E9, -590.2459706068039, -732.9007145166397, -543.811372756958, -472.4840008020401
 1.7063877821472156E9, -481.10073029994965, -732.9007145166397, -552.6674558520317, -354.7220309972763
 1.7063877821607316E9, -478.94654792547226, -714.4704875349998, -544.5294335484505, -317.8615770339966
 1.7063877821607316E9, -589.0492026209831, -721.4117418527603, -541.8965439796448, -457.16537058353424
 1.706387782176546E9, -516.7644162774086, -726.9168745875359, -546.6836159229279, -407.3798223733902
 1.706387782176546E9, -454.2931274175644, -713.9917803406715, -544.5294335484505, -294.64427810907364
 1.7063877821771543E9, -561.2841853499413, -715.1885483264923, -540.4604223966599, -414.799783885479
 1.7063877821771543E9, -561.2841853499413, -729.3104105591774, -542.1358975768089, -448.78799468278885
 1.7063877821988044E9, -447.11251950263977, -717.3427307009697, -545.0081407427788, -310.68096911907196
 1.7063877821988044E9, -513.6528195142746, -707.2898796200752, -540.2210687994957, -358.7910421490669
 1.7063877822064223E9, -588.809849023819, -732.1826537251472, -550.034566283226, -479.1859015226364
 1.7063877822064223E9, -476.31365835666656, -730.0284713506699, -550.034566283226, -352.0891414284706
 1.7063877822071106E9, -476.5530119538307, -713.7524267435074, -545.4868479371071, -315.46804106235504
 1.7063877822071106E9, -594.0756281614304, -722.3691562414169, -538.7849472165108, -454.53248101472855
 1.7063877822207603E9, -521.5514882206917, -729.0710569620132, -545.4868479371071, -403.7895184159279
 1.7063877822207603E9, -448.5486410856247, -708.2472940087318, -538.5455936193466, -289.1391453742981
 1.7063877822365026E9, -554.8216382265091, -709.6834155917168, -535.1946432590485, -406.1830543875694
 1.7063877822365026E9, -556.4971134066582, -725.2413994073868, -541.1784831881523, -447.5912266969681
 1.7063877822372634E9, -444.00092273950577, -714.4704875349998, -548.8377982974052, -303.7397148013115
 1.7063877822372634E9, -517.0037698745728, -706.3324652314186, -537.1094720363617, -349.21689826250076
 1.7063877822507663E9, -587.373727440834, -729.5497641563416, -545.9655551314354, -472.24464720487595
 1.7063877822507663E9, -477.98913353681564, -726.1988137960434, -550.034566283226, -350.89237344264984
 1.7063877822667956E9, -479.6646087169647, -710.6408299803734, -547.1623231172562, -310.9203227162361
 1.7063877822667956E9, -594.7936889529228, -724.7626922130585, -542.1358975768089, -455.48989540338516
 1.7063877822672408E9, -522.9876098036766, -732.4220073223114, -553.6248702406883, -402.1140432357788
 1.7063877822672408E9, -458.362138569355, -719.7362666726112, -547.4016767144203, -290.8146205544472
 1.706387782280718E9, -567.7467324733734, -720.2149738669395, -542.6146047711372, -411.68818712234497
 1.706387782280718E9, -558.6512957811356, -734.8155432939529, -551.4706878662109, -448.0699338912964
 1.7063877823029647E9, -452.6176522374153, -724.7626922130585, -550.5132734775543, -304.2184219956398
 1.7063877823029647E9, -521.5514882206917, -712.5556587576866, -541.8965439796448, -354.00397020578384
 1.706387782303751E9, -589.5279098153114, -734.0974825024605, -543.5720191597939, -469.13305044174194
 1.706387782303751E9, -479.9039623141289, -729.5497641563416, -553.8642238378525, -353.52526301145554
 1.7063877823108833E9, -480.3826695084572, -712.0769515633583, -544.0507263541222, -313.79256588220596
 1.7063877823108833E9, -593.8362745642662, -726.9168745875359, -546.4442623257637, -456.68666338920593
 1.7063877823264332E9, -519.8760130405426, -729.5497641563416, -547.1623231172562, -399.9598608613014
 1.7063877823264332E9, -456.2079561948776, -711.59824436903, -545.7262015342712, -291.7720349431038
 1.70638778232711E9, -562.480953335762, -717.821437895298, -541.1784831881523, -404.7469328045845
 1.70638778232711E9, -561.0448317527771, -733.8581289052963, -548.1197375059128, -445.915751516819
 1.706387782340804E9, -453.8144202232361, -719.0182058811188, -558.4119421839714, -306.13325077295303
 1.706387782340804E9, -518.918598651886, -713.2737195491791, -547.4016767144203, -353.0465558171272
 1.7063877823565414E9, -591.6820921897888, -731.7039465308189, -553.14616304636, -473.68076878786087
 1.7063877823565414E9, -478.94654792547226, -729.3104105591774, -556.257759809494, -351.37108063697815
 1.7063877823571017E9, -479.1859015226364, -711.1195371747017, -544.2900799512863, -310.9203227162361
 1.7063877823571017E9, -593.3575673699379, -724.7626922130585, -544.0507263541222, -460.5163209438324
 1.7063877823707352E9, -519.3973058462143, -734.3368360996246, -552.4281022548676, -401.6353360414505
 1.7063877823707352E9, -454.53248101472855, -712.7950123548508, -546.6836159229279, -289.6178525686264
 1.7063877823864188E9, -562.480953335762, -712.5556587576866, -537.8275328278542, -409.0552975535393
 1.7063877823864188E9, -559.6087101697922, -731.2252393364906, -552.4281022548676, -447.83058029413223
 1.706387782387123E9, -449.027348279953, -721.4117418527603, -551.2313342690468, -308.04807955026627
 1.706387782387123E9, -528.9714497327805, -721.6510954499245, -550.2739198803902, -360.70587092638016
 1.7063877824009895E9, -595.5117497444153, -739.1239080429077, -555.5396990180016, -471.5265864133835
 1.7063877824009895E9, -480.62202310562134, -727.6349353790283, -551.9493950605392, -347.0627158880234
 1.7063877824163833E9, -488.99939900636673, -718.7788522839546, -550.9919806718826, -314.5106266736984
 1.7063877824163833E9, -597.9052857160568, -728.3529961705208, -551.4706878662109, -460.0376137495041
 1.7063877824171169E9, -520.3547202348709, -734.5761896967888, -555.0609918236732, -404.7469328045845
 1.7063877824171169E9, -453.8144202232361, -712.7950123548508, -548.5984447002411, -297.9952284693718
 1.7063877824387052E9, -562.9596605300903, -714.709841132164, -538.7849472165108, -408.09788316488266
 1.7063877824387052E9, -557.6938813924789, -729.7891177535057, -545.0081407427788, -447.3518730998039
 1.706387782446378E9, -445.67639791965485, -715.9066091179848, -543.5720191597939, -301.82488602399826
 1.706387782446378E9, -518.4398914575577, -713.5130731463432, -538.7849472165108, -354.00397020578384
 1.7063877824471006E9, -589.2885562181473, -735.0548968911171, -554.3429310321808, -472.9627079963684
 1.7063877824471006E9, -475.1168903708458, -729.5497641563416, -551.4706878662109, -347.30206948518753
 1.7063877824607177E9, -479.42525511980057, -714.4704875349998, -548.5984447002411, -312.35644429922104
 1.7063877824607177E9, -593.1182137727737, -725.9594601988792, -550.034566283226, -458.8408457636833
 1.7063877824765463E9, -515.5676482915878, -730.7465321421623, -548.3590911030769, -407.8585295677185
 1.7063877824765463E9, -455.7292490005493, -715.6672555208206, -552.9068094491959, -292.7294493317604
 1.7063877824773624E9, -566.3106108903885, -718.5394986867905, -547.8803839087486, -415.7571982741356
 1.7063877824773624E9, -568.2254396677017, -738.4058472514153, -554.5822846293449, -451.42088425159454
 1.7063877824907267E9, -455.01118820905685, -719.4969130754471, -554.1035774350166, -307.09066516160965
 1.7063877824907267E9, -529.6895105242729, -716.1459627151489, -544.7687871456146, -357.8336277604103
 1.7063877825064456E9, -589.2885562181473, -732.9007145166397, -543.0933119654655, -464.82468569278717
 1.7063877825064456E9, -478.46784073114395, -731.9433001279831, -556.257759809494, -351.6104342341423
 1.7063877825071125E9, -478.7071943283081, -712.5556587576866, -547.1623231172562, -313.79256588220596
 1.7063877825071125E9, -595.9904569387436, -725.4807530045509, -552.4281022548676, -463.6279177069664
 1.706387782520723E9, -524.9024385809898, -739.3632616400719, -557.9332349896431, -409.5340047478676
 1.706387782520723E9, -466.97886806726456, -724.7626922130585, -562.0022461414337, -306.13325077295303
 1.7063877825367916E9, -572.7731580138206, -726.6775209903717, -556.9758206009865, -422.4590989947319
 1.7063877825367916E9, -565.592550098896, -739.1239080429077, -555.7790526151657, -449.26670187711716
 1.7063877825371933E9, -452.6176522374153, -721.6510954499245, -557.2151741981506, -310.4416155219078
 1.7063877825371933E9, -520.3547202348709, -715.4279019236565, -548.3590911030769, -359.74845653772354
 1.706387782550737E9, -587.1343738436699, -728.3529961705208, -545.0081407427788, -472.4840008020401
 1.706387782550737E9, -473.920122385025, -723.5659242272377, -551.4706878662109, -347.30206948518753
 1.706387782566467E9, -476.31365835666656, -708.486647605896, -543.3326655626297, -309.9629083275795
 1.706387782566467E9, -586.8950202465057, -718.0607914924622, -543.5720191597939, -455.250541806221
 1.7063877825672207E9, -516.2857090830803, -732.1826537251472, -548.3590911030769, -399.4811536669731
 1.7063877825672207E9, -453.0963594317436, -713.0343659520149, -546.4442623257637, -293.9262173175812
 1.7063877825809207E9, -559.369356572628, -713.5130731463432, -540.699775993824, -407.14046877622604
 1.7063877825809207E9, -557.4545277953148, -723.3265706300735, -551.2313342690468, -440.1712651848793
 1.7063877825964448E9, -444.4796299338341, -718.3001450896263, -549.5558590888977, -300.38876444101334
 1.7063877825964448E9, -517.0037698745728, -707.0505260229111, -540.699775993824, -354.00397020578384
 1.706387782597156E9, -587.6130810379982, -726.1988137960434, -545.2474943399429, -465.54274648427963
 1.706387782597156E9, -478.2284871339798, -724.7626922130585, -551.4706878662109, -347.0627158880234
 1.7063877826110165E9, -484.9303878545761, -710.8801835775375, -550.5132734775543, -307.3300187587738
 1.7063877826110165E9, -604.1284792423248, -737.6877864599228, -551.9493950605392, -464.82468569278717
 1.7063877826268673E9, -528.7320961356163, -738.4058472514153, -558.4119421839714, -403.7895184159279
 1.7063877826268673E9, -465.0640392899513, -725.0020458102226, -564.1564285159111, -298.4739356637001
 1.7063877826271129E9, -574.4486331939697, -727.8742889761925, -554.3429310321808, -420.06556302309036
 1.7063877826271129E9, -572.2944508194923, -742.4748584032059, -565.8319036960602, -455.96860259771347
 1.706387782640721E9, -458.362138569355, -726.1988137960434, -555.3003454208374, -308.5267867445946
 1.706387782640721E9, -527.7746817469597, -715.9066091179848, -547.1623231172562, -357.8336277604103
 1.7063877826566527E9, -592.6395065784454, -731.9433001279831, -554.8216382265091, -469.8511112332344
 1.7063877826566527E9, -477.031719148159, -725.9594601988792, -560.3267709612846, -348.25948387384415
 1.706387782657346E9, -477.98913353681564, -702.9815148711205, -545.4868479371071, -308.7661403417587
 1.706387782657346E9, -590.2459706068039, -717.821437895298, -549.3165054917336, -455.7292490005493
 1.706387782670725E9, -512.4560515284538, -726.6775209903717, -545.7262015342712, -392.3005457520485
 1.706387782670725E9, -451.89959144592285, -708.7260012030602, -546.4442623257637, -286.26690220832825
 1.7063877826864536E9, -566.7893180847168, -714.9491947293282, -534.2372288703918, -411.4488335251808
 1.7063877826864536E9, -560.3267709612846, -726.9168745875359, -537.8275328278542, -438.97449719905853
 1.706387782687162E9, -443.52221554517746, -706.3324652314186, -539.9817152023315, -292.49009573459625
 1.706387782687162E9, -516.2857090830803, -699.3912109136581, -533.2798144817352, -349.4562518596649
 1.706387782700964E9, -581.6292411088943, -717.3427307009697, -539.9817152023315, -455.250541806221
 1.706387782700964E9, -476.5530119538307, -719.2575594782829, -549.3165054917336, -340.1214615702629
 1.7063877827157445E9, -478.7071943283081, -710.8801835775375, -545.0081407427788, -310.20226192474365
 1.7063877827157445E9, -595.9904569387436, -729.7891177535057, -546.2049087285995, -456.9260169863701
 1.7063877827318597E9, -472.24464720487595, -725.7201066017151, -562.480953335762, -302.0642396211624
 1.7063877827318597E9, -581.150533914566, -729.7891177535057, -559.8480637669563, -422.21974539756775
 1.706387782732286E9, -573.9699259996414, -740.5600296258926, -559.8480637669563, -452.37829864025116
 1.706387782732286E9, -456.4473097920418, -725.7201066017151, -555.3003454208374, -307.56937235593796
 1.7063877827457006E9, -520.1153666377068, -706.3324652314186, -544.2900799512863, -353.52526301145554
 1.7063877827457006E9, -586.1769594550133, -729.0710569620132, -546.6836159229279, -471.76594001054764
 1.70638778276162E9, -471.76594001054764, -721.8904490470886, -552.4281022548676, -347.30206948518753
 1.70638778276162E9, -475.35624396800995, -705.6144044399261, -543.5720191597939, -306.13325077295303
 1.706387782762144E9, -585.4588986635208, -716.8640235066414, -541.8965439796448, -451.6602378487587
 1.706387782762144E9, -509.10510116815567, -722.1298026442528, -547.8803839087486, -394.9334353208542
 1.7063877827757092E9, -442.804154753685, -702.263454079628, -543.5720191597939, -286.5062558054924
 1.7063877827757092E9, -550.2739198803902, -704.8963436484337, -539.0243008136749, -413.1243087053299
 1.7063877827914517E9, -546.4442623257637, -713.9917803406715, -542.3752511739731, -444.71898353099823
 1.7063877827914517E9, -432.9906572699547, -701.3060396909714, -540.9391295909882, -297.27716767787933
 1.7063877827921505E9, -510.5412227511406, -698.4337965250015, -534.9552896618843, -349.21689826250076
 1.7063877827921505E9, -577.7995835542679, -722.6085098385811, -540.4604223966599, -465.54274648427963
 1.7063877828059483E9, -466.2608072757721, -714.709841132164, -551.9493950605392, -345.14788711071014
 1.7063877828059483E9, -478.46784073114395, -712.5556587576866, -551.9493950605392, -312.35644429922104
 1.7063877828218307E9, -595.2723961472511, -726.1988137960434, -549.3165054917336, -461.9524425268173
 1.7063877828218307E9, -526.0992065668106, -735.2942504882812, -564.1564285159111, -410.9701263308525
 1.7063877828222373E9, -460.27696734666824, -718.5394986867905, -553.3855166435242, -300.6281180381775
 1.7063877828222373E9, -566.5499644875526, -721.4117418527603, -554.1035774350166, -415.2784910798073
 1.7063877828357372E9, -560.805478155613, -733.8581289052963, -557.4545277953148, -453.3357130289078
 1.7063877828357372E9, -456.9260169863701, -727.8742889761925, -558.4119421839714, -309.9629083275795
 1.7063877828518713E9, -524.4237313866615, -713.9917803406715, -554.1035774350166, -361.9026389122009
 1.7063877828518713E9, -590.485324203968, -733.379421710968, -546.922969520092, -467.45757526159286
 1.7063877828522406E9, -478.46784073114395, -732.4220073223114, -561.7628925442696, -346.10530149936676
 1.7063877828522406E9, -483.9729734659195, -716.1459627151489, -554.5822846293449, -310.20226192474365
 1.7063877828657792E9, -598.6233465075493, -732.9007145166397, -555.5396990180016, -463.1492105126381
 1.7063877828657792E9, -526.8172673583031, -737.4484328627586, -562.0022461414337, -408.3372367620468
 1.7063877828820508E9, -460.0376137495041, -714.4704875349998, -554.3429310321808, -295.12298530340195
 1.7063877828820508E9, -566.0712572932243, -719.4969130754471, -555.0609918236732, -418.8687950372696
 1.7063877828822188E9, -570.140268445015, -744.6290407776833, -564.3957821130753, -456.68666338920593
 1.7063877828822188E9, -457.4047241806984, -727.3955817818642, -567.7467324733734, -308.7661403417587
 1.7063877828957121E9, -532.8011072874069, -721.8904490470886, -561.2841853499413, -369.56195402145386
 1.7063877828957121E9, -593.596920967102, -740.3206760287285, -560.805478155613, -476.31365835666656
 1.7063877829114966E9, -484.21232706308365, -739.602615237236, -565.8319036960602, -354.96138459444046
 1.7063877829114966E9, -483.4942662715912, -720.4543274641037, -564.1564285159111, -324.5634777545929
 1.7063877829121575E9, -592.8788601756096, -729.3104105591774, -555.5396990180016, -465.0640392899513
 1.7063877829121575E9, -522.2695490121841, -736.2516648769379, -562.480953335762, -406.66176158189774
 1.7063877829257512E9, -459.5589065551758, -716.8640235066414, -557.6938813924789, -295.8410460948944
 1.7063877829257512E9, -564.6351357102394, -715.4279019236565, -546.922969520092, -415.51784467697144
 1.706387782942105E9, -563.6777213215828, -735.7729576826096, -558.4119421839714, -450.7028234601021
 1.706387782942105E9, -448.78799468278885, -721.1723882555962, -560.805478155613, -304.93648278713226
 1.7063877829421947E9, -524.6630849838257, -712.3163051605225, -552.6674558520317, -363.81746768951416
 1.7063877829421947E9, -590.2459706068039, -733.6187753081322, -548.1197375059128, -468.65434324741364
 1.7063877829557662E9, -480.14331591129303, -734.0974825024605, -558.6512957811356, -352.0891414284706
 1.7063877829557662E9, -488.5206918120384, -723.0872170329094, -562.480953335762, -320.2551130056381
 1.706387782971453E9, -596.708517730236, -728.5923497676849, -554.8216382265091, -459.79826015233994
 1.706387782971453E9, -515.5676482915878, -729.3104105591774, -556.7364670038223, -403.0714576244354
 1.7063877829721627E9, -452.37829864025116, -710.4014763832092, -550.9919806718826, -295.12298530340195
 1.7063877829721627E9, -568.4647932648659, -719.2575594782829, -550.5132734775543, -415.0391374826431
 1.7063877829862244E9, -560.0874173641205, -733.8581289052963, -554.8216382265091, -452.37829864025116
 1.7063877829862244E9, -451.1815306544304, -720.933034658432, -558.6512957811356, -306.61195796728134
 1.706387783001491E9, -522.03019541502, -707.5292332172394, -551.2313342690468, -359.9878101348877
 1.706387783001491E9, -592.1607993841171, -734.5761896967888, -557.9332349896431, -474.39882957935333
 1.7063877830021443E9, -481.3400838971138, -733.379421710968, -563.6777213215828, -349.21689826250076
 1.7063877830021443E9, -490.43552058935165, -719.4969130754471, -557.4545277953148, -318.8189914226532
 1.7063877830158389E9, -599.82011449337, -732.6613609194756, -554.5822846293449, -464.585332095623
 1.7063877830158389E9, -524.6630849838257, -738.8845544457436, -562.9596605300903, -399.9598608613014
 1.7063877830315676E9, -464.585332095623, -718.3001450896263, -555.7790526151657, -294.16557091474533
 1.7063877830315676E9, -579.2357051372528, -722.8478634357452, -544.7687871456146, -416.2359054684639
 1.7063877830322163E9, -572.2944508194923, -735.5336040854454, -552.4281022548676, -449.74540907144547
 1.7063877830322163E9, -462.90985691547394, -725.4807530045509, -555.3003454208374, -304.6971291899681
 1.706387783045747E9, -529.9288641214371, -713.2737195491791, -540.699775993824, -352.32849502563477
 1.706387783045747E9, -595.9904569387436, -735.0548968911171, -553.6248702406883, -466.50016087293625
 1.706387783061489E9, -478.46784073114395, -725.2413994073868, -554.5822846293449, -343.2330583333969
 1.706387783061489E9, -485.6484486460686, -706.0931116342545, -540.699775993824, -308.04807955026627
 1.7063877830621374E9, -595.9904569387436, -722.6085098385811, -545.7262015342712, -456.68666338920593
 1.7063877830621374E9, -522.03019541502, -726.1988137960434, -547.6410303115845, -391.3431313633919
 1.7063877830757728E9, -464.585332095623, -715.9066091179848, -551.7100414633751, -289.85720616579056
 1.7063877830757728E9, -580.4324731230736, -726.9168745875359, -555.0609918236732, -422.4590989947319
 1.7063877830914629E9, -572.7731580138206, -742.4748584032059, -551.9493950605392, -451.42088425159454
 1.7063877830914629E9, -458.12278497219086, -721.1723882555962, -552.6674558520317, -304.45777559280396
 1.7063877831064124E9, -536.3914112448692, -715.9066091179848, -553.3855166435242, -361.6632853150368
 1.7063877831064124E9, -590.9640313982964, -731.7039465308189, -554.3429310321808, -476.0743047595024
 1.7063877831071262E9, -477.51042634248734, -725.7201066017151, -550.9919806718826, -348.4988374710083
 1.7063877831071262E9, -487.80263102054596, -711.3588907718658, -549.7952126860619, -315.46804106235504
 1.706387783121703E9, -603.1710648536682, -729.7891177535057, -551.4706878662109, -468.65434324741364
 1.706387783121703E9, -527.0566209554672, -736.0123112797737, -552.6674558520317, -399.72050726413727
 1.7063877831222758E9, -459.0801993608475, -710.6408299803734, -551.4706878662109, -293.2081565260887
 1.7063877831222758E9, -575.4060475826263, -722.8478634357452, -547.4016767144203, -411.9275407195091
 1.706387783135775E9, -573.0125116109848, -734.0974825024605, -554.3429310321808, -442.3254475593567
 1.706387783135775E9, -460.75567454099655, -725.9594601988792, -559.8480637669563, -305.1758363842964
 1.706387783151472E9, -542.3752511739731, -723.0872170329094, -554.1035774350166, -362.6206997036934
 1.706387783151472E9, -604.367832839489, -738.8845544457436, -554.1035774350166, -473.68076878786087
 1.7063877831521664E9, -487.80263102054596, -732.4220073223114, -559.6087101697922, -346.8233622908592
 1.7063877831521664E9, -500.96707886457443, -718.3001450896263, -552.1887486577034, -314.0319194793701
 1.706387783165732E9, -613.4632695317268, -740.5600296258926, -554.3429310321808, -464.1066249012947
 1.706387783165732E9, -537.1094720363617, -743.6716263890266, -559.8480637669563, -402.1140432357788
 1.7063877831814148E9, -483.4942662715912, -730.7465321421623, -563.6777213215828, -297.9952284693718
 1.7063877831814148E9, -590.485324203968, -734.5761896967888, -555.0609918236732, -419.58685582876205
 1.7063877831821423E9, -582.3473019003868, -747.7406375408173, -556.7364670038223, -451.6602378487587
 1.7063877831821423E9, -473.4414151906967, -731.9433001279831, -563.6777213215828, -310.20226192474365
 1.706387783195878E9, -546.2049087285995, -725.2413994073868, -557.9332349896431, -372.4341971874237
 1.706387783195878E9, -603.8891256451607, -737.2090792655945, -557.4545277953148, -479.1859015226364
 1.7063877832114384E9, -488.5206918120384, -733.6187753081322, -561.7628925442696, -348.73819106817245
 1.7063877832114384E9, -500.24901807308197, -723.5659242272377, -561.2841853499413, -326.95701372623444
 1.7063877832121694E9, -612.9845623373985, -739.3632616400719, -559.1300029754639, -473.920122385025
 1.7063877832121694E9, -528.4927425384521, -740.0813224315643, -562.480953335762, -410.4914191365242
 1.7063877832257583E9, -477.51042634248734, -728.8317033648491, -563.1990141272545, -306.61195796728134
 1.7063877832257583E9, -586.4163130521774, -732.4220073223114, -560.5661245584488, -430.11841410398483
 1.7063877832414784E9, -578.7569979429245, -748.6980519294739, -562.9596605300903, -463.1492105126381
 1.7063877832414784E9, -465.54274648427963, -732.9007145166397, -568.2254396677017, -318.57963782548904
 1.7063877832421167E9, -540.2210687994957, -719.4969130754471, -558.4119421839714, -376.5032083392143
 1.7063877832421167E9, -601.4955896735191, -742.4748584032059, -563.6777213215828, -485.8878022432327
 1.7063877832561228E9, -487.32392382621765, -736.9697256684303, -563.917074918747, -358.07298135757446
 1.7063877832561228E9, -493.7864709496498, -716.8640235066414, -557.6938813924789, -318.8189914226532
 1.7063877832717683E9, -607.2400760054588, -730.267824947834, -548.8377982974052, -467.696928858757
 1.7063877832717683E9, -530.6469249129295, -738.1664936542511, -553.8642238378525, -402.83210402727127
 1.706387783273188E9, -472.0052936077118, -724.7626922130585, -559.8480637669563, -298.71328926086426
 1.706387783273188E9, -584.2621306777, -727.6349353790283, -556.7364670038223, -425.5706957578659
 1.7063877832857633E9, -581.8685947060585, -745.825808763504, -559.6087101697922, -455.48989540338516
 1.7063877832857633E9, -463.38856410980225, -728.5923497676849, -562.0022461414337, -308.2874331474304
 1.7063877833016102E9, -539.0243008136749, -719.2575594782829, -555.3003454208374, -367.40777164697647
 1.7063877833016102E9, -601.4955896735191, -741.5174440145493, -551.2313342690468, -470.09046483039856
 1.706387783302294E9, -492.3503493666649, -743.4322727918625, -556.9758206009865, -348.9775446653366
 1.706387783302294E9, -504.07867562770844, -727.6349353790283, -556.4971134066582, -319.2976986169815
 1.7063877833157673E9, -617.7716342806816, -742.9535655975342, -556.7364670038223, -469.3724040389061
 1.7063877833157673E9, -534.9552896618843, -741.7567976117134, -559.8480637669563, -407.8585295677185
 1.706387783331607E9, -473.68076878786087, -723.3265706300735, -560.5661245584488, -297.5165212750435
 1.706387783331607E9, -581.150533914566, -724.5233386158943, -551.9493950605392, -416.7146126627922
 1.7063877833323896E9, -569.1828540563583, -740.3206760287285, -553.14616304636, -449.5060554742813
 1.7063877833323896E9, -455.96860259771347, -717.5820842981339, -551.9493950605392, -307.8087259531021
 1.7063877833458111E9, -529.2108033299446, -711.1195371747017, -543.3326655626297, -360.22716373205185
 1.7063877833458111E9, -593.3575673699379, -733.8581289052963, -547.8803839087486, -465.54274648427963
 1.7063877833644412E9, -482.2974982857704, -730.7465321421623, -557.4545277953148, -348.4988374710083
 1.7063877833644412E9, -493.54711735248566, -715.1885483264923, -549.5558590888977, -318.10093063116074
 1.7063877833647728E9, -604.6071864366531, -733.6187753081322, -549.3165054917336, -462.1917961239815
 1.7063877833647728E9, -524.6630849838257, -737.6877864599228, -555.3003454208374, -402.83210402727127
 1.7063877833758388E9, -462.90985691547394, -715.1885483264923, -553.14616304636, -298.9526428580284
 1.7063877833758388E9, -576.1241083741188, -720.4543274641037, -544.2900799512863, -423.17715978622437
 1.7063877833914292E9, -566.3106108903885, -737.2090792655945, -550.7526270747185, -449.027348279953
 1.7063877833914292E9, -460.5163209438324, -725.0020458102226, -556.257759809494, -308.2874331474304
 1.7063877833921542E9, -539.2636544108391, -721.8904490470886, -552.1887486577034, -370.04066121578217
 1.7063877833921542E9, -601.256236076355, -740.3206760287285, -554.1035774350166, -476.7923655509949
 1.7063877834060075E9, -493.06841015815735, -743.9109799861908, -565.8319036960602, -356.15815258026123
 1.7063877834060075E9, -505.2754436135292, -725.7201066017151, -561.2841853499413, -329.1111961007118
 1.706387783421399E9, -620.4045238494873, -747.0225767493248, -557.9332349896431, -474.87753677368164
 1.706387783421399E9, -545.7262015342712, -754.6818918585777, -568.2254396677017, -412.88495510816574
 1.7063877834221025E9, -477.2710727453232, -729.3104105591774, -566.5499644875526, -302.5429468154907
 1.7063877834221025E9, -592.1607993841171, -737.927140057087, -555.5396990180016, -429.6397069096565
 1.706387783435717E9, -579.2357051372528, -747.261930346489, -559.1300029754639, -452.85700583457947
 1.706387783435717E9, -469.3724040389061, -736.2516648769379, -559.8480637669563, -306.13325077295303
 1.7063877834515085E9, -544.2900799512863, -728.1136425733566, -551.4706878662109, -367.1684180498123
 1.7063877834515085E9, -604.1284792423248, -745.3471015691757, -553.14616304636, -478.7071943283081
 1.706387783452165E9, -492.3503493666649, -741.038736820221, -562.2415997385979, -353.52526301145554
 1.706387783452165E9, -494.2651781439781, -719.7362666726112, -552.9068094491959, -320.2551130056381
 1.7063877834657469E9, -608.4368439912796, -746.0651623606682, -556.4971134066582, -477.7497799396515
 1.7063877834657469E9, -531.8436928987503, -745.1077479720116, -557.4545277953148, -408.57659035921097
 1.7063877834817264E9, -470.09046483039856, -724.5233386158943, -557.6938813924789, -303.2610076069832
 1.7063877834817264E9, -585.2195450663567, -730.267824947834, -552.4281022548676, -427.246170938015
 1.706387783482293E9, -570.8583292365074, -742.4748584032059, -561.0448317527771, -449.9847626686096
 1.706387783482293E9, -462.43114972114563, -725.4807530045509, -553.6248702406883, -303.97906839847565
 1.7063877834959924E9, -535.4339968562126, -719.4969130754471, -546.6836159229279, -364.29617488384247
 1.7063877834959924E9, -595.5117497444153, -741.9961512088776, -554.5822846293449, -477.031719148159
 1.7063877835116584E9, -482.2974982857704, -738.4058472514153, -558.1725885868073, -346.3446550965309
 1.7063877835116584E9, -489.95681339502335, -721.1723882555962, -548.1197375059128, -318.57963782548904
 1.7063877835122705E9, -601.256236076355, -732.1826537251472, -555.7790526151657, -466.7395144701004
 1.7063877835122705E9, -523.4663169980049, -736.2516648769379, -559.1300029754639, -405.2256399989128
 1.7063877835257833E9, -462.90985691547394, -721.6510954499245, -560.0874173641205, -293.44751012325287
 1.7063877835257833E9, -572.7731580138206, -723.0872170329094, -550.2739198803902, -423.4165133833885
 1.7063877835414183E9, -569.4222076535225, -741.9961512088776, -553.3855166435242, -456.4473097920418
 1.7063877835414183E9, -459.0801993608475, -724.5233386158943, -553.14616304636, -309.24484753608704
 1.7063877835421653E9, -537.3488256335258, -723.3265706300735, -552.1887486577034, -373.3916115760803
 1.7063877835421653E9, -596.4691641330719, -745.825808763504, -553.3855166435242, -482.7762054800987
 1.7063877835557606E9, -485.6484486460686, -741.038736820221, -556.0184062123299, -354.7220309972763
 1.7063877835557606E9, -494.2651781439781, -723.3265706300735, -551.4706878662109, -326.7176601290703
 1.7063877835714333E9, -606.2826616168022, -738.4058472514153, -555.0609918236732, -480.14331591129303
 1.7063877835714333E9, -520.8334274291992, -736.0123112797737, -559.1300029754639, -411.4488335251808
 1.7063877835721536E9, -465.54274648427963, -721.6510954499245, -559.8480637669563, -309.9629083275795
 1.7063877835721536E9, -577.3208763599396, -723.5659242272377, -552.6674558520317, -432.9906572699547
 1.706387783585801E9, -564.8744893074036, -736.9697256684303, -556.257759809494, -460.5163209438324
 1.706387783585801E9, -458.8408457636833, -725.9594601988792, -555.5396990180016, -313.31385868787766
 1.7063877836015213E9, -536.3914112448692, -716.6246699094772, -546.6836159229279, -373.87031877040863
 1.7063877836015213E9, -599.1020537018776, -736.2516648769379, -553.14616304636, -476.5530119538307
