 Timestamp, EXG Channel 0, EXG Channel 1, EXG Channel 2, EXG Channel 3
 1.7075962026755037E9, -97.17756044864655, -495.9406533241272, -1715.9259380698204, -154.86177736520767
 1.7075962026755037E9, -120.15550577640533, -541.1784831881523, -1769.3017902374268, -171.61652916669846
 1.7075962026900904E9, -161.56367808580399, -595.2723961472511, -1841.8259301781654, -204.40797197818756
 1.7075962026900904E9, -112.97489786148071, -515.3282946944237, -1742.0154801607132, -170.18040758371353
 1.707596202704626E9, -100.5285108089447, -520.3547202348709, -1735.0742258429527, -163.47850686311722
 1.707596202704626E9, -147.20246225595474, -584.9801914691925, -1830.097603917122, -197.4667176604271
 1.7075962027053103E9, -124.70322412252426, -550.2739198803902, -1777.439812541008, -178.79713708162308
 1.7075962027053103E9, -85.20988059043884, -493.3077637553215, -1700.8466614484787, -141.6973295211792
 1.7075962027193165E9, -130.2083568572998, -562.480953335762, -1801.1358186602592, -178.79713708162308
 1.7075962027193165E9, -133.3199536204338, -563.6777213215828, -1809.5131945610046, -181.90873384475708
 1.7075962027510412E9, -89.99695253372192, -492.58970296382904, -1708.5059765577316, -144.56957268714905
 1.7075962027510412E9, -110.82071548700333, -532.3224000930786, -1758.5308783650398, -163.23915326595306
 1.70759620275172E9, -151.98953419923782, -587.6130810379982, -1840.8685157895088, -200.33896082639694
 1.70759620275172E9, -106.51235073804855, -515.0889410972595, -1740.1006513834, -161.08497089147568
 1.7075962027525513E9, -98.61368203163147, -516.0463554859161, -1730.0478003025055, -156.7766061425209
 1.7075962027525513E9, -148.63858383893967, -588.3311418294907, -1829.1401895284653, -194.8338280916214
 1.7075962027532315E9, -126.37869930267334, -542.6146047711372, -1778.6365805268288, -176.16424751281738
 1.7075962027532315E9, -86.64600217342377, -495.9406533241272, -1699.889247059822, -143.85151189565659
 1.7075962027638671E9, -132.60189282894135, -564.3957821130753, -1793.9552107453346, -178.55778348445892
 1.7075962027638671E9, -137.14961117506027, -563.1990141272545, -1807.8377193808556, -175.20683312416077
 1.7075962027789824E9, -88.560830950737, -494.9832389354706, -1703.000843822956, -137.62831836938858
 1.7075962027789824E9, -110.58136188983917, -535.9127040505409, -1756.1373423933983, -164.19656765460968
 1.7075962027948406E9, -150.5534126162529, -589.2885562181473, -1829.8582503199577, -195.3125352859497
 1.7075962027948406E9, -115.60778743028641, -521.3121346235275, -1742.2548337578773, -163.71786046028137
 1.707596202795442E9, -95.98079246282578, -510.5412227511406, -1724.54266756773, -152.94694858789444
 1.707596202795442E9, -146.48440146446228, -586.6556666493416, -1837.7569190263748, -198.18477845191956
 1.7075962028088715E9, -125.18193131685257, -549.5558590888977, -1781.7481772899628, -180.233258664608
 1.7075962028088715E9, -84.97052699327469, -494.7438853383064, -1707.3092085719109, -144.8089262843132
 1.7075962028246856E9, -128.05417448282242, -573.7305724024773, -1798.2635754942894, -180.7119658589363
 1.7075962028246856E9, -139.78250074386597, -570.8583292365074, -1807.3590121865273, -183.10550183057785
 1.707596202825337E9, -87.60341656208038, -495.70129972696304, -1705.6337333917618, -149.59599822759628
 1.707596202825337E9, -106.51235073804855, -535.6733504533768, -1755.65863519907, -163.23915326595306
 1.707596202838958E9, -148.87793743610382, -589.0492026209831, -1830.8156647086143, -193.15835291147232
 1.707596202838958E9, -105.07622915506363, -518.918598651886, -1738.9038833975792, -162.5210924744606
 1.707596202854838E9, -96.22014605998993, -515.3282946944237, -1733.3987506628036, -166.35075002908707
 1.707596202854838E9, -146.48440146446228, -592.1607993841171, -1839.9111014008522, -200.33896082639694
 1.7075962028553915E9, -123.74580973386765, -550.034566283226, -1786.5352492332458, -182.8661482334137
 1.7075962028553915E9, -83.77375900745392, -498.0948356986046, -1713.5324020981789, -153.1863021850586
 1.707596202868899E9, -129.49029606580734, -565.1138429045677, -1809.2738409638405, -188.37128096818924
 1.707596202868899E9, -141.6973295211792, -572.0550972223282, -1815.2576808929443, -194.8338280916214
 1.707596202884931E9, -87.36406296491623, -495.4619461297989, -1707.7879157662392, -150.5534126162529
 1.707596202884931E9, -112.0174834728241, -542.3752511739731, -1759.9669999480247, -168.7442860007286
 1.7075962028853693E9, -144.8089262843132, -584.7408378720284, -1832.9698470830917, -199.86025363206863
 1.7075962028853693E9, -111.29942268133163, -516.7644162774086, -1742.7335409522057, -164.43592125177383
 1.707596202899196E9, -98.85303562879562, -519.6366594433784, -1725.2607283592224, -157.01595973968506
 1.707596202899196E9, -140.02185434103012, -584.9801914691925, -1827.7040679454803, -197.4667176604271
 1.707596202914574E9, -124.22451692819595, -546.4442623257637, -1774.328215777874, -176.88230830430984
 1.707596202914574E9, -87.84277015924454, -494.7438853383064, -1706.8305013775826, -149.11729103326797
 1.7075962029152782E9, -132.60189282894135, -567.9860860705376, -1798.0242218971252, -184.30226981639862
 1.7075962029152782E9, -157.01595973968506, -590.0066170096397, -1823.1563495993614, -201.29637521505356
 1.7075962029291673E9, -94.54467087984085, -505.03609001636505, -1718.319474041462, -159.8882029056549
 1.7075962029291673E9, -104.11881476640701, -532.8011072874069, -1757.094756782055, -168.2655788064003
 1.7075962029446309E9, -139.5431471467018, -581.8685947060585, -1835.3633830547333, -204.88667917251587
 1.7075962029446309E9, -100.28915721178055, -522.7482562065125, -1733.3987506628036, -161.80303168296814
 1.7075962029452193E9, -95.26273167133331, -513.1741123199463, -1727.1755571365356, -157.49466693401337
 1.7075962029452193E9, -143.37280470132828, -588.0917882323265, -1828.1827751398087, -193.63706010580063
 1.7075962029588833E9, -116.32584822177887, -544.7687871456146, -1776.7217517495155, -173.29200434684753
 1.7075962029588833E9, -85.9279413819313, -505.03609001636505, -1708.7453301548958, -151.51082700490952
 1.7075962029746003E9, -130.2083568572998, -572.2944508194923, -1797.0668075084686, -186.93515938520432
 1.7075962029746003E9, -150.79276621341705, -582.1079483032227, -1823.3957031965256, -198.18477845191956
 1.7075962029752603E9, -92.86919569969177, -505.2754436135292, -1721.1917172074318, -158.69143491983414
 1.7075962029752603E9, -113.21425145864487, -548.5984447002411, -1764.0360110998154, -171.3771755695343
 1.7075962029889176E9, -158.45208132266998, -600.7775288820267, -1836.32079744339, -200.5783144235611
 1.7075962029889176E9, -118.95873779058456, -530.4075713157654, -1756.6160495877266, -173.29200434684753
 1.7075962030049362E9, -103.40075397491455, -526.3385601639748, -1737.7071154117584, -167.786871612072
 1.7075962030049362E9, -160.12755650281906, -608.1974903941154, -1844.4588197469711, -209.4343975186348
 1.707596203005201E9, -142.1760367155075, -569.4222076535225, -1795.1519787311554, -194.8338280916214
 1.707596203005201E9, -100.0498036146164, -516.7644162774086, -1715.447230875492, -157.49466693401337
 1.7075962030192804E9, -143.85151189565659, -585.9376058578491, -1810.4706089496613, -193.63706010580063
 1.7075962030192804E9, -153.42565578222275, -592.1607993841171, -1826.5072999596596, -196.74865686893463
 1.7075962030345888E9, -99.81045001745224, -502.40320044755936, -1718.558827638626, -162.76044607162476
 1.7075962030345888E9, -112.73554426431656, -542.6146047711372, -1765.2327790856361, -175.44618672132492
 1.707596203035433E9, -150.0747054219246, -589.5279098153114, -1838.4749798178673, -202.73249679803848
 1.707596203035433E9, -112.73554426431656, -529.9288641214371, -1751.8289776444435, -172.57394355535507
 1.7075962030488632E9, -102.68269318342209, -521.3121346235275, -1726.9362035393715, -159.4094957113266
 1.7075962030488632E9, -145.76634067296982, -588.3311418294907, -1830.336957514286, -196.26994967460632
 1.7075962030648456E9, -130.6870640516281, -556.257759809494, -1785.8171884417534, -178.07907629013062
 1.7075962030648456E9, -84.97052699327469, -501.6851396560669, -1704.9156726002693, -144.8089262843132
 1.7075962030653007E9, -131.16577124595642, -561.5235389471054, -1793.7158571481705, -182.8661482334137
 1.7075962030653007E9, -143.37280470132828, -573.9699259996414, -1813.103498518467, -187.89257377386093
 1.7075962030790708E9, -88.08212375640869, -496.65871411561966, -1707.0698549747467, -144.8089262843132
 1.7075962030790708E9, -105.07622915506363, -530.6469249129295, -1755.65863519907, -164.91462844610214
 1.7075962030950403E9, -142.1760367155075, -585.698252260685, -1828.9008359313011, -193.87641370296478
 1.7075962030950403E9, -95.98079246282578, -518.918598651886, -1734.8348722457886, -157.97337412834167
 1.7075962030953133E9, -94.06596368551254, -508.8657475709915, -1720.9523636102676, -152.22888779640198
 1.7075962030953133E9, -138.82508635520935, -578.5176443457603, -1825.7892391681671, -187.65322017669678
 1.7075962031091547E9, -120.39485937356949, -544.0507263541222, -1768.8230830430984, -167.06881082057953
 1.7075962031091547E9, -76.83250468969345, -494.5045317411423, -1698.4531254768372, -137.38896477222443
 1.7075962031246307E9, -122.78839534521103, -561.7628925442696, -1796.5881003141403, -181.66938024759293
 1.7075962031246307E9, -129.96900326013565, -571.815743625164, -1802.33258664608, -178.55778348445892
 1.7075962031253314E9, -87.36406296491623, -502.88190764188766, -1706.11244058609, -143.37280470132828
 1.7075962031253314E9, -102.44333958625793, -526.3385601639748, -1747.0419057011604, -159.4094957113266
 1.7075962031392412E9, -135.71348959207535, -583.7834234833717, -1818.8479848504066, -186.93515938520432
 1.7075962031392412E9, -107.23041152954102, -520.8334274291992, -1738.664529800415, -158.69143491983414
 1.7075962031546352E9, -90.95436692237854, -513.1741123199463, -1726.218142747879, -151.51082700490952
 1.7075962031546352E9, -133.08060002326965, -582.1079483032227, -1820.7628136277199, -186.456452190876
 1.7075962031553085E9, -114.88972663879395, -537.58817923069, -1770.0198510289192, -161.56367808580399
 1.7075962031553085E9, -79.94410145282745, -491.6322885751724, -1697.4957110881805, -138.5857327580452
 1.707596203168896E9, -120.39485937356949, -551.7100414633751, -1786.77460283041, -176.88230830430984
 1.707596203168896E9, -133.55930721759796, -563.1990141272545, -1814.5396201014519, -184.78097701072693
 1.707596203185092E9, -84.73117339611053, -498.0948356986046, -1709.7027445435524, -143.13345110416412
 1.707596203185092E9, -102.68269318342209, -532.0830464959145, -1760.9244143366814, -166.59010362625122
 1.7075962031854887E9, -145.2876334786415, -589.5279098153114, -1836.560151040554, -196.74865686893463
 1.7075962031854887E9, -100.76786440610886, -523.9450241923332, -1735.7922866344452, -159.4094957113266
 1.707596203199188E9, -88.560830950737, -503.8393220305443, -1715.6865844726562, -146.24504786729813
 1.707596203199188E9, -138.34637916088104, -587.373727440834, -1825.549885571003, -192.2009385228157
 1.7075962032148497E9, -120.8735665678978, -541.1784831881523, -1774.5675693750381, -171.13782197237015
 1.7075962032148497E9, -73.9602615237236, -485.8878022432327, -1696.538296699524, -134.75607520341873
 1.7075962032154922E9, -126.13934570550919, -562.480953335762, -1795.1519787311554, -177.36101549863815
 1.7075962032154922E9, -138.5857327580452, -569.9009148478508, -1813.5822057127953, -185.25968420505524
 1.707596203228879E9, -91.91178131103516, -494.02582454681396, -1713.771755695343, -148.63858383893967
 1.707596203228879E9, -103.6401075720787, -532.3224000930786, -1764.5147182941437, -169.22299319505692
 1.7075962032446134E9, -149.35664463043213, -598.3839929103851, -1838.2356262207031, -201.0570216178894
 1.7075962032446134E9, -109.86330109834671, -527.5353281497955, -1749.6747952699661, -171.13782197237015
 1.7075962032453098E9, -99.09238922595978, -515.3282946944237, -1732.441336274147, -163.95721405744553
 1.7075962032453098E9, -151.0321198105812, -595.2723961472511, -1837.5175654292107, -202.01443600654602
 1.7075962032590995E9, -132.8412464261055, -565.8319036960602, -1798.0242218971252, -193.87641370296478
 1.7075962032590995E9, -95.74143886566162, -508.3870403766632, -1728.6116787195206, -163.95721405744553
 1.7075962032746356E9, -137.38896477222443, -573.251865208149, -1815.7363880872726, -200.0996072292328
 1.7075962032746356E9, -148.87793743610382, -578.9963515400887, -1829.8582503199577, -202.73249679803848
 1.707596203275274E9, -95.98079246282578, -513.1741123199463, -1730.5265074968338, -163.95721405744553
 1.707596203275274E9, -99.81045001745224, -531.8436928987503, -1756.6160495877266, -170.898468375206
 1.7075962033053937E9, -146.24504786729813, -585.698252260685, -1836.560151040554, -200.5783144235611
 1.7075962033053937E9, -108.9058867096901, -519.1579522490501, -1747.5206128954887, -171.3771755695343
 1.707596203305836E9, -101.00721800327301, -515.3282946944237, -1731.9626290798187, -162.5210924744606
 1.707596203305836E9, -143.61215829849243, -588.809849023819, -1832.0124326944351, -199.86025363206863
 1.707596203320142E9, -129.96900326013565, -556.0184062123299, -1787.2533100247383, -182.8661482334137
 1.707596203320142E9, -95.26273167133331, -504.55738282203674, -1713.0536949038506, -152.94694858789444
 1.707596203320439E9, -133.08060002326965, -564.3957821130753, -1799.9390506744385, -185.02033060789108
 1.707596203320439E9, -144.3302190899849, -576.363461971283, -1815.4970344901085, -188.37128096818924
 1.707596203335349E9, -94.06596368551254, -504.3180292248726, -1709.9420981407166, -151.0321198105812
 1.707596203335349E9, -107.23041152954102, -532.3224000930786, -1760.6850607395172, -168.2655788064003
 1.7075962033496158E9, -148.3992302417755, -586.6556666493416, -1836.560151040554, -196.74865686893463
 1.7075962033496158E9, -101.72527879476547, -518.918598651886, -1746.0844913125038, -163.71786046028137
 1.7075962033503244E9, -100.5285108089447, -518.4398914575577, -1732.441336274147, -161.08497089147568
 1.7075962033503244E9, -152.46824139356613, -595.7511033415794, -1838.4749798178673, -201.5357288122177
 1.707596203364758E9, -131.88383203744888, -556.0184062123299, -1790.3649067878723, -178.55778348445892
 1.707596203364758E9, -91.91178131103516, -500.0096644759178, -1714.4898164868355, -152.46824139356613
 1.7075962033652644E9, -131.16577124595642, -562.2415997385979, -1797.545514702797, -182.14808744192123
 1.7075962033652644E9, -153.1863021850586, -581.3898875117302, -1814.3002665042877, -189.32869535684586
 1.707596203378989E9, -107.70911872386932, -513.6528195142746, -1720.4736564159393, -158.21272772550583
 1.707596203378989E9, -115.60778743028641, -546.4442623257637, -1759.7276463508606, -170.18040758371353
 1.7075962033953052E9, -171.13782197237015, -604.367832839489, -1848.5278308987617, -210.15245831012726
 1.7075962033953052E9, -132.12318563461304, -545.9655551314354, -1769.0624366402626, -182.8661482334137
 1.7075962033953426E9, -117.04390901327133, -536.3914112448692, -1739.1432369947433, -164.675274848938
 1.7075962033953426E9, -168.7442860007286, -605.0858936309814, -1842.783344566822, -200.0996072292328
 1.707596203408917E9, -164.43592125177383, -590.2459706068039, -1818.6086312532425, -203.6899111866951
 1.707596203408917E9, -120.63421297073364, -526.5779137611389, -1730.0478003025055, -161.08497089147568
 1.707596203424553E9, -177.6003690958023, -607.0007224082947, -1834.884675860405, -208.9556903243065
 1.707596203424553E9, -188.37128096818924, -620.6438774466515, -1850.2033060789108, -214.70017665624619
 1.7075962034253416E9, -144.3302190899849, -556.257759809494, -1758.770231962204, -180.7119658589363
 1.7075962034253416E9, -157.2553133368492, -577.0815227627754, -1798.0242218971252, -191.48287773132324
 1.7075962034390576E9, -205.12603276968002, -649.6056627035141, -1869.112240254879, -219.2478950023651
 1.7075962034390576E9, -161.80303168296814, -584.9801914691925, -1787.9713708162308, -186.93515938520432
 1.707596203454654E9, -144.56957268714905, -559.1300029754639, -1761.6424751281738, -179.99390506744385
 1.707596203454654E9, -202.73249679803848, -643.3824691772461, -1874.1386657953262, -230.2581604719162
 1.7075962034553072E9, -182.14808744192123, -599.1020537018776, -1829.3795431256294, -207.51956874132156
 1.7075962034553072E9, -137.14961117506027, -542.1358975768089, -1748.9567344784737, -175.68554031848907
 1.7075962034688995E9, -177.36101549863815, -612.2665015459061, -1836.0814438462257, -210.63116550445557
 1.7075962034688995E9, -183.8235626220703, -626.3883637785912, -1857.3839139938354, -218.7691878080368
 1.707596203484857E9, -139.5431471467018, -547.1623231172562, -1752.0683312416077, -180.47261226177216
 1.707596203484857E9, -150.31405901908875, -584.2621306777, -1797.0668075084686, -198.18477845191956
 1.707596203485505E9, -188.13192737102509, -627.1064245700836, -1872.9418978095055, -223.55625975131989
 1.707596203485505E9, -150.31405901908875, -569.9009148478508, -1782.4662380814552, -194.3551208972931
 1.7075962034993052E9, -132.8412464261055, -555.5396990180016, -1762.5998895168304, -184.06291621923447
 1.7075962034993052E9, -186.21709859371185, -629.260606944561, -1865.0432291030884, -224.5136741399765
 1.707596203514778E9, -165.6326892375946, -595.5117497444153, -1824.3531175851822, -207.04086154699326
 1.707596203514778E9, -123.9851633310318, -536.8701184391975, -1742.4941873550415, -174.4887723326683
 1.7075962035153053E9, -168.98363959789276, -601.256236076355, -1834.1666150689125, -211.34922629594803
 1.7075962035153053E9, -174.4887723326683, -608.6761975884438, -1850.442659676075, -208.9556903243065
 1.707596203528855E9, -136.19219678640366, -546.2049087285995, -1758.770231962204, -184.54162341356277
 1.707596203528855E9, -151.27147340774536, -577.0815227627754, -1788.6894316077232, -192.2009385228157
 1.707596203544756E9, -187.41386657953262, -629.9786677360535, -1864.56452190876, -218.7691878080368
 1.707596203544756E9, -145.04827988147736, -560.805478155613, -1778.1578733325005, -181.90873384475708
 1.7075962035453095E9, -133.08060002326965, -544.5294335484505, -1757.5734639763832, -172.33458995819092
 1.7075962035453095E9, -176.40360110998154, -613.9419767260551, -1857.6232675909996, -217.09371262788773
 1.7075962035590973E9, -157.97337412834167, -580.4324731230736, -1810.4706089496613, -198.18477845191956
 1.7075962035590973E9, -122.07033455371857, -526.5779137611389, -1735.7922866344452, -170.18040758371353
 1.7075962035745792E9, -161.80303168296814, -589.2885562181473, -1819.8053992390633, -197.22736406326294
 1.7075962035745792E9, -185.02033060789108, -608.4368439912796, -1847.331062912941, -209.19504392147064
 1.707596203575253E9, -131.64447844028473, -532.0830464959145, -1745.3664305210114, -167.30816441774368
 1.707596203575253E9, -144.09086549282074, -571.3370364308357, -1786.5352492332458, -187.65322017669678
 1.7075962035889032E9, -186.69580578804016, -630.6967285275459, -1864.8038755059242, -224.0349669456482
 1.7075962035889032E9, -145.2876334786415, -557.2151741981506, -1780.0727021098137, -187.89257377386093
 1.7075962036049137E9, -129.2509424686432, -550.034566283226, -1756.3766959905624, -179.51519787311554
 1.7075962036049137E9, -177.36101549863815, -618.7290486693382, -1853.554256439209, -209.19504392147064
 1.7075962036053195E9, -164.43592125177383, -588.0917882323265, -1814.5396201014519, -200.0996072292328
 1.7075962036053195E9, -119.67679858207703, -529.6895105242729, -1735.0742258429527, -168.7442860007286
 1.7075962036192484E9, -154.62242376804352, -587.1343738436699, -1821.4808744192123, -195.3125352859497
 1.7075962036192484E9, -168.7442860007286, -596.708517730236, -1840.1504549980164, -204.88667917251587
 1.707596203634602E9, -118.2406769990921, -528.9714497327805, -1743.212248146534, -168.50493240356445
 1.707596203634602E9, -136.91025757789612, -558.1725885868073, -1780.7907629013062, -185.25968420505524
 1.7075962036353178E9, -176.88230830430984, -617.7716342806816, -1859.5380963683128, -211.82793349027634
 1.7075962036353178E9, -138.1070255637169, -552.6674558520317, -1777.439812541008, -186.69580578804016
 1.7075962036490717E9, -118.00132340192795, -533.5191680788994, -1753.2650992274284, -168.7442860007286
 1.7075962036490717E9, -173.77071154117584, -610.8303799629211, -1860.4955107569695, -216.85435903072357
 1.707596203663979E9, -152.94694858789444, -583.0653626918793, -1813.8215593099594, -198.4241320490837
 1.707596203663979E9, -111.29942268133163, -525.8598529696465, -1729.5690931081772, -159.64884930849075
 1.7075962036796167E9, -178.55778348445892, -610.8303799629211, -1856.665853202343, -224.5136741399765
 1.7075962036796167E9, -126.37869930267334, -542.6146047711372, -1749.6747952699661, -174.9674795269966
 1.7075962036802962E9, -138.5857327580452, -561.2841853499413, -1781.7481772899628, -176.88230830430984
 1.7075962036802962E9, -180.95131945610046, -609.8729655742645, -1853.3149028420448, -200.0996072292328
 1.7075962036938643E9, -142.1760367155075, -556.0184062123299, -1761.6424751281738, -157.73402053117752
 1.7075962036938643E9, -128.05417448282242, -528.4927425384521, -1732.2019826769829, -139.30379354953766
 1.707596203709897E9, -177.83972269296646, -600.5381752848625, -1828.4221287369728, -179.03649067878723
 1.707596203709897E9, -162.9997996687889, -566.3106108903885, -1790.8436139822006, -162.0423852801323
 1.7075962037104423E9, -119.19809138774872, -505.7541508078575, -1707.3092085719109, -122.54904174804688
 1.7075962037104423E9, -154.86177736520767, -571.815743625164, -1789.4074923992157, -151.98953419923782
 1.7075962037240322E9, -169.70170038938522, -584.9801914691925, -1813.5822057127953, -166.82945722341537
 1.7075962037240322E9, -125.89999210834503, -511.9773443341255, -1713.771755695343, -130.44771045446396
 1.7075962037398064E9, -134.27736800909042, -544.0507263541222, -1754.7012208104134, -145.2876334786415
 1.7075962037398064E9, -177.36101549863815, -607.9581367969513, -1841.107869386673, -180.233258664608
 1.7075962037404168E9, -143.61215829849243, -545.4868479371071, -1756.6160495877266, -149.35664463043213
 1.7075962037404168E9, -133.3199536204338, -532.8011072874069, -1731.005214691162, -142.41539031267166
 1.707596203753918E9, -174.72812592983246, -601.9742968678474, -1832.4911398887634, -182.3874410390854
 1.707596203753918E9, -159.17014211416245, -569.6615612506866, -1792.997796356678, -166.1113964319229
 1.7075962037696168E9, -122.30968815088272, -519.1579522490501, -1721.9097779989243, -142.65474390983582
 1.7075962037696168E9, -153.90436297655106, -580.4324731230736, -1796.8274539113045, -169.22299319505692
 1.7075962037703078E9, -178.07907629013062, -592.8788601756096, -1825.549885571003, -180.7119658589363
 1.7075962037703078E9, -126.37869930267334, -522.9876098036766, -1716.883352458477, -135.9528431892395
 1.7075962037842877E9, -143.85151189565659, -548.8377982974052, -1756.8554031848907, -154.38307017087936
 1.7075962037842877E9, -179.51519787311554, -607.479429602623, -1837.5175654292107, -183.10550183057785
 1.7075962037995856E9, -145.2876334786415, -540.9391295909882, -1753.7438064217567, -150.0747054219246
 1.7075962037995856E9, -129.7296496629715, -534.476582467556, -1735.552933037281, -147.4418158531189
 1.7075962038003361E9, -177.83972269296646, -599.5807608962059, -1830.336957514286, -180.7119658589363
 1.7075962038003361E9, -165.1539820432663, -574.4486331939697, -1790.1255531907082, -166.35075002908707
 1.7075962038138702E9, -116.08649462461472, -511.0199299454689, -1713.771755695343, -137.86767196655273
 1.7075962038138702E9, -158.21272772550583, -577.0815227627754, -1797.784868299961, -174.4887723326683
 1.70759620382981E9, -166.1113964319229, -585.2195450663567, -1817.89057046175, -178.31842988729477
 1.70759620382981E9, -111.06006908416748, -516.5250626802444, -1712.8143413066864, -133.79866081476212
 1.7075962038303716E9, -132.12318563461304, -545.7262015342712, -1760.445707142353, -148.15987664461136
 1.7075962038303716E9, -192.91899931430817, -609.3942583799362, -1844.219466149807, -190.52546334266663
 1.7075962038606524E9, -159.17014211416245, -559.6087101697922, -1772.652740597725, -175.20683312416077
 1.7075962038606524E9, -101.00721800327301, -500.24901807308197, -1713.0536949038506, -136.4315503835678
 1.7075962038611658E9, -150.79276621341705, -571.5763900279999, -1807.119658589363, -173.29200434684753
 1.7075962038611658E9, -122.07033455371857, -537.1094720363617, -1775.764337360859, -159.17014211416245
 1.7075962038618736E9, -81.61957663297653, -479.1859015226364, -1686.9641528129578, -122.78839534521103
 1.7075962038618736E9, -106.2729971408844, -538.7849472165108, -1777.9185197353363, -157.49466693401337
 1.7075962038742516E9, -116.80455541610718, -544.5294335484505, -1787.2533100247383, -157.97337412834167
 1.7075962038742516E9, -78.74733346700668, -482.7762054800987, -1695.3415287137032, -133.3199536204338
 1.7075962038905032E9, -86.16729497909546, -509.3444547653198, -1739.3825905919075, -152.22888779640198
 1.7075962038905032E9, -127.33611369132996, -561.7628925442696, -1820.0447528362274, -184.06291621923447
 1.70759620390459E9, -83.53440541028976, -507.9083331823349, -1740.1006513834, -157.49466693401337
 1.70759620390459E9, -68.45512878894806, -486.84521663188934, -1710.4208053350449, -141.6973295211792
 1.7075962039053104E9, -115.60778743028641, -553.8642238378525, -1809.2738409638405, -179.03649067878723
 1.7075962039053104E9, -107.23041152954102, -531.8436928987503, -1774.0888621807098, -169.46234679222107
 1.7075962039195957E9, -65.82223922014236, -489.95681339502335, -1700.6073078513145, -141.2186223268509
 1.7075962039195957E9, -100.0498036146164, -539.0243008136749, -1777.439812541008, -171.13782197237015
 1.7075962039202783E9, -118.95873779058456, -556.0184062123299, -1801.8538794517517, -182.3874410390854
 1.7075962039202783E9, -72.28478634357452, -483.4942662715912, -1711.8569269180298, -143.61215829849243
 1.7075962039341838E9, -84.97052699327469, -517.2431234717369, -1746.5631985068321, -158.45208132266998
 1.7075962039341838E9, -129.2509424686432, -570.140268445015, -1825.0711783766747, -193.87641370296478
 1.7075962039497757E9, -89.75759893655777, -511.25928354263306, -1742.7335409522057, -162.0423852801323
 1.7075962039497757E9, -74.67832231521606, -491.6322885751724, -1717.1227060556412, -153.1863021850586
 1.7075962039504435E9, -128.29352807998657, -565.8319036960602, -1815.9757416844368, -193.63706010580063
 1.7075962039504435E9, -117.04390901327133, -545.4868479371071, -1785.338481247425, -178.55778348445892
 1.7075962039641016E9, -78.98668706417084, -497.85548210144043, -1706.5911477804184, -149.59599822759628
 1.7075962039641016E9, -110.82071548700333, -545.2474943399429, -1779.8333485126495, -169.94105398654938
 1.70759620397958E9, -136.91025757789612, -579.7144123315811, -1818.1299240589142, -194.3551208972931
 1.70759620397958E9, -95.02337807416916, -505.51479721069336, -1723.5852531790733, -158.9307885169983
 1.7075962039803803E9, -100.0498036146164, -531.364985704422, -1751.110916852951, -161.80303168296814
 1.7075962039803803E9, -142.1760367155075, -593.1182137727737, -1826.7466535568237, -190.52546334266663
 1.7075962039943857E9, -105.31558275222778, -522.9876098036766, -1748.9567344784737, -162.9997996687889
 1.7075962039943857E9, -91.43307411670685, -507.4296259880066, -1725.7394355535507, -156.05854535102844
 1.707596204009915E9, -133.08060002326965, -576.363461971283, -1827.4647143483162, -195.07318168878555
 1.707596204009915E9, -122.07033455371857, -550.2739198803902, -1788.210724413395, -179.03649067878723
 1.7075962040104072E9, -84.97052699327469, -491.39293497800827, -1712.096280515194, -152.46824139356613
 1.7075962040104072E9, -114.65037304162979, -551.2313342690468, -1785.099127650261, -178.31842988729477
 1.7075962040403173E9, -136.67090398073196, -572.5338044166565, -1818.3692776560783, -195.07318168878555
 1.7075962040403173E9, -90.47565972805023, -500.4883716702461, -1719.5162420272827, -153.6650093793869
 1.7075962040410087E9, -105.55493634939194, -530.8862785100937, -1756.1373423933983, -166.35075002908707
 1.7075962040410087E9, -143.85151189565659, -582.586655497551, -1834.1666150689125, -206.8015079498291
 1.7075962040417817E9, -101.72527879476547, -520.5940738320351, -1749.1960880756378, -167.54751801490784
 1.7075962040417817E9, -87.36406296491623, -512.4560515284538, -1720.4736564159393, -155.8191917538643
 1.7075962040542393E9, -135.9528431892395, -582.8260090947151, -1819.0873384475708, -194.8338280916214
 1.7075962040542393E9, -119.19809138774872, -548.8377982974052, -1781.987530887127, -170.65911477804184
 1.7075962040699556E9, -97.17756044864655, -509.82316195964813, -1712.5749877095222, -152.94694858789444
 1.7075962040699556E9, -127.81482088565826, -569.9009148478508, -1802.5719402432442, -192.44029211997986
 1.7075962040704997E9, -123.9851633310318, -567.5073788762093, -1809.5131945610046, -182.62679463624954
 1.7075962040704997E9, -88.560830950737, -508.14768677949905, -1725.5000819563866, -161.56367808580399
 1.70759620408409E9, -101.72527879476547, -535.4339968562126, -1763.7966575026512, -176.6429547071457
 1.70759620408409E9, -142.89409750699997, -586.4163130521774, -1842.783344566822, -208.71633672714233
 1.70759620410011E9, -105.07622915506363, -533.2798144817352, -1763.317950308323, -178.07907629013062
 1.70759620410011E9, -90.23630613088608, -517.2431234717369, -1724.0639603734016, -155.8191917538643
 1.7075962041004672E9, -139.5431471467018, -595.5117497444153, -1827.4647143483162, -202.73249679803848
 1.7075962041004672E9, -129.49029606580734, -560.0874173641205, -1796.8274539113045, -194.3551208972931
 1.707596204113872E9, -91.1937205195427, -502.6425540447235, -1718.558827638626, -162.28173887729645
 1.707596204113872E9, -126.6180528998375, -556.257759809494, -1793.4765035510063, -186.21709859371185
 1.7075962041297565E9, -143.13345110416412, -579.475058734417, -1822.438288807869, -193.87641370296478
 1.7075962041297565E9, -89.27889174222946, -506.2328580021858, -1721.431070804596, -154.86177736520767
 1.7075962041304765E9, -96.22014605998993, -528.0140353441238, -1750.1535024642944, -165.6326892375946
 1.7075962041304765E9, -145.76634067296982, -587.6130810379982, -1833.209200680256, -205.36538636684418
 1.707596204144122E9, -104.83687555789948, -525.3811457753181, -1753.2650992274284, -170.898468375206
 1.707596204144122E9, -93.10854929685593, -513.6528195142746, -1735.0742258429527, -168.2655788064003
 1.7075962041598237E9, -136.19219678640366, -582.1079483032227, -1825.549885571003, -196.03059607744217
 1.7075962041598237E9, -118.48003059625626, -553.3855166435242, -1790.3649067878723, -183.10550183057785
 1.7075962041603744E9, -76.5931510925293, -501.6851396560669, -1711.8569269180298, -148.3992302417755
 1.7075962041603744E9, -110.82071548700333, -552.4281022548676, -1783.663006067276, -180.233258664608
 1.707596204174056E9, -129.49029606580734, -580.4324731230736, -1822.677642405033, -194.3551208972931
 1.707596204174056E9, -85.9279413819313, -506.9509187936783, -1722.1491315960884, -160.36691009998322
 1.7075962041896553E9, -101.24657160043716, -546.2049087285995, -1757.334110379219, -172.33458995819092
 1.7075962041896553E9, -144.3302190899849, -594.0756281614304, -1835.6027366518974, -203.2112039923668
 1.7075962041903565E9, -110.58136188983917, -537.58817923069, -1755.65863519907, -172.09523636102676
 1.7075962041903565E9, -89.75759893655777, -512.9347587227821, -1723.8246067762375, -159.8882029056549
 1.707596204204183E9, -138.1070255637169, -593.596920967102, -1824.8318247795105, -202.73249679803848
 1.707596204204183E9, -126.37869930267334, -561.0448317527771, -1801.6145258545876, -191.2435241341591
 1.707596204219973E9, -84.97052699327469, -506.47221159935, -1712.8143413066864, -158.45208132266998
 1.707596204219973E9, -117.28326261043549, -559.1300029754639, -1792.0403819680214, -182.14808744192123
 1.7075962042205167E9, -148.63858383893967, -588.809849023819, -1829.8582503199577, -200.81766802072525
 1.7075962042205167E9, -98.37432843446732, -511.73799073696136, -1725.9787891507149, -158.45208132266998
 1.7075962042339635E9, -102.44333958625793, -528.4927425384521, -1755.4192816019058, -170.41976118087769
 1.7075962042339635E9, -148.63858383893967, -597.1872249245644, -1836.32079744339, -206.8015079498291
 1.7075962042496936E9, -110.58136188983917, -527.5353281497955, -1753.5044528245926, -168.7442860007286
 1.7075962042496936E9, -97.65626764297485, -520.1153666377068, -1732.2019826769829, -160.60626369714737
 1.7075962042503867E9, -140.73991513252258, -590.9640313982964, -1826.9860071539879, -201.5357288122177
 1.7075962042503867E9, -130.2083568572998, -554.1035774350166, -1798.0242218971252, -185.4990378022194
 1.7075962042639344E9, -82.8163446187973, -498.81289649009705, -1714.0111092925072, -153.6650093793869
 1.7075962042639344E9, -118.00132340192795, -559.8480637669563, -1788.9287852048874, -180.47261226177216
 1.7075962042799168E9, -130.44771045446396, -572.2944508194923, -1814.3002665042877, -190.76481693983078
 1.7075962042799168E9, -93.34790289402008, -516.0463554859161, -1725.2607283592224, -158.69143491983414
 1.7075962042803876E9, -98.37432843446732, -532.3224000930786, -1754.7012208104134, -166.1113964319229
 1.7075962042803876E9, -157.73402053117752, -597.1872249245644, -1848.767184495926, -204.88667917251587
 1.7075962042939844E9, -109.86330109834671, -531.8436928987503, -1760.445707142353, -165.87204283475876
 1.7075962042939844E9, -92.86919569969177, -509.583808362484, -1728.3723251223564, -151.0321198105812
 1.707596204309908E9, -143.85151189565659, -588.3311418294907, -1827.7040679454803, -195.07318168878555
 1.707596204309908E9, -134.03801441192627, -557.6938813924789, -1797.545514702797, -182.14808744192123
 1.7075962043103635E9, -92.15113490819931, -505.99350440502167, -1721.67042440176, -153.1863021850586
 1.7075962043103635E9, -128.05417448282242, -560.805478155613, -1795.3913323283195, -185.02033060789108
 1.7075962043241596E9, -145.76634067296982, -579.9537659287453, -1831.2943719029427, -201.0570216178894
 1.7075962043241596E9, -101.24657160043716, -505.7541508078575, -1732.2019826769829, -161.56367808580399
 1.707596204339631E9, -111.29942268133163, -535.6733504533768, -1763.0785967111588, -174.72812592983246
 1.707596204339631E9, -156.7766061425209, -604.1284792423248, -1847.0917093157768, -208.9556903243065
 1.7075962043404584E9, -115.84714102745056, -538.7849472165108, -1763.557303905487, -172.33458995819092
 1.7075962043404584E9, -100.5285108089447, -521.7908418178558, -1735.0742258429527, -166.1113964319229
 1.7075962043539467E9, -150.79276621341705, -589.2885562181473, -1834.4059686660767, -203.6899111866951
 1.7075962043539467E9, -132.8412464261055, -561.0448317527771, -1801.1358186602592, -186.456452190876
 1.7075962043699508E9, -85.20988059043884, -500.96707886457443, -1719.7555956244469, -153.1863021850586
 1.7075962043699508E9, -124.46387052536011, -560.0874173641205, -1789.4074923992157, -181.19067305326462
 1.7075962043704898E9, -145.52698707580566, -584.2621306777, -1820.0447528362274, -191.48287773132324
 1.7075962043704898E9, -91.672427713871, -507.4296259880066, -1719.0375348329544, -151.0321198105812
 1.7075962043841348E9, -100.0498036146164, -516.7644162774086, -1748.9567344784737, -161.08497089147568
 1.7075962043841348E9, -143.85151189565659, -590.2459706068039, -1833.9272614717484, -196.50930327177048
 1.7075962043999314E9, -115.60778743028641, -532.8011072874069, -1756.8554031848907, -169.94105398654938
 1.7075962043999314E9, -99.33174282312393, -516.7644162774086, -1724.0639603734016, -148.63858383893967
 1.7075962044005408E9, -133.79866081476212, -571.3370364308357, -1818.6086312532425, -184.78097701072693
 1.7075962044005408E9, -124.70322412252426, -557.2151741981506, -1791.8010283708572, -178.55778348445892
 1.7075962044141243E9, -89.27889174222946, -498.5735428929329, -1706.11244058609, -145.2876334786415
 1.7075962044141243E9, -119.91615217924118, -554.1035774350166, -1786.2958956360817, -174.4887723326683
 1.7075962044296515E9, -165.6326892375946, -598.144639313221, -1837.7569190263748, -210.63116550445557
 1.7075962044296515E9, -78.02927267551422, -486.1271558403969, -1704.6763190031052, -133.55930721759796
 1.7075962044304445E9, -61.51387447118759, -481.10073029994965, -1709.9420981407166, -122.78839534521103
 1.7075962044304445E9, -106.51235073804855, -539.5030080080032, -1786.0565420389175, -156.05854535102844
 1.7075962044604964E9, -50.503609001636505, -459.3195529580116, -1693.42669993639, -107.70911872386932
 1.7075962044604964E9, -10.292204678058624, -407.3798223733902, -1641.0082621574402, -82.337637424469
 1.7075962044609787E9, -39.01463633775711, -455.01118820905685, -1724.782021164894, -101.48592519760132
 1.7075962044609787E9, -4.308364748954773, -407.3798223733902, -1673.5603513717651, -71.32737195491791
 1.7075962044616683E9, 56.2480953335762, -329.58990329504013, -1576.861498117447, -22.49923813343048
 1.7075962044616683E9, 36.860453963279724, -373.3916115760803, -1642.9230909347534, -44.99847626686096
 1.7075962044739025E9, 16.994105398654938, -380.57221949100494, -1661.3533179163933, -48.34942662715912
 1.7075962044739025E9, 82.337637424469, -291.0539741516113, -1548.1390664577484, 4.547718346118927
 1.707596204489952E9, 78.74733346700668, -308.7661403417587, -1573.2711941599846, -3.829657554626465
 1.707596204489952E9, 48.82813382148743, -361.4239317178726, -1650.5824060440063, -29.919199645519257
 1.707596204490327E9, 99.57109642028809, -286.74560940265656, -1559.6280391216278, 15.557983815670013
 1.707596204490327E9, 118.00132340192795, -258.5018849372864, -1526.8365963101387, 28.722431659698486
 1.7075962045043015E9, 73.4815543293953, -321.9305881857872, -1626.647046327591, -12.685740649700165
 1.7075962045043015E9, 91.1937205195427, -297.9952284693718, -1588.3504707813263, 7.180607914924622
 1.7075962045201285E9, 132.8412464261055, -233.13040363788605, -1514.1508556604385, 37.09980756044388
 1.7075962045201285E9, 105.07622915506363, -296.08039969205856, -1589.0685315728188, 5.983839929103851
 1.7075962045203967E9, 85.9279413819313, -316.90416264533997, -1612.0464769005775, 1.6754751801490784
 1.7075962045203967E9, 130.6870640516281, -241.26842594146729, -1514.868916451931, 34.70627158880234
 1.707596204533913E9, 118.2406769990921, -273.3418079614639, -1551.7293704152107, 20.10570216178894
 1.707596204533913E9, 73.72090792655945, -329.350549697876, -1634.0670078396797, -15.079276621341705
 1.7075962045497108E9, 102.68269318342209, -288.89979177713394, -1562.5002822875977, 8.8560830950737
 1.7075962045497108E9, 112.0174834728241, -258.74123853445053, -1526.3578891158104, 26.5682492852211
 1.7075962045503263E9, 68.45512878894806, -331.98343926668167, -1625.6896319389343, -16.51539820432663
 1.7075962045503263E9, 76.5931510925293, -320.9731737971306, -1601.5149186253548, -4.547718346118927
 1.7075962045639143E9, 117.7619698047638, -257.7838241457939, -1517.7411596179008, 31.115967631340027
 1.7075962045639143E9, 73.72090792655945, -320.4944666028023, -1602.7116866111755, -5.983839929103851
 1.7075962045796256E9, 63.66805684566498, -338.685339987278, -1623.535449564457, -6.7019007205963135
 1.7075962045796256E9, 95.74143886566162, -279.8043550848961, -1542.1552265286446, 16.03669100999832
 1.7075962045803196E9, 94.784024477005, -295.60169249773026, -1566.8086470365524, 5.505132734775543
 1.7075962045803196E9, 42.36558669805527, -362.86005330085754, -1657.2843067646027, -37.33916115760803
 1.7075962045943236E9, 80.18345504999161, -302.7823004126549, -1576.6221445202827, -1.4361215829849243
 1.7075962045943236E9, 87.36406296491623, -289.1391453742981, -1552.208077609539, 3.829657554626465
 1.7075962046099029E9, 44.75912266969681, -360.70587092638016, -1645.0772733092308, -31.83402842283249
 1.7075962046099029E9, 45.47718346118927, -345.3872407078743, -1624.2535103559494, -25.610834896564484
 1.7075962046105149E9, 77.31121188402176, -297.75587487220764, -1549.5751880407333, -1.9148287773132324
 1.7075962046105149E9, 39.253989934921265, -355.6794453859329, -1630.7160574793816, -36.62110036611557
 1.7075962046240304E9, 24.17471331357956, -377.6999763250351, -1661.5926715135574, -44.99847626686096
 1.7075962046240304E9, 56.966156125068665, -312.83515149354935, -1567.0480006337166, -11.010265469551086
 1.7075962046396708E9, 53.85455936193466, -334.61632883548737, -1580.212448477745, -8.8560830950737
 1.7075962046396708E9, -5.983839929103851, -406.66176158189774, -1680.2622520923615, -56.72680252790451
 1.7075962046403384E9, 28.243724465370178, -354.48267740011215, -1602.9510402083397, -23.456652522087097
 1.7075962046403384E9, 48.82813382148743, -328.39313530921936, -1577.8189125061035, -15.797337412834167
 1.7075962046542041E9, -4.308364748954773, -412.40624791383743, -1683.8525560498238, -73.00284713506699
 1.7075962046542041E9, 8.616729497909546, -386.0773522257805, -1658.7204283475876, -51.93973058462143
 1.7075962046694167E9, 49.06748741865158, -323.12735617160797, -1567.2873542308807, -13.643155038356781
 1.7075962046694167E9, 1.9148287773132324, -397.3269712924957, -1657.763013958931, -61.03516727685928
 1.7075962046848042E9, 18.430226981639862, -355.9187989830971, -1602.7116866111755, -39.253989934921265
 1.7075962046848042E9, -1.4361215829849243, -391.58248496055603, -1626.4076927304268, -53.375852167606354
 1.7075962046855223E9, -52.17908418178558, -459.3195529580116, -1724.0639603734016, -90.95436692237854
 1.7075962046855223E9, -23.217298924922943, -408.8159439563751, -1647.2314556837082, -59.83839929103851
 1.7075962046988592E9, -15.797337412834167, -393.7366673350334, -1618.987731218338, -53.61520576477051
 1.7075962046988592E9, -64.86482483148575, -460.0376137495041, -1715.447230875492, -94.54467087984085
 1.7075962047146645E9, -82.09828382730484, -462.43114972114563, -1714.7291700839996, -104.83687555789948
 1.7075962047146645E9, -41.647525906562805, -407.8585295677185, -1630.4767038822174, -72.76349353790283
 1.707596204715355E9, -69.65189677476883, -465.7821000814438, -1702.2827830314636, -100.0498036146164
 1.707596204715355E9, -104.59752196073532, -499.77031087875366, -1755.4192816019058, -130.44771045446396
 1.70759620472887E9, -62.71064245700836, -442.56480115652084, -1661.1139643192291, -97.4169140458107
 1.70759620472887E9, -86.40664857625961, -471.28723281621933, -1691.2725175619125, -112.4961906671524
 1.7075962047449489E9, -144.3302190899849, -540.9391295909882, -1787.7320172190666, -150.79276621341705
 1.7075962047449489E9, -113.69295865297318, -486.84521663188934, -1711.3782197237015, -122.54904174804688
 1.707596204745392E9, -112.0174834728241, -484.4516806602478, -1684.091909646988, -119.43744498491287
 1.707596204745392E9, -166.59010362625122, -562.0022461414337, -1791.8010283708572, -162.76044607162476
 1.7075962047594595E9, -155.57983815670013, -543.3326655626297, -1764.7540718913078, -152.22888779640198
 1.7075962047594595E9, -123.50645613670349, -486.84521663188934, -1686.7247992157936, -123.50645613670349
 1.7075962047748215E9, -156.05854535102844, -547.6410303115845, -1762.3605359196663, -158.9307885169983
 1.7075962047748215E9, -186.93515938520432, -577.3208763599396, -1807.5983657836914, -187.41386657953262
 1.7075962047755466E9, -141.2186223268509, -520.1153666377068, -1724.782021164894, -156.53725254535675
 1.7075962047755466E9, -156.53725254535675, -544.2900799512863, -1747.759966492653, -174.72812592983246
 1.707596204788924E9, -208.47698312997818, -623.7554742097855, -1845.894941329956, -213.26405507326126
 1.707596204788924E9, -170.898468375206, -565.3531965017319, -1771.9346798062325, -188.6106345653534
 1.7075962048048537E9, -156.2978989481926, -543.811372756958, -1744.4090161323547, -183.8235626220703
 1.7075962048048537E9, -199.38154643774033, -611.0697335600853, -1835.8420902490616, -221.4020773768425
 1.7075962048053927E9, -198.66348564624786, -598.144639313221, -1815.9757416844368, -213.50340867042542
 1.7075962048053927E9, -157.49466693401337, -540.699775993824, -1732.2019826769829, -181.66938024759293
 1.7075962048188844E9, -185.25968420505524, -590.7246778011322, -1799.9390506744385, -204.88667917251587
 1.7075962048188844E9, -206.3228007555008, -619.4471094608307, -1845.894941329956, -222.35949176549911
 1.707596204834813E9, -156.05854535102844, -550.2739198803902, -1748.9567344784737, -187.89257377386093
 1.707596204834813E9, -163.95721405744553, -568.70414686203, -1766.668900668621, -191.48287773132324
 1.7075962048353548E9, -213.0247014760971, -631.4147893190384, -1863.8464611172676, -234.08781802654266
 1.7075962048353548E9, -174.4887723326683, -576.1241083741188, -1782.4662380814552, -197.70607125759125
 1.707596204849192E9, -161.32432448863983, -558.8906493782997, -1749.435441672802, -188.37128096818924
 1.707596204849192E9, -204.88667917251587, -625.9096565842628, -1846.8523557186127, -223.31690615415573
 1.707596204864627E9, -199.14219284057617, -604.367832839489, -1818.3692776560783, -210.63116550445557
 1.707596204864627E9, -151.0321198105812, -536.3914112448692, -1727.4149107336998, -178.31842988729477
 1.707596204865379E9, -182.8661482334137, -596.4691641330719, -1803.2900010347366, -207.04086154699326
 1.707596204865379E9, -203.2112039923668, -623.037413418293, -1846.1342949271202, -219.00854140520096
 1.707596204878945E9, -156.7766061425209, -554.5822846293449, -1755.8979887962341, -188.13192737102509
 1.707596204878945E9, -166.35075002908707, -575.6454011797905, -1777.6791661381721, -203.6899111866951
 1.707596204894652E9, -205.12603276968002, -635.9625076651573, -1863.8464611172676, -235.76329320669174
 1.707596204894652E9, -179.03649067878723, -583.5440698862076, -1797.545514702797, -213.74276226758957
 1.70759620489548E9, -155.57983815670013, -553.3855166435242, -1756.6160495877266, -199.38154643774033
 1.70759620489548E9, -199.38154643774033, -632.1328501105309, -1857.3839139938354, -234.32717162370682
 1.707596204909292E9, -188.6106345653534, -609.8729655742645, -1829.1401895284653, -227.6252709031105
 1.707596204909292E9, -141.45797592401505, -543.3326655626297, -1740.5793585777283, -190.04675614833832
 1.7075962049249682E9, -177.36101549863815, -605.3252472281456, -1814.0609129071236, -211.34922629594803
 1.7075962049249682E9, -195.79124248027802, -627.1064245700836, -1849.7245988845825, -227.38591730594635
 1.7075962049255073E9, -165.39333564043045, -571.815743625164, -1771.9346798062325, -206.56215435266495
 1.7075962049255073E9, -163.47850686311722, -571.5763900279999, -1784.3810668587685, -205.84409356117249
 1.7075962049391866E9, -201.0570216178894, -632.1328501105309, -1871.2664226293564, -238.87488996982574
 1.7075962049391866E9, -167.30816441774368, -580.6718267202377, -1790.3649067878723, -208.47698312997818
 1.7075962049551198E9, -145.52698707580566, -551.9493950605392, -1760.9244143366814, -194.11576730012894
 1.7075962049551198E9, -196.50930327177048, -633.0902644991875, -1849.00653809309, -231.93363565206528
 1.7075962049696517E9, -188.6106345653534, -601.9742968678474, -1827.7040679454803, -221.8807845711708
 1.7075962049696517E9, -140.73991513252258, -542.3752511739731, -1737.4677618145943, -186.21709859371185
 1.707596204970368E9, -170.898468375206, -599.82011449337, -1809.0344873666763, -210.3918119072914
 1.707596204970368E9, -187.17451298236847, -616.0961591005325, -1842.543990969658, -218.05112701654434
 1.7075962049850523E9, -142.89409750699997, -543.3326655626297, -1743.4516017436981, -180.7119658589363
 1.7075962049850523E9, -146.24504786729813, -561.7628925442696, -1768.5837294459343, -183.58420902490616
 1.707596204985454E9, -199.14219284057617, -631.4147893190384, -1856.9052067995071, -221.8807845711708
 1.707596204985454E9, -164.19656765460968, -575.4060475826263, -1786.5352492332458, -195.07318168878555
 1.707596204999154E9, -137.62831836938858, -547.6410303115845, -1748.4780272841454, -180.95131945610046
 1.707596204999154E9, -183.8235626220703, -613.4632695317268, -1835.6027366518974, -217.8117734193802
 1.7075962050149724E9, -173.5313579440117, -597.9052857160568, -1816.6938024759293, -207.51956874132156
 1.7075962050149724E9, -134.99542880058289, -538.3062400221825, -1731.7232754826546, -179.99390506744385
 1.7075962050154169E9, -172.81329715251923, -602.9317112565041, -1813.342852115631, -212.0672870874405
 1.7075962050154169E9, -185.73839139938354, -615.1387447118759, -1846.6130021214485, -220.20530939102173
 1.7075962050290203E9, -139.5431471467018, -543.811372756958, -1752.7863920331001, -185.02033060789108
 1.7075962050290203E9, -144.8089262843132, -560.805478155613, -1764.2753646969795, -184.78097701072693
 1.7075962050447013E9, -191.48287773132324, -631.1754357218742, -1864.8038755059242, -224.9923813343048
 1.7075962050447013E9, -157.2553133368492, -572.7731580138206, -1784.6204204559326, -192.679645717144
 1.7075962050453556E9, -127.57546728849411, -542.8539583683014, -1735.7922866344452, -164.19656765460968
 1.7075962050453556E9, -177.36101549863815, -607.7187831997871, -1835.3633830547333, -210.87051910161972
 1.7075962050589418E9, -165.87204283475876, -582.1079483032227, -1812.1460841298103, -196.98801046609879
 1.7075962050589418E9, -123.02774894237518, -527.0566209554672, -1721.1917172074318, -163.23915326595306
 1.7075962050746372E9, -148.3992302417755, -572.7731580138206, -1790.1255531907082, -185.9777449965477
 1.7075962050746372E9, -171.61652916669846, -608.1974903941154, -1834.884675860405, -206.56215435266495
 1.707596205075348E9, -124.46387052536011, -532.0830464959145, -1739.6219441890717, -163.23915326595306
 1.707596205075348E9, -130.6870640516281, -546.4442623257637, -1747.999320089817, -171.8558827638626
 1.7075962050889823E9, -172.57394355535507, -607.7187831997871, -1834.4059686660767, -196.26994967460632
 1.7075962050889823E9, -150.31405901908875, -557.6938813924789, -1764.2753646969795, -174.72812592983246
 1.7075962051046395E9, -123.26710253953934, -533.7585216760635, -1730.0478003025055, -160.84561729431152
 1.7075962051046395E9, -172.09523636102676, -608.6761975884438, -1832.9698470830917, -207.04086154699326
 1.7075962051053076E9, -168.02622520923615, -591.2033849954605, -1818.3692776560783, -195.55188888311386
 1.7075962051053076E9, -123.74580973386765, -531.1256321072578, -1731.4839218854904, -168.7442860007286
 1.7075962051192155E9, -148.15987664461136, -569.6615612506866, -1805.9228906035423, -198.90283924341202
 1.7075962051192155E9, -173.77071154117584, -610.8303799629211, -1847.331062912941, -219.2478950023651
 1.7075962051350634E9, -124.94257771968842, -532.3224000930786, -1746.5631985068321, -179.7545514702797
 1.7075962051350634E9, -134.99542880058289, -549.5558590888977, -1767.6263150572777, -189.32869535684586
 1.7075962051354935E9, -178.31842988729477, -612.7452087402344, -1859.0593891739845, -223.55625975131989
 1.7075962051354935E9, -142.1760367155075, -561.2841853499413, -1781.0301164984703, -196.74865686893463
 1.7075962051489663E9, -121.11292016506195, -531.8436928987503, -1736.5103474259377, -172.09523636102676
 1.7075962051489663E9, -165.1539820432663, -607.0007224082947, -1835.1240294575691, -211.34922629594803
 1.7075962051647477E9, -159.17014211416245, -589.0492026209831, -1814.3002665042877, -199.62090003490448
 1.7075962051647477E9, -113.45360505580902, -515.5676482915878, -1725.2607283592224, -163.23915326595306
 1.7075962051653664E9, -143.85151189565659, -573.9699259996414, -1801.3751722574234, -194.11576730012894
 1.7075962051653664E9, -168.02622520923615, -602.6923576593399, -1841.3472229838371, -212.78534787893295
 1.7075962051789277E9, -123.26710253953934, -532.3224000930786, -1746.8025521039963, -173.29200434684753
 1.7075962051789277E9, -129.01158887147903, -553.3855166435242, -1769.0624366402626, -185.9777449965477
 1.7075962051946096E9, -176.40360110998154, -612.0271479487419, -1863.1284003257751, -218.2904806137085
 1.7075962051946096E9, -140.26120793819427, -554.3429310321808, -1783.663006067276, -190.76481693983078
 1.707596205195343E9, -122.30968815088272, -534.476582467556, -1740.3400049805641, -175.68554031848907
 1.707596205195343E9, -161.32432448863983, -594.5543353557587, -1832.9698470830917, -207.51956874132156
 1.7075962052091312E9, -153.90436297655106, -584.9801914691925, -1819.326692044735, -202.01443600654602
 1.7075962052091312E9, -111.29942268133163, -526.5779137611389, -1726.6968499422073, -162.9997996687889
 1.7075962052246583E9, -146.24504786729813, -576.6028155684471, -1798.5029290914536, -191.96158492565155
 1.7075962052246583E9, -167.30816441774368, -600.2988216876984, -1839.9111014008522, -209.19504392147064
 1.707596205225332E9, -119.91615217924118, -535.4339968562126, -1742.9728945493698, -178.55778348445892
 1.707596205225332E9, -121.83098095655441, -544.5294335484505, -1758.2915247678757, -181.90873384475708
 1.707596205239009E9, -167.06881082057953, -603.8891256451607, -1850.6820132732391, -213.74276226758957
 1.707596205239009E9, -128.53288167715073, -550.5132734775543, -1775.5249837636948, -183.344855427742
 1.7075962052552068E9, -103.40075397491455, -517.9611842632294, -1729.8084467053413, -167.30816441774368
 1.7075962052552068E9, -156.7766061425209, -591.921445786953, -1824.113763988018, -203.92926478385925
 1.7075962052554495E9, -151.27147340774536, -579.475058734417, -1808.3164265751839, -193.39770650863647
 1.7075962052554495E9, -109.62394750118256, -519.8760130405426, -1725.5000819563866, -162.76044607162476
 1.7075962052694974E9, -140.50056153535843, -567.2680252790451, -1793.2371499538422, -188.84998816251755
 1.7075962052694974E9, -167.06881082057953, -604.1284792423248, -1846.8523557186127, -212.78534787893295
 1.7075962052850285E9, -120.39485937356949, -529.2108033299446, -1748.7173808813095, -168.50493240356445
 1.7075962052850285E9, -129.49029606580734, -539.5030080080032, -1759.4882927536964, -177.36101549863815
 1.7075962052854438E9, -171.61652916669846, -605.5646008253098, -1848.2884773015976, -213.74276226758957
 1.7075962052854438E9, -146.24504786729813, -560.3267709612846, -1781.7481772899628, -182.8661482334137
 1.70759620529897E9, -114.88972663879395, -525.3811457753181, -1733.877457857132, -163.95721405744553
 1.70759620529897E9, -164.91462844610214, -604.8465400338173, -1830.336957514286, -201.5357288122177
 1.7075962053145745E9, -159.64884930849075, -585.698252260685, -1822.438288807869, -199.86025363206863
 1.7075962053145745E9, -112.73554426431656, -520.1153666377068, -1721.9097779989243, -159.17014211416245
 1.7075962053153625E9, -147.20246225595474, -568.9435004591942, -1794.673271536827, -187.89257377386093
 1.7075962053153625E9, -173.5313579440117, -612.0271479487419, -1838.9536870121956, -202.73249679803848
 1.707596205329224E9, -123.9851633310318, -526.0992065668106, -1740.8187121748924, -170.65911477804184
 1.707596205329224E9, -125.18193131685257, -542.1358975768089, -1757.334110379219, -180.7119658589363
 1.7075962053446674E9, -171.61652916669846, -614.4206839203835, -1854.2723172307014, -219.2478950023651
 1.7075962053446674E9, -140.50056153535843, -562.2415997385979, -1785.338481247425, -191.96158492565155
 1.7075962053453507E9, -111.53877627849579, -522.03019541502, -1738.9038833975792, -168.98363959789276
 1.7075962053453507E9, -156.7766061425209, -594.0756281614304, -1821.4808744192123, -193.63706010580063
 1.7075962053591235E9, -157.97337412834167, -580.1931195259094, -1815.4970344901085, -192.91899931430817
 1.7075962053591235E9, -104.11881476640701, -508.3870403766632, -1717.1227060556412, -155.57983815670013
 1.7075962053749988E9, -133.08060002326965, -565.592550098896, -1794.9126251339912, -187.17451298236847
 1.7075962053749988E9, -161.32432448863983, -590.485324203968, -1835.1240294575691, -204.64732557535172
 1.707596205375465E9, -113.69295865297318, -526.5779137611389, -1742.4941873550415, -170.18040758371353
 1.707596205375465E9, -116.08649462461472, -541.4178367853165, -1751.3502704501152, -170.41976118087769
 1.7075962053895252E9, -156.53725254535675, -593.8362745642662, -1843.5014053583145, -199.14219284057617
 1.7075962053895252E9, -123.02774894237518, -537.58817923069, -1767.1476078629494, -176.88230830430984
 1.7075962054045877E9, -100.28915721178055, -517.0037698745728, -1726.4574963450432, -156.7766061425209
 1.7075962054045877E9, -147.4418158531189, -579.7144123315811, -1818.8479848504066, -192.91899931430817
 1.7075962054053507E9, -139.5431471467018, -571.0976828336716, -1805.2048298120499, -191.2435241341591
 1.7075962054053507E9, -91.91178131103516, -503.1212612390518, -1713.771755695343, -155.57983815670013
 1.7075962054189005E9, -122.30968815088272, -556.7364670038223, -1780.0727021098137, -178.07907629013062
 1.7075962054189005E9, -154.62242376804352, -592.1607993841171, -1829.1401895284653, -199.14219284057617
 1.707596205434628E9, -114.41101944446564, -522.03019541502, -1738.4251762032509, -166.35075002908707
 1.707596205434628E9, -112.97489786148071, -530.1682177186012, -1747.999320089817, -166.1113964319229
 1.7075962054353273E9, -159.17014211416245, -595.033042550087, -1834.884675860405, -197.9454248547554
 1.7075962054353273E9, -124.46387052536011, -544.2900799512863, -1770.7379118204117, -178.07907629013062
 1.707596205449159E9, -94.54467087984085, -507.9083331823349, -1721.67042440176, -156.05854535102844
 1.707596205449159E9, -142.89409750699997, -584.2621306777, -1814.5396201014519, -190.04675614833832
 1.7075962054646137E9, -144.8089262843132, -570.6189756393433, -1811.1886697411537, -185.9777449965477
 1.7075962054646137E9, -103.87946116924286, -508.62639397382736, -1717.3620596528053, -154.86177736520767
 1.7075962054652824E9, -125.89999210834503, -552.1887486577034, -1775.764337360859, -169.46234679222107
 1.7075962054652824E9, -159.17014211416245, -589.2885562181473, -1816.215095281601, -183.10550183057785
 1.7075962054792347E9, -107.94847232103348, -518.918598651886, -1725.5000819563866, -153.6650093793869
 1.7075962054792347E9, -106.2729971408844, -526.8172673583031, -1737.4677618145943, -156.05854535102844
 1.7075962054949267E9, -154.62242376804352, -591.2033849954605, -1832.9698470830917, -194.11576730012894
 1.7075962054949267E9, -118.95873779058456, -536.3914112448692, -1760.206353545189, -162.76044607162476
 1.707596205495358E9, -95.50208526849747, -507.19027239084244, -1720.4736564159393, -149.35664463043213
 1.707596205495358E9, -142.41539031267166, -578.7569979429245, -1816.9331560730934, -188.37128096818924
 1.7075962055253637E9, -136.91025757789612, -570.3796220421791, -1808.3164265751839, -185.9777449965477
 1.7075962055253637E9, -94.06596368551254, -504.07867562770844, -1709.9420981407166, -151.0321198105812
 1.7075962055261123E9, -118.71938419342041, -549.5558590888977, -1784.1417132616043, -175.68554031848907
 1.7075962055261123E9, -137.14961117506027, -578.038937151432, -1828.1827751398087, -189.0893417596817
 1.70759620552678E9, -102.92204678058624, -511.25928354263306, -1731.005214691162, -160.12755650281906
 1.70759620552678E9, -103.87946116924286, -524.1843777894974, -1737.2284082174301, -157.73402053117752
 1.707596205538977E9, -150.0747054219246, -595.033042550087, -1834.1666150689125, -197.4667176604271
 1.707596205538977E9, -117.04390901327133, -539.0243008136749, -1767.8656686544418, -170.41976118087769
 1.7075962055866814E9, -97.65626764297485, -506.2328580021858, -1725.7394355535507, -159.17014211416245
 1.7075962055866814E9, -132.8412464261055, -569.6615612506866, -1814.778973698616, -193.15835291147232
 1.7075962055874228E9, -136.91025757789612, -566.5499644875526, -1798.7422826886177, -183.10550183057785
 1.7075962055874228E9, -89.51824533939362, -496.4193605184555, -1708.98468375206, -150.0747054219246
 1.7075962055881517E9, -112.4961906671524, -542.6146047711372, -1767.1476078629494, -168.98363959789276
 1.7075962055881517E9, -145.04827988147736, -580.1931195259094, -1831.773079097271, -194.59447449445724
 1.707596205588848E9, -101.24657160043716, -520.3547202348709, -1735.552933037281, -157.01595973968506
 1.707596205588848E9, -102.92204678058624, -523.2269634008408, -1736.5103474259377, -162.5210924744606
 1.7075962055997827E9, -144.8089262843132, -590.2459706068039, -1830.8156647086143, -192.679645717144
 1.7075962055997827E9, -117.28326261043549, -536.1520576477051, -1766.429547071457, -167.30816441774368
 1.7075962056003132E9, -94.3053172826767, -502.1638468503952, -1720.2343028187752, -151.27147340774536
 1.7075962056003132E9, -143.85151189565659, -581.6292411088943, -1823.3957031965256, -194.8338280916214
 1.7075962056148884E9, -140.97926872968674, -575.8847547769547, -1810.231255352497, -189.32869535684586
 1.7075962056148884E9, -90.71501332521439, -499.0522500872612, -1719.7555956244469, -152.94694858789444
 1.7075962056153996E9, -115.60778743028641, -551.4706878662109, -1784.8597740530968, -184.54162341356277
 1.7075962056153996E9, -150.5534126162529, -585.698252260685, -1837.7569190263748, -202.49314320087433
 1.707596205628992E9, -111.53877627849579, -529.6895105242729, -1746.0844913125038, -167.06881082057953
 1.707596205628992E9, -108.42717951536179, -525.8598529696465, -1745.1270769238472, -162.0423852801323
 1.7075962056449325E9, -155.10113096237183, -597.6659321188927, -1836.0814438462257, -193.63706010580063
 1.7075962056449325E9, -124.94257771968842, -545.7262015342712, -1766.668900668621, -172.33458995819092
 1.7075962056454737E9, -95.98079246282578, -509.3444547653198, -1717.3620596528053, -151.0321198105812
 1.7075962056454737E9, -144.56957268714905, -581.8685947060585, -1810.9493161439896, -190.04675614833832
 1.7075962056589656E9, -142.89409750699997, -581.3898875117302, -1813.103498518467, -190.28610974550247
 1.7075962056589656E9, -98.37432843446732, -508.3870403766632, -1716.4046452641487, -152.46824139356613
 1.707596205674174E9, -129.2509424686432, -555.0609918236732, -1783.4236524701118, -179.99390506744385
 1.707596205674174E9, -152.46824139356613, -589.2885562181473, -1824.5924711823463, -194.3551208972931
 1.7075962056897953E9, -112.0174834728241, -526.3385601639748, -1748.2386736869812, -165.39333564043045
 1.7075962056897953E9, -161.56367808580399, -600.7775288820267, -1844.9375269412994, -201.77508240938187
 1.7075962056904283E9, -130.2083568572998, -550.034566283226, -1775.0462765693665, -172.81329715251923
 1.7075962056904283E9, -103.40075397491455, -520.1153666377068, -1724.3033139705658, -155.10113096237183
 1.7075962057038865E9, -149.59599822759628, -578.5176443457603, -1814.0609129071236, -188.6106345653534
 1.7075962057038865E9, -143.85151189565659, -569.9009148478508, -1806.1622442007065, -183.344855427742
 1.707596205719628E9, -101.48592519760132, -510.78057634830475, -1717.1227060556412, -151.0321198105812
 1.707596205719628E9, -121.59162735939026, -561.2841853499413, -1774.8069229722023, -172.81329715251923
 1.707596205720314E9, -154.1437165737152, -595.5117497444153, -1824.113763988018, -198.18477845191956
 1.707596205720314E9, -109.86330109834671, -521.5514882206917, -1737.9464690089226, -161.80303168296814
 1.7075962057341418E9, -102.68269318342209, -520.5940738320351, -1738.9038833975792, -156.7766061425209
 1.7075962057341418E9, -149.83535182476044, -597.6659321188927, -1830.097603917122, -193.15835291147232
 1.7075962057498076E9, -117.28326261043549, -543.0933119654655, -1770.4985582232475, -168.2655788064003
 1.7075962057498076E9, -90.47565972805023, -503.360614836216, -1715.207877278328, -146.00569427013397
 1.7075962057505488E9, -136.91025757789612, -581.6292411088943, -1809.0344873666763, -183.58420902490616
 1.7075962057505488E9, -134.99542880058289, -567.7467324733734, -1812.1460841298103, -187.41386657953262
 1.7075962057642677E9, -93.58725649118423, -497.13742130994797, -1714.4898164868355, -148.87793743610382
 1.7075962057642677E9, -127.57546728849411, -554.3429310321808, -1782.4662380814552, -172.33458995819092
 1.7075962057796428E9, -152.70759499073029, -583.7834234833717, -1838.4749798178673, -195.3125352859497
 1.7075962057796428E9, -102.44333958625793, -512.4560515284538, -1735.0742258429527, -160.84561729431152
 1.7075962057803085E9, -100.0498036146164, -520.1153666377068, -1740.5793585777283, -158.69143491983414
 1.7075962057803085E9, -147.68116945028305, -592.8788601756096, -1836.32079744339, -195.3125352859497
 1.7075962057941334E9, -111.29942268133163, -534.476582467556, -1771.21661901474, -169.22299319505692
 1.7075962057941334E9, -88.80018454790115, -501.2064324617386, -1723.106545984745, -149.59599822759628
 1.7075962058100393E9, -138.82508635520935, -575.4060475826263, -1817.89057046175, -185.73839139938354
 1.7075962058100393E9, -143.37280470132828, -574.6879867911339, -1821.2415208220482, -190.52546334266663
 1.7075962058105316E9, -95.98079246282578, -508.62639397382736, -1722.8671923875809, -153.6650093793869
 1.7075962058105316E9, -135.71348959207535, -566.0712572932243, -1788.9287852048874, -188.13192737102509
 1.7075962058239615E9, -160.36691009998322, -598.3839929103851, -1843.0226981639862, -207.2802151441574
 1.7075962058239615E9, -108.66653311252594, -523.7056705951691, -1743.9303089380264, -161.32432448863983
 1.707596205839703E9, -109.14524030685425, -525.3811457753181, -1747.759966492653, -161.56367808580399
 1.707596205839703E9, -147.9205230474472, -588.5704954266548, -1838.7143334150314, -192.44029211997986
 1.7075962058403845E9, -125.42128491401672, -537.58817923069, -1771.9346798062325, -169.22299319505692
 1.7075962058403845E9, -93.82661008834839, -501.92449325323105, -1714.4898164868355, -146.72375506162643
 1.7075962058542905E9, -139.30379354953766, -571.815743625164, -1814.3002665042877, -177.83972269296646
 1.7075962058542905E9, -146.9631086587906, -580.4324731230736, -1808.0770729780197, -183.344855427742
 1.7075962058696845E9, -101.00721800327301, -509.10510116815567, -1714.4898164868355, -143.85151189565659
 1.7075962058696845E9, -126.13934570550919, -559.8480637669563, -1771.9346798062325, -170.41976118087769
 1.7075962058703835E9, -149.83535182476044, -588.5704954266548, -1826.7466535568237, -187.17451298236847
 1.7075962058703835E9, -104.59752196073532, -514.8495875000954, -1738.1858226060867, -157.73402053117752
 1.707596205884123E9, -104.11881476640701, -521.3121346235275, -1744.648369729519, -158.21272772550583
 1.707596205884123E9, -152.94694858789444, -593.596920967102, -1843.7407589554787, -198.66348564624786
 1.7075962059001064E9, -124.22451692819595, -548.1197375059128, -1773.8495085835457, -171.8558827638626
 1.7075962059001064E9, -91.672427713871, -503.1212612390518, -1718.7981812357903, -150.31405901908875
 1.7075962059005113E9, -142.1760367155075, -584.2621306777, -1814.5396201014519, -188.13192737102509
 1.7075962059005113E9, -137.86767196655273, -570.6189756393433, -1804.9654762148857, -179.27584427595139
 1.7075962059141417E9, -90.47565972805023, -504.55738282203674, -1705.6337333917618, -143.85151189565659
 1.7075962059141417E9, -115.1290802359581, -546.6836159229279, -1769.0624366402626, -166.35075002908707
 1.7075962059297464E9, -147.4418158531189, -580.6718267202377, -1824.3531175851822, -183.58420902490616
 1.7075962059297464E9, -95.26273167133331, -508.62639397382736, -1723.3458995819092, -145.2876334786415
 1.7075962059304323E9, -94.06596368551254, -514.1315267086029, -1730.5265074968338, -147.9205230474472
 1.7075962059304323E9, -136.91025757789612, -574.927340388298, -1823.3957031965256, -181.43002665042877
 1.7075962059442267E9, -115.84714102745056, -536.3914112448692, -1769.0624366402626, -164.19656765460968
 1.7075962059442267E9, -86.40664857625961, -496.8980677127838, -1714.2504628896713, -143.61215829849243
 1.707596205959798E9, -143.13345110416412, -581.6292411088943, -1815.7363880872726, -191.2435241341591
 1.707596205959798E9, -141.45797592401505, -571.0976828336716, -1809.991901755333, -185.25968420505524
 1.7075962059603586E9, -95.50208526849747, -501.6851396560669, -1717.1227060556412, -149.59599822759628
 1.7075962059603586E9, -122.54904174804688, -546.2049087285995, -1782.226884484291, -179.03649067878723
 1.7075962059740152E9, -160.36691009998322, -595.5117497444153, -1839.1930406093597, -198.66348564624786
 1.7075962059740152E9, -112.4961906671524, -520.8334274291992, -1745.3664305210114, -165.87204283475876
 1.7075962059896317E9, -108.18782591819763, -526.5779137611389, -1751.5896240472794, -167.54751801490784
 1.7075962059896317E9, -156.53725254535675, -594.7936889529228, -1843.2620517611504, -199.86025363206863
 1.7075962059903536E9, -122.07033455371857, -545.2474943399429, -1777.439812541008, -177.6003690958023
 1.7075962059903536E9, -87.60341656208038, -500.7277252674103, -1713.2930485010147, -153.90436297655106
 1.707596206003985E9, -132.3625392317772, -567.7467324733734, -1811.4280233383179, -188.84998816251755
 1.707596206003985E9, -133.55930721759796, -564.6351357102394, -1803.0506474375725, -182.3874410390854
 1.7075962060199337E9, -90.23630613088608, -503.1212612390518, -1708.98468375206, -145.52698707580566
 1.7075962060199337E9, -115.1290802359581, -543.3326655626297, -1770.2592046260834, -172.33458995819092
 1.707596206020426E9, -153.1863021850586, -590.7246778011322, -1829.1401895284653, -202.97185039520264
 1.707596206020426E9, -108.66653311252594, -517.4824770689011, -1742.9728945493698, -169.94105398654938
 1.7075962060346026E9, -106.75170433521271, -521.5514882206917, -1742.4941873550415, -162.9997996687889
 1.7075962060346026E9, -152.46824139356613, -587.6130810379982, -1845.1768805384636, -205.12603276968002
 1.7075962060497608E9, -128.29352807998657, -542.1358975768089, -1766.1901934742928, -181.90873384475708
 1.7075962060497608E9, -95.50208526849747, -507.4296259880066, -1716.883352458477, -154.62242376804352
 1.707596206050382E9, -139.78250074386597, -580.4324731230736, -1811.667376935482, -194.3551208972931
 1.707596206050382E9, -147.68116945028305, -580.1931195259094, -1806.4015977978706, -189.80740255117416
 1.7075962060639455E9, -98.37432843446732, -508.62639397382736, -1710.1814517378807, -152.94694858789444
 1.7075962060639455E9, -126.13934570550919, -548.8377982974052, -1776.9611053466797, -181.66938024759293
 1.7075962060960677E9, -152.46824139356613, -589.2885562181473, -1835.8420902490616, -200.5783144235611
 1.7075962060960677E9, -116.32584822177887, -528.253388941288, -1743.6909553408623, -170.65911477804184
 1.7075962060967648E9, -109.14524030685425, -534.476582467556, -1750.3928560614586, -174.24941873550415
 1.7075962060967648E9, -151.51082700490952, -593.596920967102, -1838.2356262207031, -203.45055758953094
 1.7075962060974853E9, -127.33611369132996, -554.3429310321808, -1785.5778348445892, -182.8661482334137
 1.7075962060974853E9, -96.69885325431824, -511.9773443341255, -1718.319474041462, -157.97337412834167
 1.7075962060982735E9, -133.79866081476212, -571.815743625164, -1814.0609129071236, -192.679645717144
 1.7075962060982735E9, -134.03801441192627, -562.7203069329262, -1803.0506474375725, -184.30226981639862
 1.707596206109072E9, -89.99695253372192, -494.7438853383064, -1709.7027445435524, -151.75018060207367
 1.707596206109072E9, -112.73554426431656, -540.9391295909882, -1773.3708013892174, -176.40360110998154
 1.7075962061239517E9, -142.41539031267166, -579.2357051372528, -1826.2679463624954, -193.87641370296478
 1.7075962061239517E9, -102.92204678058624, -514.1315267086029, -1738.664529800415, -159.4094957113266
 1.707596206139802E9, -101.96463239192963, -518.918598651886, -1744.4090161323547, -162.5210924744606
 1.707596206139802E9, -153.42565578222275, -592.1607993841171, -1834.6453222632408, -202.73249679803848
 1.7075962061403334E9, -120.8735665678978, -545.9655551314354, -1775.0462765693665, -176.40360110998154
 1.7075962061403334E9, -96.22014605998993, -502.88190764188766, -1726.218142747879, -160.60626369714737
 1.707596206154216E9, -142.65474390983582, -576.363461971283, -1818.8479848504066, -195.79124248027802
 1.707596206154216E9, -140.26120793819427, -568.9435004591942, -1818.8479848504066, -193.63706010580063
 1.7075962061699848E9, -93.58725649118423, -501.92449325323105, -1720.4736564159393, -151.27147340774536
 1.7075962061699848E9, -128.05417448282242, -552.1887486577034, -1774.8069229722023, -172.81329715251923
 1.7075962061704104E9, -161.80303168296814, -593.8362745642662, -1831.773079097271, -198.66348564624786
 1.7075962061704104E9, -115.1290802359581, -527.5353281497955, -1742.4941873550415, -160.12755650281906
 1.7075962061843667E9, -106.03364354372025, -523.4663169980049, -1737.9464690089226, -163.95721405744553
 1.7075962061843667E9, -159.4094957113266, -598.8627001047134, -1841.3472229838371, -202.25378960371017
 1.7075962061997988E9, -129.49029606580734, -544.5294335484505, -1768.8230830430984, -173.5313579440117
 1.7075962061997988E9, -108.9058867096901, -514.8495875000954, -1726.4574963450432, -158.21272772550583
 1.7075962062007852E9, -143.85151189565659, -581.3898875117302, -1809.0344873666763, -193.15835291147232
 1.7075962062007852E9, -140.50056153535843, -580.1931195259094, -1806.6409513950348, -186.93515938520432
 1.707596206214014E9, -102.20398598909378, -515.0889410972595, -1721.1917172074318, -154.86177736520767
 1.707596206214014E9, -121.59162735939026, -552.1887486577034, -1768.5837294459343, -173.77071154117584
 1.707596206229744E9, -152.22888779640198, -587.6130810379982, -1829.8582503199577, -202.97185039520264
 1.707596206229744E9, -110.10265469551086, -528.4927425384521, -1743.4516017436981, -158.69143491983414
 1.7075962062304327E9, -104.11881476640701, -526.5779137611389, -1734.8348722457886, -158.21272772550583
 1.7075962062304327E9, -151.0321198105812, -592.8788601756096, -1841.107869386673, -201.29637521505356
 1.7075962062441397E9, -132.12318563461304, -545.9655551314354, -1782.7055916786194, -180.47261226177216
 1.7075962062441397E9, -103.40075397491455, -519.6366594433784, -1730.765861093998, -159.17014211416245
 1.7075962062599037E9, -139.78250074386597, -581.3898875117302, -1819.326692044735, -194.8338280916214
 1.7075962062599037E9, -144.3302190899849, -578.9963515400887, -1819.326692044735, -197.4667176604271
 1.7075962062604716E9, -104.11881476640701, -521.5514882206917, -1725.5000819563866, -162.76044607162476
 1.7075962062604716E9, -124.94257771968842, -560.0874173641205, -1781.7481772899628, -185.4990378022194
 1.7075962062739513E9, -153.42565578222275, -589.7672634124756, -1836.7995046377182, -204.88667917251587
 1.7075962062739513E9, -109.3845939040184, -531.364985704422, -1751.5896240472794, -175.68554031848907
 1.7075962062896764E9, -109.86330109834671, -537.1094720363617, -1756.3766959905624, -175.92489391565323
 1.7075962062896764E9, -158.9307885169983, -609.1549047827721, -1847.0917093157768, -209.19504392147064
 1.707596206290466E9, -131.88383203744888, -549.3165054917336, -1783.663006067276, -185.25968420505524
 1.707596206290466E9, -94.3053172826767, -512.695405125618, -1723.8246067762375, -159.8882029056549
 1.707596206304368E9, -142.1760367155075, -580.4324731230736, -1816.454448878765, -194.11576730012894
 1.707596206304368E9, -142.41539031267166, -579.2357051372528, -1815.2576808929443, -193.87641370296478
 1.7075962063200073E9, -100.28915721178055, -506.2328580021858, -1721.67042440176, -158.69143491983414
 1.7075962063200073E9, -119.19809138774872, -549.0771518945694, -1777.9185197353363, -177.36101549863815
 1.7075962063204637E9, -156.05854535102844, -589.7672634124756, -1840.3898085951805, -210.63116550445557
 1.7075962063204637E9, -106.99105793237686, -517.2431234717369, -1740.8187121748924, -161.56367808580399
 1.7075962063344808E9, -106.2729971408844, -518.6792450547218, -1746.323844909668, -168.2655788064003
 1.7075962063344808E9, -151.51082700490952, -590.485324203968, -1839.1930406093597, -198.66348564624786
 1.7075962063497543E9, -126.13934570550919, -546.922969520092, -1781.0301164984703, -176.6429547071457
 1.7075962063497543E9, -97.89562124013901, -509.583808362484, -1719.994949221611, -157.49466693401337
 1.707596206350528E9, -140.02185434103012, -573.4912188053131, -1811.4280233383179, -193.63706010580063
 1.707596206350528E9, -142.89409750699997, -573.7305724024773, -1811.4280233383179, -188.13192737102509
 1.7075962063638709E9, -101.96463239192963, -512.9347587227821, -1724.782021164894, -160.60626369714737
 1.7075962063638709E9, -123.74580973386765, -551.9493950605392, -1775.2856301665306, -179.03649067878723
 1.7075962063796754E9, -156.05854535102844, -593.1182137727737, -1836.0814438462257, -206.08344715833664
 1.7075962063796754E9, -112.25683706998825, -524.6630849838257, -1743.4516017436981, -163.47850686311722
 1.7075962063803828E9, -108.66653311252594, -522.7482562065125, -1740.8187121748924, -161.32432448863983
 1.7075962063803828E9, -151.51082700490952, -592.4001529812813, -1835.6027366518974, -200.33896082639694
 1.70759620639416E9, -131.64447844028473, -545.9655551314354, -1781.987530887127, -175.68554031848907
 1.70759620639416E9, -90.95436692237854, -504.3180292248726, -1712.5749877095222, -146.72375506162643
 1.7075962064101284E9, -134.75607520341873, -568.4647932648659, -1802.5719402432442, -181.19067305326462
 1.7075962064101284E9, -135.71348959207535, -568.4647932648659, -1806.880304992199, -186.69580578804016
 1.707596206410614E9, -91.1937205195427, -500.0096644759178, -1709.224037349224, -148.87793743610382
 1.707596206410614E9, -119.67679858207703, -544.0507263541222, -1766.429547071457, -169.46234679222107
 1.707596206424202E9, -153.90436297655106, -586.1769594550133, -1827.7040679454803, -196.03059607744217
 1.707596206424202E9, -112.25683706998825, -523.4663169980049, -1742.2548337578773, -166.82945722341537
 1.707596206440052E9, -109.62394750118256, -520.1153666377068, -1733.877457857132, -157.01595973968506
 1.707596206440052E9, -152.70759499073029, -592.1607993841171, -1834.884675860405, -198.90283924341202
 1.707596206440566E9, -131.40512484312057, -556.0184062123299, -1782.7055916786194, -182.62679463624954
 1.707596206440566E9, -101.00721800327301, -515.3282946944237, -1717.6014132499695, -153.6650093793869
 1.7075962064539857E9, -144.09086549282074, -576.6028155684471, -1810.7099625468254, -190.04675614833832
 1.7075962064539857E9, -149.59599822759628, -583.3047162890434, -1821.002167224884, -196.26994967460632
 1.7075962064696333E9, -99.81045001745224, -507.9083331823349, -1722.1491315960884, -162.28173887729645
 1.7075962064696333E9, -123.26710253953934, -555.0609918236732, -1777.439812541008, -183.58420902490616
 1.7075962064703457E9, -151.27147340774536, -594.7936889529228, -1841.8259301781654, -207.2802151441574
 1.7075962064703457E9, -116.08649462461472, -533.2798144817352, -1752.0683312416077, -180.7119658589363
 1.707596206483924E9, -110.10265469551086, -538.7849472165108, -1753.983160018921, -182.8661482334137
 1.707596206483924E9, -154.62242376804352, -599.82011449337, -1850.442659676075, -213.26405507326126
 1.707596206500258E9, -127.57546728849411, -549.7952126860619, -1783.4236524701118, -186.456452190876
 1.707596206500258E9, -94.06596368551254, -508.8657475709915, -1723.5852531790733, -164.675274848938
 1.7075962065003765E9, -134.27736800909042, -567.5073788762093, -1816.454448878765, -193.63706010580063
 1.7075962065003765E9, -146.9631086587906, -574.4486331939697, -1820.2841064333916, -200.33896082639694
 1.7075962065145388E9, -90.23630613088608, -505.03609001636505, -1716.1652916669846, -157.01595973968506
 1.7075962065145388E9, -117.28326261043549, -541.4178367853165, -1769.3017902374268, -175.44618672132492
 1.707596206529669E9, -152.94694858789444, -592.4001529812813, -1830.336957514286, -193.15835291147232
 1.707596206529669E9, -111.06006908416748, -528.253388941288, -1738.9038833975792, -163.71786046028137
 1.7075962065303326E9, -107.94847232103348, -528.7320961356163, -1739.6219441890717, -168.50493240356445
 1.7075962065303326E9, -152.70759499073029, -597.4265785217285, -1837.2782118320465, -203.92926478385925
 1.7075962065441236E9, -125.66063851118088, -554.3429310321808, -1786.0565420389175, -184.54162341356277
 1.7075962065441236E9, -98.37432843446732, -512.9347587227821, -1721.9097779989243, -156.7766061425209
 1.7075962065596645E9, -150.31405901908875, -584.2621306777, -1813.103498518467, -195.79124248027802
 1.7075962065596645E9, -153.42565578222275, -584.0227770805359, -1816.215095281601, -199.62090003490448
 1.7075962065604422E9, -115.84714102745056, -524.4237313866615, -1726.9362035393715, -164.675274848938
 1.7075962065604422E9, -137.38896477222443, -565.3531965017319, -1782.7055916786194, -192.2009385228157
 1.707596206590072E9, -170.65911477804184, -608.1974903941154, -1838.9536870121956, -214.46082305908203
 1.707596206590072E9, -122.30968815088272, -533.2798144817352, -1748.4780272841454, -172.57394355535507
 1.7075962065907516E9, -110.10265469551086, -523.4663169980049, -1736.5103474259377, -166.35075002908707
 1.7075962065907516E9, -154.86177736520767, -590.485324203968, -1837.0388582348824, -205.36538636684418
 1.7075962066045976E9, -123.74580973386765, -541.1784831881523, -1776.003690958023, -182.3874410390854
 1.7075962066045976E9, -90.71501332521439, -503.5999684333801, -1714.4898164868355, -157.49466693401337
 1.7075962066053455E9, -126.85740649700165, -573.9699259996414, -1804.7261226177216, -187.17451298236847
 1.7075962066053455E9, -141.93668311834335, -571.3370364308357, -1808.0770729780197, -187.65322017669678
 1.7075962066199856E9, -99.09238922595978, -505.03609001636505, -1713.771755695343, -153.1863021850586
 1.7075962066199856E9, -115.1290802359581, -543.5720191597939, -1762.8392431139946, -168.02622520923615
 1.7075962066203897E9, -151.27147340774536, -593.3575673699379, -1835.8420902490616, -201.29637521505356
 1.7075962066203897E9, -108.18782591819763, -514.8495875000954, -1741.776126563549, -161.56367808580399
 1.7075962066342306E9, -108.66653311252594, -530.6469249129295, -1741.0580657720566, -167.54751801490784
 1.7075962066342306E9, -161.08497089147568, -611.5484407544136, -1839.1930406093597, -207.75892233848572
 1.707596206649677E9, -131.88383203744888, -555.5396990180016, -1781.5088236927986, -182.8661482334137
 1.707596206649677E9, -100.76786440610886, -509.3444547653198, -1717.1227060556412, -155.34048455953598
 1.7075962066505966E9, -143.85151189565659, -578.038937151432, -1810.4706089496613, -197.70607125759125
 1.7075962066505966E9, -144.3302190899849, -574.927340388298, -1804.008061826229, -190.52546334266663
 1.707596206664136E9, -92.62984210252762, -503.1212612390518, -1718.7981812357903, -155.10113096237183
 1.707596206664136E9, -112.0174834728241, -536.8701184391975, -1762.3605359196663, -171.8558827638626
 1.7075962066791658E9, -151.51082700490952, -581.8685947060585, -1828.1827751398087, -193.39770650863647
 1.7075962066791658E9, -112.0174834728241, -524.4237313866615, -1732.9200434684753, -160.36691009998322
 1.707596206694866E9, -152.94694858789444, -593.3575673699379, -1837.0388582348824, -204.1686183810234
 1.707596206694866E9, -115.1290802359581, -548.5984447002411, -1778.1578733325005, -173.29200434684753
 1.7075962066953592E9, -89.51824533939362, -512.695405125618, -1719.5162420272827, -156.53725254535675
 1.7075962066953592E9, -136.4315503835678, -574.2092795968056, -1806.880304992199, -191.7222313284874
 1.707596206709012E9, -142.1760367155075, -584.2621306777, -1818.3692776560783, -197.4667176604271
 1.707596206709012E9, -101.00721800327301, -507.4296259880066, -1719.0375348329544, -158.9307885169983
 1.7075962067246435E9, -121.83098095655441, -543.3326655626297, -1765.4721326828003, -169.70170038938522
 1.7075962067246435E9, -156.05854535102844, -586.6556666493416, -1832.0124326944351, -194.3551208972931
 1.7075962067253027E9, -100.76786440610886, -525.141792178154, -1737.4677618145943, -157.73402053117752
 1.7075962067253027E9, -97.4169140458107, -525.8598529696465, -1729.0903859138489, -155.10113096237183
 1.7075962067389555E9, -148.87793743610382, -589.2885562181473, -1831.0550183057785, -195.3125352859497
 1.7075962067389555E9, -129.49029606580734, -557.2151741981506, -1785.338481247425, -181.90873384475708
 1.7075962067546542E9, -92.86919569969177, -509.3444547653198, -1716.4046452641487, -153.42565578222275
 1.7075962067546542E9, -136.4315503835678, -582.586655497551, -1809.2738409638405, -190.52546334266663
 1.7075962067553563E9, -142.41539031267166, -567.028671681881, -1806.880304992199, -184.78097701072693
 1.7075962067553563E9, -84.97052699327469, -501.92449325323105, -1707.548562169075, -148.63858383893967
 1.7075962067689872E9, -116.08649462461472, -546.4442623257637, -1766.429547071457, -176.88230830430984
 1.7075962067689872E9, -147.9205230474472, -590.0066170096397, -1830.8156647086143, -199.14219284057617
 1.7075962067851508E9, -112.73554426431656, -523.4663169980049, -1743.4516017436981, -166.59010362625122
 1.7075962067851508E9, -100.0498036146164, -519.8760130405426, -1733.6381042599678, -164.43592125177383
 1.70759620678556E9, -148.87793743610382, -590.2459706068039, -1833.9272614717484, -201.0570216178894
 1.70759620678556E9, -125.89999210834503, -550.7526270747185, -1781.7481772899628, -174.4887723326683
 1.707596206799209E9, -96.93820685148239, -508.62639397382736, -1726.4574963450432, -162.76044607162476
 1.707596206799209E9, -133.79866081476212, -574.2092795968056, -1804.7261226177216, -189.56804895401
 1.7075962068148677E9, -138.34637916088104, -575.4060475826263, -1817.89057046175, -190.28610974550247
 1.7075962068148677E9, -93.58725649118423, -512.9347587227821, -1725.0213747620583, -156.2978989481926
 1.7075962068154986E9, -116.80455541610718, -544.0507263541222, -1767.1476078629494, -176.88230830430984
 1.7075962068154986E9, -138.5857327580452, -582.1079483032227, -1827.7040679454803, -194.8338280916214
 1.7075962068291986E9, -114.65037304162979, -526.3385601639748, -1742.9728945493698, -166.82945722341537
 1.7075962068291986E9, -106.75170433521271, -523.9450241923332, -1731.9626290798187, -158.9307885169983
 1.7075962068449876E9, -157.73402053117752, -594.3149817585945, -1833.6879078745842, -203.6899111866951
 1.7075962068449876E9, -135.23478239774704, -555.7790526151657, -1773.8495085835457, -176.40360110998154
 1.7075962068455064E9, -99.81045001745224, -509.82316195964813, -1712.5749877095222, -153.90436297655106
 1.7075962068455064E9, -138.1070255637169, -566.0712572932243, -1806.880304992199, -183.58420902490616
 1.7075962068589327E9, -136.91025757789612, -569.9009148478508, -1809.5131945610046, -182.62679463624954
 1.7075962068589327E9, -96.93820685148239, -506.71156519651413, -1721.1917172074318, -149.11729103326797
 1.7075962068749835E9, -112.0174834728241, -539.2636544108391, -1762.8392431139946, -168.02622520923615
 1.7075962068749835E9, -150.5534126162529, -590.0066170096397, -1829.1401895284653, -193.39770650863647
 1.7075962068755083E9, -103.1614003777504, -518.4398914575577, -1736.989054620266, -153.42565578222275
 1.7075962068755083E9, -104.59752196073532, -521.7908418178558, -1735.3135794401169, -159.64884930849075
 1.7075962068892183E9, -149.11729103326797, -584.5014842748642, -1830.5763111114502, -194.8338280916214
 1.7075962068892183E9, -126.6180528998375, -550.034566283226, -1780.551409304142, -175.44618672132492
 1.707596206904713E9, -96.45949965715408, -509.10510116815567, -1716.1652916669846, -152.46824139356613
 1.707596206904713E9, -135.9528431892395, -570.8583292365074, -1805.444183409214, -187.65322017669678
 1.707596206905385E9, -142.65474390983582, -575.6454011797905, -1812.8641449213028, -192.679645717144
 1.707596206905385E9, -97.4169140458107, -500.4883716702461, -1713.2930485010147, -154.62242376804352
 1.7075962069191363E9, -123.50645613670349, -554.5822846293449, -1770.0198510289192, -177.121661901474
 1.7075962069191363E9, -162.9997996687889, -599.82011449337, -1833.209200680256, -204.88667917251587
 1.707596206934916E9, -118.2406769990921, -533.0404608845711, -1748.9567344784737, -176.16424751281738
 1.707596206934916E9, -108.9058867096901, -529.4501569271088, -1742.9728945493698, -167.786871612072
 1.7075962069353755E9, -164.91462844610214, -602.2136504650116, -1842.543990969658, -209.19504392147064
 1.7075962069353755E9, -139.0644399523735, -558.8906493782997, -1797.784868299961, -191.7222313284874
 1.7075962069492867E9, -102.92204678058624, -512.9347587227821, -1723.5852531790733, -162.0423852801323
 1.7075962069492867E9, -150.0747054219246, -584.7408378720284, -1818.1299240589142, -204.1686183810234
 1.7075962069647226E9, -151.51082700490952, -583.5440698862076, -1826.9860071539879, -204.1686183810234
 1.7075962069647226E9, -109.14524030685425, -519.3973058462143, -1730.0478003025055, -171.61652916669846
 1.7075962069654052E9, -119.67679858207703, -549.0771518945694, -1777.439812541008, -182.8661482334137
 1.7075962069654052E9, -157.2553133368492, -595.9904569387436, -1840.1504549980164, -205.12603276968002
 1.707596206979051E9, -110.58136188983917, -525.3811457753181, -1751.110916852951, -171.13782197237015
 1.707596206979051E9, -102.92204678058624, -516.5250626802444, -1741.2974193692207, -165.39333564043045
 1.7075962069947913E9, -145.76634067296982, -595.033042550087, -1838.4749798178673, -205.36538636684418
 1.7075962069947913E9, -129.2509424686432, -553.6248702406883, -1790.3649067878723, -186.21709859371185
 1.7075962069954011E9, -95.50208526849747, -507.66897958517075, -1719.7555956244469, -157.49466693401337
 1.7075962069954011E9, -135.4741359949112, -574.6879867911339, -1813.5822057127953, -194.3551208972931
 1.7075962070090165E9, -145.2876334786415, -583.7834234833717, -1820.5234600305557, -197.22736406326294
 1.7075962070090165E9, -102.92204678058624, -511.9773443341255, -1721.67042440176, -162.0423852801323
 1.7075962070251448E9, -115.36843383312225, -536.1520576477051, -1768.3443758487701, -173.29200434684753
 1.7075962070251448E9, -153.1863021850586, -596.2298105359077, -1845.1768805384636, -207.04086154699326
 1.7075962070254908E9, -107.70911872386932, -526.0992065668106, -1749.1960880756378, -169.46234679222107
 1.7075962070254908E9, -102.20398598909378, -522.2695490121841, -1745.8451377153397, -174.01006513834
 1.707596207039276E9, -153.6650093793869, -597.1872249245644, -1839.1930406093597, -206.3228007555008
 1.707596207039276E9, -122.78839534521103, -551.4706878662109, -1782.9449452757835, -178.55778348445892
 1.7075962070548515E9, -90.23630613088608, -502.6425540447235, -1715.207877278328, -144.56957268714905
 1.7075962070548515E9, -133.55930721759796, -571.815743625164, -1803.5293546319008, -185.02033060789108
 1.7075962070554245E9, -146.24504786729813, -572.2944508194923, -1809.5131945610046, -185.4990378022194
 1.7075962070554245E9, -102.68269318342209, -506.71156519651413, -1714.4898164868355, -147.4418158531189
 1.7075962070690343E9, -126.6180528998375, -546.922969520092, -1768.8230830430984, -171.3771755695343
 1.7075962070690343E9, -160.84561729431152, -599.1020537018776, -1833.9272614717484, -194.11576730012894
 1.7075962070846653E9, -113.45360505580902, -528.9714497327805, -1743.9303089380264, -165.1539820432663
 1.7075962070846653E9, -106.99105793237686, -526.3385601639748, -1736.0316402316093, -159.64884930849075
 1.7075962070853984E9, -157.01595973968506, -598.3839929103851, -1840.6291621923447, -202.01443600654602
 1.7075962070853984E9, -133.79866081476212, -560.805478155613, -1791.322321176529, -185.73839139938354
 1.7075962070995002E9, -94.784024477005, -508.8657475709915, -1724.54266756773, -157.49466693401337
 1.7075962070995002E9, -138.5857327580452, -568.4647932648659, -1815.9757416844368, -194.8338280916214
 1.7075962071146953E9, -148.15987664461136, -583.7834234833717, -1816.9331560730934, -198.4241320490837
 1.7075962071146953E9, -101.96463239192963, -516.0463554859161, -1727.4149107336998, -157.2553133368492
 1.7075962071153686E9, -126.13934570550919, -558.4119421839714, -1777.2004589438438, -180.47261226177216
 1.7075962071153686E9, -158.69143491983414, -602.4530040621758, -1847.0917093157768, -208.23762953281403
 1.7075962071292293E9, -118.71938419342041, -532.3224000930786, -1756.1373423933983, -171.3771755695343
 1.7075962071292293E9, -111.77812987565994, -536.1520576477051, -1745.1270769238472, -174.9674795269966
 1.7075962071449192E9, -154.62242376804352, -598.144639313221, -1832.9698470830917, -205.12603276968002
 1.7075962071449192E9, -134.27736800909042, -562.480953335762, -1790.1255531907082, -184.54162341356277
 1.7075962071454341E9, -93.58725649118423, -512.9347587227821, -1723.5852531790733, -160.60626369714737
 1.7075962071454341E9, -135.9528431892395, -575.8847547769547, -1818.8479848504066, -197.4667176604271
 1.7075962071589704E9, -146.48440146446228, -574.6879867911339, -1814.5396201014519, -196.50930327177048
 1.7075962071589704E9, -92.15113490819931, -511.4986371397972, -1717.1227060556412, -151.27147340774536
 1.7075962071746716E9, -112.0174834728241, -545.4868479371071, -1764.0360110998154, -171.3771755695343
 1.7075962071746716E9, -151.75018060207367, -589.2885562181473, -1832.0124326944351, -200.81766802072525
 1.7075962071753917E9, -109.62394750118256, -531.1256321072578, -1750.871563255787, -168.50493240356445
 1.7075962071753917E9, -100.0498036146164, -517.7218306660652, -1738.1858226060867, -163.71786046028137
 1.7075962071889844E9, -144.8089262843132, -587.6130810379982, -1837.0388582348824, -202.49314320087433
 1.7075962071889844E9, -130.2083568572998, -553.6248702406883, -1798.0242218971252, -188.6106345653534
 1.7075962072046697E9, -95.98079246282578, -515.0889410972595, -1726.6968499422073, -166.35075002908707
 1.7075962072046697E9, -134.51672160625458, -577.3208763599396, -1814.0609129071236, -196.50930327177048
 1.7075962072053812E9, -143.85151189565659, -582.1079483032227, -1826.0285927653313, -198.4241320490837
 1.7075962072053812E9, -98.61368203163147, -509.3444547653198, -1725.0213747620583, -160.36691009998322
 1.7075962072356968E9, -116.56520181894302, -546.922969520092, -1767.3869614601135, -176.40360110998154
 1.7075962072356968E9, -148.63858383893967, -588.5704954266548, -1837.5175654292107, -199.14219284057617
 1.7075962072361965E9, -118.95873779058456, -533.0404608845711, -1753.2650992274284, -173.29200434684753
 1.7075962072361965E9, -107.23041152954102, -526.5779137611389, -1736.0316402316093, -162.0423852801323
 1.7075962072370172E9, -157.2553133368492, -600.5381752848625, -1829.8582503199577, -197.70607125759125
 1.7075962072370172E9, -132.60189282894135, -554.3429310321808, -1788.450078010559, -181.43002665042877
 1.7075962072492828E9, -94.54467087984085, -508.3870403766632, -1717.6014132499695, -158.21272772550583
 1.7075962072492828E9, -137.38896477222443, -570.8583292365074, -1809.0344873666763, -188.6106345653534
 1.7075962072647076E9, -145.52698707580566, -579.7144123315811, -1810.231255352497, -191.48287773132324
 1.7075962072647076E9, -96.45949965715408, -506.9509187936783, -1718.0801204442978, -155.10113096237183
 1.70759620726542E9, -119.19809138774872, -545.0081407427788, -1763.7966575026512, -168.7442860007286
 1.70759620726542E9, -148.63858383893967, -592.6395065784454, -1837.0388582348824, -199.62090003490448
 1.707596207279058E9, -111.53877627849579, -527.7746817469597, -1753.2650992274284, -169.94105398654938
 1.707596207279058E9, -101.24657160043716, -517.7218306660652, -1736.7497010231018, -156.53725254535675
 1.7075962072946095E9, -150.5534126162529, -588.809849023819, -1830.8156647086143, -194.11576730012894
 1.7075962072946095E9, -127.0967600941658, -552.6674558520317, -1778.1578733325005, -180.233258664608
 1.7075962072953236E9, -97.89562124013901, -505.03609001636505, -1724.3033139705658, -162.28173887729645
 1.7075962072953236E9, -136.67090398073196, -576.1241083741188, -1802.33258664608, -189.0893417596817
 1.7075962073089995E9, -148.3992302417755, -582.1079483032227, -1824.5924711823463, -193.87641370296478
 1.7075962073089995E9, -103.6401075720787, -518.918598651886, -1731.2445682883263, -159.4094957113266
 1.7075962073247693E9, -117.28326261043549, -543.811372756958, -1766.429547071457, -178.31842988729477
 1.7075962073247693E9, -157.49466693401337, -598.8627001047134, -1841.3472229838371, -209.67375111579895
 1.7075962073254476E9, -114.88972663879395, -532.0830464959145, -1753.7438064217567, -169.94105398654938
 1.7075962073254476E9, -110.10265469551086, -527.2959745526314, -1740.1006513834, -164.43592125177383
 1.7075962073392432E9, -148.87793743610382, -582.1079483032227, -1828.1827751398087, -194.8338280916214
 1.7075962073392432E9, -130.44771045446396, -552.6674558520317, -1787.9713708162308, -176.88230830430984
 1.7075962073548946E9, -92.62984210252762, -500.4883716702461, -1710.4208053350449, -145.2876334786415
 1.7075962073548946E9, -138.82508635520935, -565.8319036960602, -1806.6409513950348, -185.25968420505524
 1.7075962073553903E9, -142.65474390983582, -577.7995835542679, -1807.8377193808556, -186.456452190876
 1.7075962073553903E9, -103.40075397491455, -516.2857090830803, -1721.431070804596, -161.08497089147568
 1.707596207369185E9, -119.67679858207703, -543.811372756958, -1767.6263150572777, -176.88230830430984
 1.707596207369185E9, -158.9307885169983, -593.3575673699379, -1843.9801125526428, -206.3228007555008
 1.7075962073849783E9, -119.43744498491287, -532.8011072874069, -1755.1799280047417, -165.1539820432663
 1.7075962073849783E9, -102.44333958625793, -519.8760130405426, -1731.005214691162, -155.8191917538643
 1.7075962073854513E9, -155.10113096237183, -593.8362745642662, -1832.7304934859276, -195.55188888311386
 1.7075962073854513E9, -135.71348959207535, -557.2151741981506, -1792.7584427595139, -187.65322017669678
 1.7075962073994117E9, -99.33174282312393, -506.2328580021858, -1718.7981812357903, -155.34048455953598
 1.7075962073994117E9, -134.03801441192627, -568.9435004591942, -1797.0668075084686, -190.28610974550247
 1.7075962074146905E9, -145.52698707580566, -573.251865208149, -1816.454448878765, -191.00417053699493
 1.7075962074146905E9, -102.68269318342209, -506.47221159935, -1724.3033139705658, -160.12755650281906
 1.707596207415437E9, -111.29942268133163, -533.9978752732277, -1760.6850607395172, -169.94105398654938
 1.707596207415437E9, -145.2876334786415, -586.1769594550133, -1834.4059686660767, -199.62090003490448
 1.7075962074292316E9, -113.45360505580902, -527.0566209554672, -1752.0683312416077, -170.41976118087769
 1.7075962074292316E9, -102.68269318342209, -522.9876098036766, -1729.0903859138489, -155.57983815670013
 1.7075962074453008E9, -137.14961117506027, -582.1079483032227, -1823.8744103908539, -189.32869535684586
 1.7075962074453008E9, -130.2083568572998, -550.9919806718826, -1787.7320172190666, -184.06291621923447
 1.7075962074457068E9, -88.560830950737, -495.4619461297989, -1711.1388661265373, -151.98953419923782
 1.7075962074457068E9, -131.64447844028473, -561.0448317527771, -1802.8112938404083, -186.93515938520432
 1.707596207459456E9, -150.5534126162529, -581.8685947060585, -1817.6512168645859, -192.2009385228157
 1.707596207459456E9, -105.31558275222778, -518.6792450547218, -1726.4574963450432, -158.21272772550583
 1.7075962074749641E9, -115.60778743028641, -538.7849472165108, -1761.6424751281738, -169.94105398654938
 1.7075962074749641E9, -150.79276621341705, -586.4163130521774, -1835.3633830547333, -200.5783144235611
 1.707596207475549E9, -113.69295865297318, -521.7908418178558, -1751.110916852951, -163.95721405744553
 1.707596207475549E9, -99.57109642028809, -508.8657475709915, -1727.1755571365356, -156.53725254535675
 1.7075962074895082E9, -140.97926872968674, -575.4060475826263, -1820.2841064333916, -184.54162341356277
 1.7075962074895082E9, -131.16577124595642, -557.4545277953148, -1783.1842988729477, -178.55778348445892
 1.7075962075046887E9, -92.86919569969177, -503.1212612390518, -1708.0272693634033, -147.68116945028305
 1.7075962075046887E9, -127.57546728849411, -566.7893180847168, -1793.7158571481705, -180.95131945610046
 1.7075962075053966E9, -146.00569427013397, -583.7834234833717, -1824.3531175851822, -198.4241320490837
 1.7075962075053966E9, -95.02337807416916, -506.47221159935, -1717.3620596528053, -151.98953419923782
 1.7075962075193813E9, -108.9058867096901, -537.3488256335258, -1760.6850607395172, -169.94105398654938
 1.7075962075193813E9, -144.56957268714905, -589.5279098153114, -1835.6027366518974, -199.38154643774033
 1.7075962075348518E9, -109.14524030685425, -523.7056705951691, -1748.7173808813095, -165.6326892375946
 1.7075962075348518E9, -100.5285108089447, -518.2005378603935, -1734.3561650514603, -154.86177736520767
 1.70759620753546E9, -144.8089262843132, -587.6130810379982, -1830.8156647086143, -197.70607125759125
 1.70759620753546E9, -131.64447844028473, -559.6087101697922, -1785.5778348445892, -180.47261226177216
 1.7075962075489907E9, -97.65626764297485, -519.1579522490501, -1723.106545984745, -159.64884930849075
 1.7075962075489907E9, -133.79866081476212, -570.6189756393433, -1801.3751722574234, -183.344855427742
 1.7075962075646844E9, -152.46824139356613, -584.9801914691925, -1826.2679463624954, -193.63706010580063
 1.7075962075646844E9, -99.81045001745224, -508.3870403766632, -1725.7394355535507, -156.2978989481926
 1.7075962075654016E9, -111.53877627849579, -539.2636544108391, -1755.8979887962341, -172.81329715251923
 1.7075962075654016E9, -147.9205230474472, -595.033042550087, -1826.7466535568237, -193.87641370296478
 1.7075962075792973E9, -103.87946116924286, -522.7482562065125, -1742.9728945493698, -159.4094957113266
 1.7075962075792973E9, -97.17756044864655, -517.9611842632294, -1728.3723251223564, -156.53725254535675
 1.7075962075947604E9, -142.65474390983582, -588.809849023819, -1827.225360751152, -188.6106345653534
 1.7075962075947604E9, -128.53288167715073, -553.14616304636, -1785.099127650261, -173.77071154117584
 1.7075962075954027E9, -82.8163446187973, -496.4193605184555, -1708.0272693634033, -143.85151189565659
 1.7075962075954027E9, -119.91615217924118, -561.2841853499413, -1791.0829675793648, -179.51519787311554
 1.7075962076093197E9, -136.19219678640366, -572.5338044166565, -1809.991901755333, -188.6106345653534
 1.7075962076093197E9, -86.16729497909546, -499.77031087875366, -1715.6865844726562, -155.34048455953598
 1.7075962076250966E9, -108.9058867096901, -539.0243008136749, -1759.7276463508606, -172.57394355535507
 1.7075962076250966E9, -149.59599822759628, -595.7511033415794, -1831.5337255001068, -201.5357288122177
 1.707596207625448E9, -106.75170433521271, -522.9876098036766, -1744.887723326683, -168.7442860007286
 1.707596207625448E9, -97.89562124013901, -523.7056705951691, -1736.7497010231018, -170.18040758371353
 1.707596207639109E9, -148.15987664461136, -593.8362745642662, -1826.7466535568237, -202.25378960371017
 1.707596207639109E9, -127.81482088565826, -552.6674558520317, -1787.4926636219025, -186.69580578804016
 1.7075962076546788E9, -98.13497483730316, -507.19027239084244, -1714.9685236811638, -156.05854535102844
 1.7075962076546788E9, -134.75607520341873, -568.70414686203, -1797.3061611056328, -189.0893417596817
 1.7075962076554189E9, -146.24504786729813, -580.9111803174019, -1821.4808744192123, -200.81766802072525
 1.7075962076554189E9, -98.13497483730316, -506.71156519651413, -1717.6014132499695, -162.0423852801323
 1.7075962076692069E9, -113.69295865297318, -529.2108033299446, -1759.7276463508606, -171.3771755695343
 1.7075962076692069E9, -154.1437165737152, -592.4001529812813, -1834.1666150689125, -203.45055758953094
 1.7075962076844316E9, -114.17166584730148, -532.3224000930786, -1749.9141488671303, -167.30816441774368
 1.7075962076844316E9, -101.24657160043716, -523.2269634008408, -1729.8084467053413, -157.97337412834167
 1.707596207700216E9, -133.3199536204338, -557.9332349896431, -1789.1681388020515, -186.93515938520432
 1.707596207700216E9, -94.3053172826767, -506.47221159935, -1710.4208053350449, -155.8191917538643
 1.7075962077005048E9, -139.30379354953766, -572.7731580138206, -1804.2474154233932, -185.73839139938354
 1.7075962077005048E9, -148.15987664461136, -580.4324731230736, -1819.8053992390633, -190.28610974550247
 1.7075962077140267E9, -90.95436692237854, -501.92449325323105, -1720.4736564159393, -152.22888779640198
 1.7075962077140267E9, -107.70911872386932, -540.699775993824, -1764.2753646969795, -170.65911477804184
 1.7075962077296505E9, -155.57983815670013, -592.1607993841171, -1838.2356262207031, -198.66348564624786
 1.7075962077296505E9, -114.65037304162979, -528.9714497327805, -1749.9141488671303, -171.13782197237015
 1.7075962077303977E9, -102.20398598909378, -518.2005378603935, -1730.0478003025055, -165.6326892375946
 1.7075962077303977E9, -151.0321198105812, -592.4001529812813, -1830.8156647086143, -206.08344715833664
 1.7075962077442465E9, -128.29352807998657, -552.4281022548676, -1793.4765035510063, -185.02033060789108
 1.7075962077442465E9, -85.9279413819313, -506.71156519651413, -1707.7879157662392, -152.94694858789444
 1.7075962077599473E9, -127.33611369132996, -567.7467324733734, -1795.1519787311554, -188.37128096818924
 1.7075962077599473E9, -140.26120793819427, -570.140268445015, -1820.2841064333916, -194.59447449445724
 1.7075962077605484E9, -92.15113490819931, -501.6851396560669, -1716.4046452641487, -155.10113096237183
 1.7075962077605484E9, -105.55493634939194, -524.1843777894974, -1749.1960880756378, -166.1113964319229
 1.7075962077740932E9, -146.24504786729813, -586.1769594550133, -1835.1240294575691, -202.49314320087433
 1.7075962077740932E9, -108.66653311252594, -523.4663169980049, -1744.1696625351906, -160.36691009998322
 1.7075962077902153E9, -100.28915721178055, -518.2005378603935, -1726.9362035393715, -158.21272772550583
 1.7075962077902153E9, -146.00569427013397, -586.4163130521774, -1823.6350567936897, -196.26994967460632
 1.7075962077905152E9, -129.7296496629715, -553.3855166435242, -1785.8171884417534, -180.233258664608
 1.7075962077905152E9, -95.02337807416916, -512.9347587227821, -1718.319474041462, -155.57983815670013
 1.707596207804242E9, -134.75607520341873, -567.9860860705376, -1793.2371499538422, -187.17451298236847
 1.707596207804242E9, -146.24504786729813, -581.8685947060585, -1824.8318247795105, -196.74865686893463
 1.7075962078199952E9, -93.10854929685593, -496.8980677127838, -1719.994949221611, -154.38307017087936
 1.7075962078199952E9, -107.46976512670517, -532.8011072874069, -1758.5308783650398, -172.81329715251923
 1.707596207820434E9, -146.00569427013397, -581.8685947060585, -1829.6188967227936, -196.98801046609879
 1.707596207820434E9, -107.23041152954102, -526.8172673583031, -1750.3928560614586, -164.19656765460968
 1.7075962078340173E9, -92.39048850536346, -509.82316195964813, -1724.0639603734016, -151.98953419923782
 1.7075962078340173E9, -135.4741359949112, -577.5602299571037, -1813.5822057127953, -185.73839139938354
 1.7075962078496428E9, -122.54904174804688, -547.6410303115845, -1781.5088236927986, -170.898468375206
 1.7075962078496428E9, -80.18345504999161, -493.06841015815735, -1701.5647222399712, -141.45797592401505
 1.7075962078503804E9, -122.30968815088272, -557.4545277953148, -1781.5088236927986, -173.77071154117584
 1.7075962078503804E9, -137.62831836938858, -567.2680252790451, -1806.880304992199, -181.19067305326462
 1.7075962078642776E9, -94.3053172826767, -495.9406533241272, -1714.7291700839996, -149.35664463043213
 1.7075962078642776E9, -113.69295865297318, -532.5617536902428, -1744.1696625351906, -162.9997996687889
 1.7075962078799672E9, -151.51082700490952, -585.9376058578491, -1826.0285927653313, -187.89257377386093
 1.7075962078799672E9, -115.36843383312225, -527.2959745526314, -1742.0154801607132, -154.86177736520767
 1.7075962078804495E9, -101.72527879476547, -512.9347587227821, -1718.319474041462, -148.87793743610382
 1.7075962078804495E9, -149.35664463043213, -589.2885562181473, -1823.8744103908539, -193.87641370296478
 1.707596207894266E9, -133.3199536204338, -556.4971134066582, -1789.6468459963799, -181.43002665042877
 1.707596207894266E9, -96.69885325431824, -509.10510116815567, -1713.771755695343, -155.8191917538643
 1.7075962079100463E9, -132.8412464261055, -567.9860860705376, -1798.9816362857819, -186.456452190876
 1.7075962079100463E9, -144.56957268714905, -578.9963515400887, -1815.9757416844368, -185.73839139938354
 1.7075962079105463E9, -97.89562124013901, -501.92449325323105, -1720.7130100131035, -147.9205230474472
 1.7075962079105463E9, -108.18782591819763, -540.4604223966599, -1751.3502704501152, -159.64884930849075
 1.7075962079243782E9, -145.04827988147736, -589.7672634124756, -1828.4221287369728, -190.52546334266663
 1.7075962079243782E9, -106.99105793237686, -513.4134659171104, -1746.8025521039963, -162.9997996687889
 1.7075962079398808E9, -91.672427713871, -506.71156519651413, -1726.4574963450432, -155.34048455953598
 1.7075962079398808E9, -137.62831836938858, -576.363461971283, -1818.8479848504066, -186.93515938520432
 1.707596207940458E9, -123.50645613670349, -548.3590911030769, -1783.1842988729477, -172.33458995819092
 1.707596207940458E9, -92.62984210252762, -499.0522500872612, -1705.3943797945976, -148.15987664461136
 1.707596207953997E9, -127.81482088565826, -556.257759809494, -1786.5352492332458, -174.01006513834
 1.707596207953997E9, -143.85151189565659, -576.363461971283, -1810.7099625468254, -182.8661482334137
 1.7075962079696531E9, -95.98079246282578, -503.5999684333801, -1718.0801204442978, -150.0747054219246
 1.7075962079696531E9, -110.10265469551086, -536.3914112448692, -1755.1799280047417, -167.54751801490784
 1.7075962079703743E9, -150.5534126162529, -586.1769594550133, -1832.0124326944351, -193.87641370296478
 1.7075962079703743E9, -110.10265469551086, -529.2108033299446, -1743.212248146534, -157.97337412834167
 1.707596207984202E9, -102.20398598909378, -517.4824770689011, -1729.5690931081772, -157.49466693401337
 1.707596207984202E9, -149.83535182476044, -580.6718267202377, -1825.549885571003, -196.26994967460632
 1.707596207999681E9, -133.3199536204338, -549.7952126860619, -1783.1842988729477, -174.01006513834
 1.707596207999681E9, -95.02337807416916, -499.0522500872612, -1708.2666229605675, -149.83535182476044
 1.7075962080004432E9, -124.46387052536011, -559.6087101697922, -1787.2533100247383, -175.44618672132492
 1.7075962080004432E9, -133.08060002326965, -573.251865208149, -1811.667376935482, -188.13192737102509
 1.707596208014176E9, -98.37432843446732, -509.10510116815567, -1716.883352458477, -157.49466693401337
 1.707596208014176E9, -111.53877627849579, -540.4604223966599, -1758.2915247678757, -168.98363959789276
 1.7075962080299747E9, -145.76634067296982, -589.5279098153114, -1835.3633830547333, -197.4667176604271
 1.7075962080299747E9, -110.34200829267502, -527.5353281497955, -1758.770231962204, -174.4887723326683
 1.707596208030414E9, -100.28915721178055, -515.3282946944237, -1727.654264330864, -161.80303168296814
 1.707596208030414E9, -143.61215829849243, -585.698252260685, -1829.8582503199577, -197.22736406326294
 1.707596208044252E9, -127.0967600941658, -552.1887486577034, -1784.3810668587685, -177.83972269296646
 1.707596208044252E9, -86.40664857625961, -502.40320044755936, -1708.98468375206, -150.5534126162529
 1.7075962080596807E9, -129.96900326013565, -563.1990141272545, -1789.6468459963799, -183.8235626220703
 1.7075962080596807E9, -139.5431471467018, -574.6879867911339, -1813.103498518467, -187.89257377386093
 1.707596208060338E9, -94.54467087984085, -506.47221159935, -1722.6278387904167, -151.98953419923782
 1.707596208060338E9, -110.58136188983917, -543.5720191597939, -1752.3076848387718, -163.23915326595306
 1.7075962080740042E9, -146.9631086587906, -589.2885562181473, -1828.661482334137, -198.4241320490837
 1.7075962080740042E9, -109.3845939040184, -523.9450241923332, -1739.6219441890717, -157.2553133368492
 1.7075962080896213E9, -90.47565972805023, -517.9611842632294, -1719.5162420272827, -150.5534126162529
 1.7075962080896213E9, -141.6973295211792, -583.3047162890434, -1816.454448878765, -189.56804895401
 1.7075962080903523E9, -130.2083568572998, -547.4016767144203, -1781.0301164984703, -176.6429547071457
 1.7075962080903523E9, -87.36406296491623, -497.3767749071121, -1701.325368642807, -138.5857327580452
 1.7075962081043897E9, -121.83098095655441, -560.5661245584488, -1787.0139564275742, -173.05265074968338
 1.7075962081043897E9, -137.62831836938858, -569.4222076535225, -1805.6835370063782, -186.93515938520432
 1.7075962081197507E9, -90.47565972805023, -503.5999684333801, -1711.1388661265373, -149.35664463043213
 1.7075962081197507E9, -105.79428994655609, -524.9024385809898, -1745.1270769238472, -162.5210924744606
 1.7075962081203775E9, -151.75018060207367, -589.7672634124756, -1826.7466535568237, -194.59447449445724
 1.7075962081203775E9, -111.53877627849579, -525.141792178154, -1757.094756782055, -167.786871612072
 1.7075962081341183E9, -102.44333958625793, -518.4398914575577, -1736.989054620266, -157.73402053117752
 1.7075962081341183E9, -144.56957268714905, -582.3473019003868, -1830.5763111114502, -198.66348564624786
 1.7075962081505733E9, -133.3199536204338, -557.4545277953148, -1786.0565420389175, -182.8661482334137
 1.7075962081505733E9, -93.34790289402008, -503.1212612390518, -1715.207877278328, -152.46824139356613
 1.7075962081506965E9, -134.75607520341873, -569.9009148478508, -1787.2533100247383, -179.03649067878723
 1.7075962081506965E9, -145.76634067296982, -583.0653626918793, -1820.5234600305557, -190.52546334266663
 1.707596208163925E9, -97.89562124013901, -507.19027239084244, -1714.4898164868355, -158.9307885169983
 1.707596208163925E9, -109.14524030685425, -533.9978752732277, -1753.2650992274284, -171.3771755695343
 1.7075962081796987E9, -151.27147340774536, -589.7672634124756, -1829.3795431256294, -201.0570216178894
 1.7075962081796987E9, -112.73554426431656, -525.8598529696465, -1749.6747952699661, -166.82945722341537
 1.7075962081803987E9, -94.54467087984085, -509.10510116815567, -1722.3884851932526, -159.17014211416245
 1.7075962081803987E9, -137.38896477222443, -574.4486331939697, -1821.9595816135406, -188.13192737102509
 1.7075962081940916E9, -130.92641764879227, -553.6248702406883, -1793.2371499538422, -179.51519787311554
 1.7075962081940916E9, -85.20988059043884, -498.33418929576874, -1701.325368642807, -143.13345110416412
 1.7075962082097163E9, -126.6180528998375, -558.4119421839714, -1787.4926636219025, -175.44618672132492
 1.7075962082097163E9, -143.61215829849243, -574.6879867911339, -1819.326692044735, -189.0893417596817
 1.7075962082103648E9, -96.93820685148239, -505.7541508078575, -1716.4046452641487, -153.42565578222275
 1.7075962082103648E9, -102.44333958625793, -525.3811457753181, -1747.999320089817, -164.19656765460968
 1.7075962082239635E9, -146.48440146446228, -586.4163130521774, -1825.0711783766747, -195.3125352859497
 1.7075962082239635E9, -112.25683706998825, -533.2798144817352, -1755.1799280047417, -168.2655788064003
 1.7075962082397113E9, -98.85303562879562, -513.8921731114388, -1728.1329715251923, -157.49466693401337
 1.7075962082397113E9, -139.78250074386597, -583.7834234833717, -1821.2415208220482, -190.04675614833832
 1.707596208240368E9, -128.77223527431488, -557.2151741981506, -1790.3649067878723, -179.51519787311554
 1.707596208240368E9, -97.17756044864655, -509.3444547653198, -1720.9523636102676, -153.6650093793869
 1.707596208254334E9, -127.57546728849411, -557.6938813924789, -1790.6042603850365, -182.8661482334137
 1.707596208254334E9, -147.68116945028305, -578.2782907485962, -1824.113763988018, -198.4241320490837
 1.7075962082696805E9, -93.82661008834839, -505.99350440502167, -1718.7981812357903, -156.7766061425209
 1.7075962082696805E9, -105.07622915506363, -522.7482562065125, -1743.9303089380264, -164.19656765460968
 1.707596208270411E9, -142.41539031267166, -582.8260090947151, -1825.3105319738388, -190.28610974550247
 1.707596208270411E9, -101.48592519760132, -521.5514882206917, -1736.7497010231018, -152.70759499073029
 1.7075962082839634E9, -91.672427713871, -506.71156519651413, -1719.0375348329544, -147.68116945028305
 1.7075962082839634E9, -147.4418158531189, -584.2621306777, -1822.1989352107048, -191.96158492565155
 1.7075962082999349E9, -130.2083568572998, -556.0184062123299, -1791.8010283708572, -176.40360110998154
 1.7075962082999349E9, -85.449234187603, -495.70129972696304, -1716.883352458477, -147.68116945028305
 1.707596208300393E9, -132.3625392317772, -561.7628925442696, -1795.6306859254837, -186.69580578804016
 1.707596208300393E9, -150.0747054219246, -587.1343738436699, -1834.6453222632408, -199.86025363206863
 1.707596208313936E9, -97.4169140458107, -513.6528195142746, -1727.654264330864, -163.23915326595306
 1.707596208313936E9, -116.56520181894302, -537.8275328278542, -1767.1476078629494, -177.121661901474
 1.7075962083619137E9, -160.12755650281906, -601.0168824791908, -1847.0917093157768, -212.0672870874405
 1.7075962083619137E9, -122.07033455371857, -539.5030080080032, -1766.9082542657852, -183.10550183057785
 1.7075962083624177E9, -103.6401075720787, -524.6630849838257, -1734.5955186486244, -165.1539820432663
 1.7075962083624177E9, -144.56957268714905, -588.0917882323265, -1826.9860071539879, -197.4667176604271
 1.707596208363318E9, -125.66063851118088, -562.2415997385979, -1789.6468459963799, -182.3874410390854
 1.707596208363318E9, -84.49181979894638, -499.29160368442535, -1713.2930485010147, -153.90436297655106
 1.707596208363917E9, -122.30968815088272, -559.8480637669563, -1798.0242218971252, -190.28610974550247
 1.707596208363917E9, -147.9205230474472, -583.3047162890434, -1821.002167224884, -194.11576730012894
 1.7075962083746989E9, -94.784024477005, -512.4560515284538, -1723.3458995819092, -155.10113096237183
 1.7075962083746989E9, -106.03364354372025, -537.58817923069, -1748.4780272841454, -161.80303168296814
 1.7075962083753664E9, -146.00569427013397, -589.7672634124756, -1828.4221287369728, -187.89257377386093
 1.7075962083753664E9, -109.14524030685425, -525.6204993724823, -1743.212248146534, -157.73402053117752
 1.7075962083898723E9, -88.32147735357285, -508.62639397382736, -1720.2343028187752, -154.86177736520767
 1.7075962083898723E9, -134.03801441192627, -569.6615612506866, -1819.326692044735, -190.04675614833832
 1.70759620839037E9, -129.96900326013565, -556.0184062123299, -1787.4926636219025, -178.31842988729477
 1.70759620839037E9, -88.80018454790115, -494.5045317411423, -1708.98468375206, -146.9631086587906
 1.7075962084040835E9, -125.18193131685257, -564.3957821130753, -1794.1945643424988, -178.79713708162308
 1.7075962084040835E9, -144.8089262843132, -578.038937151432, -1818.8479848504066, -185.25968420505524
 1.7075962084201033E9, -107.23041152954102, -515.0889410972595, -1735.7922866344452, -158.21272772550583
 1.7075962084201033E9, -109.62394750118256, -532.0830464959145, -1756.8554031848907, -166.35075002908707
 1.7075962084204807E9, -153.42565578222275, -590.2459706068039, -1839.671747803688, -203.2112039923668
 1.7075962084204807E9, -117.04390901327133, -526.5779137611389, -1759.9669999480247, -171.61652916669846
 1.7075962084340575E9, -97.17756044864655, -511.73799073696136, -1729.8084467053413, -157.49466693401337
 1.7075962084340575E9, -150.79276621341705, -586.4163130521774, -1826.2679463624954, -198.66348564624786
 1.7075962084497886E9, -137.62831836938858, -561.2841853499413, -1793.7158571481705, -184.78097701072693
 1.7075962084497886E9, -94.784024477005, -498.0948356986046, -1718.558827638626, -149.83535182476044
 1.707596208450462E9, -131.64447844028473, -562.2415997385979, -1792.997796356678, -186.93515938520432
 1.707596208450462E9, -145.04827988147736, -578.038937151432, -1819.326692044735, -192.679645717144
 1.7075962084639804E9, -106.75170433521271, -512.9347587227821, -1734.116811454296, -161.80303168296814
 1.7075962084639804E9, -112.25683706998825, -534.9552896618843, -1753.0257456302643, -167.06881082057953
 1.707596208479754E9, -152.94694858789444, -581.6292411088943, -1835.8420902490616, -202.25378960371017
 1.707596208479754E9, -116.80455541610718, -528.7320961356163, -1755.1799280047417, -171.3771755695343
 1.7075962084804313E9, -96.45949965715408, -505.51479721069336, -1729.8084467053413, -156.53725254535675
