 Timestamp, EXG Channel 0, EXG Channel 1, EXG Channel 2, EXG Channel 3
 1.705430213994512E9, 43.56235468387604, 0.7180607914924622, -26.08954209089279, 452.6176522374153
 1.705430213994512E9, 0.0, 0.0, 0.0, 0.0
 1.7054302140383644E9, -98.13497483730316, -199.38154643774033, -174.72812592983246, 302.0642396211624
 1.7054302140383644E9, -23.217298924922943, -69.65189677476883, -73.9602615237236, 393.01860654354095
 1.705430214052997E9, 43.32300108671188, -20.58440935611725, -41.647525906562805, 449.74540907144547
 1.705430214052997E9, -66.06159281730652, -172.57394355535507, -157.73402053117752, 334.61632883548737
 1.70543021406856E9, -61.27452087402344, -129.7296496629715, -125.18193131685257, 338.92469358444214
 1.70543021406856E9, 49.78554821014404, 7.898668706417084, -16.994105398654938, 460.9950281381607
 1.7054302140827315E9, -29.679846048355103, -126.85740649700165, -122.07033455371857, 372.67355078458786
 1.7054302140827315E9, -86.16729497909546, -169.46234679222107, -145.76634067296982, 315.2286874651909
 1.705430214083391E9, 27.76501727104187, -1.1967679858207703, -27.525663673877716, 438.25643640756607
 1.705430214083391E9, 14.839923024177551, -63.66805684566498, -75.87509030103683, 417.911380648613
 1.7054302140977755E9, -92.39048850536346, -192.2009385228157, -162.76044607162476, 313.5532122850418
 1.7054302140977755E9, -13.403801441192627, -61.51387447118759, -64.38611763715744, 399.9598608613014
 1.70543021409828E9, 40.450757920742035, -14.839923024177551, -33.988210797309875, 454.7718346118927
 1.70543021409828E9, -80.66216224431992, -185.25968420505524, -167.30816441774368, 314.7499802708626
 1.7054302141118057E9, -65.34353202581406, -132.8412464261055, -124.22451692819595, 337.0098648071289
 1.7054302141118057E9, 41.88687950372696, -3.3509503602981567, -26.08954209089279, 450.7028234601021
 1.7054302141275184E9, -46.19524425268173, -141.6973295211792, -137.38896477222443, 357.354920566082
 1.7054302141275184E9, -96.69885325431824, -183.344855427742, -157.2553133368492, 310.20226192474365
 1.7054302141282032E9, 34.22756439447403, -6.7019007205963135, -25.850188493728638, 441.1286795735359
 1.7054302141282032E9, 14.361215829849243, -62.71064245700836, -75.39638310670853, 418.62944144010544
 1.705430214141944E9, -94.784024477005, -191.96158492565155, -169.70170038938522, 302.7823004126549
 1.705430214141944E9, -21.30247014760971, -67.01900720596313, -76.5931510925293, 384.16252344846725
 1.7054302141575663E9, 33.50950360298157, -27.046956479549408, -54.572620153427124, 435.6235468387604
 1.7054302141575663E9, -75.63573670387268, -182.8661482334137, -167.30816441774368, 324.5634777545929
 1.7054302141583667E9, -52.65779137611389, -123.9851633310318, -110.34200829267502, 352.32849502563477
 1.7054302141583667E9, 50.74296259880066, 3.3509503602981567, -20.10570216178894, 457.4047241806984
 1.7054302141718016E9, -36.381746768951416, -134.03801441192627, -124.94257771968842, 365.7322964668274
 1.7054302141718016E9, -85.449234187603, -177.36101549863815, -152.46824139356613, 314.98933386802673
 1.705430214187826E9, 24.89277410507202, -14.121862232685089, -34.466917991638184, 433.9480716586113
 1.705430214187826E9, 14.600569427013397, -61.753228068351746, -70.13060396909714, 420.54427021741867
 1.7054302141881635E9, -95.50208526849747, -196.03059607744217, -175.68554031848907, 301.5855324268341
 1.7054302141881635E9, -19.866348564624786, -65.82223922014236, -80.18345504999161, 383.9231698513031
 1.7054302142017665E9, 31.83402842283249, -30.397906839847565, -48.58878022432327, 437.5383756160736
 1.7054302142017665E9, -84.73117339611053, -188.37128096818924, -175.20683312416077, 315.7073946595192
 1.7054302142175891E9, -66.06159281730652, -134.51672160625458, -123.02774894237518, 342.2756439447403
 1.7054302142175891E9, 50.0249018073082, 5.505132734775543, -21.78117734193802, 459.79826015233994
 1.705430214218211E9, -32.3127356171608, -135.23478239774704, -129.01158887147903, 366.92906445264816
 1.705430214218211E9, -84.01311260461807, -170.65911477804184, -152.94694858789444, 320.01575940847397
 1.705430214231845E9, 24.17471331357956, -16.754751801490784, -38.5359291434288, 431.07582849264145
 1.705430214231845E9, 5.026425540447235, -78.98668706417084, -93.82661008834839, 402.1140432357788
 1.7054302142476768E9, -96.45949965715408, -200.0996072292328, -177.121661901474, 301.1068252325058
 1.7054302142476768E9, -14.600569427013397, -64.38611763715744, -71.56672555208206, 391.1037777662277
 1.7054302142483633E9, 43.08364748954773, -22.259884536266327, -43.32300108671188, 445.915751516819
 1.7054302142483633E9, -65.1041784286499, -175.92489391565323, -155.10113096237183, 337.0098648071289
 1.7054302142619796E9, -46.434597849845886, -117.04390901327133, -107.23041152954102, 356.63685977458954
 1.7054302142619796E9, 57.44486331939697, 11.010265469551086, -16.276044607162476, 474.87753677368164
 1.7054302142936108E9, -31.115967631340027, -128.77223527431488, -119.19809138774872, 375.0670867562294
 1.7054302142936108E9, -84.49181979894638, -164.675274848938, -145.52698707580566, 325.28153854608536
 1.7054302142943244E9, 28.483078062534332, -6.7019007205963135, -19.148287773132324, 448.0699338912964
 1.7054302142943244E9, 5.983839929103851, -67.01900720596313, -78.98668706417084, 423.4165133833885
 1.7054302143081644E9, -96.69885325431824, -191.00417053699493, -164.43592125177383, 314.0319194793701
 1.7054302143081644E9, -14.839923024177551, -58.64163130521774, -62.949996054172516, 405.7043471932411
 1.7054302143089237E9, 43.80170828104019, -10.292204678058624, -34.70627158880234, 455.01118820905685
 1.7054302143089237E9, -75.15702950954437, -178.07907629013062, -163.95721405744553, 324.0847705602646
 1.705430214309638E9, -55.290680944919586, -121.59162735939026, -112.4961906671524, 346.3446550965309
 1.705430214309638E9, 51.700376987457275, 9.813497483730316, -20.10570216178894, 458.8408457636833
 1.7054302143220017E9, -31.83402842283249, -125.42128491401672, -122.54904174804688, 368.8438932299614
 1.7054302143220017E9, -86.16729497909546, -174.24941873550415, -149.11729103326797, 317.6222234368324
 1.705430214337484E9, 27.046956479549408, -6.7019007205963135, -30.876614034175873, 437.29902201890945
 1.705430214337484E9, 9.574143886566162, -70.8486647605896, -79.22604066133499, 413.1243087053299
 1.705430214338225E9, -101.24657160043716, -202.73249679803848, -175.20683312416077, 297.5165212750435
 1.705430214338225E9, -18.190873384475708, -63.18934965133667, -75.15702950954437, 390.6250705718994
 1.7054302143520205E9, 46.67395144701004, -18.90893417596817, -43.56235468387604, 447.3518730998039
 1.7054302143520205E9, -72.52413994073868, -179.03649067878723, -166.59010362625122, 325.9995993375778
 1.7054302143677106E9, -52.897144973278046, -115.84714102745056, -109.86330109834671, 353.52526301145554
 1.7054302143677106E9, 49.306841015815735, 8.377375900745392, -17.233458995819092, 460.5163209438324
 1.7054302143683047E9, -27.525663673877716, -129.01158887147903, -124.46387052536011, 371.9554899930954
 1.7054302143683047E9, -81.61957663297653, -172.33458995819092, -147.4418158531189, 323.84541696310043
 1.7054302143822763E9, 33.988210797309875, -6.462547123432159, -23.456652522087097, 444.71898353099823
 1.7054302143822763E9, 9.813497483730316, -75.15702950954437, -85.20988059043884, 411.9275407195091
 1.7054302143976548E9, -94.3053172826767, -190.28610974550247, -172.09523636102676, 307.3300187587738
 1.7054302143976548E9, -20.10570216178894, -68.45512878894806, -70.13060396909714, 395.17278891801834
 1.7054302143982599E9, 42.60494029521942, -17.7121661901474, -39.01463633775711, 457.16537058353424
 1.7054302143982599E9, -71.08801835775375, -179.03649067878723, -154.62242376804352, 337.4885720014572
 1.7054302144118133E9, -60.79581367969513, -123.9851633310318, -108.18782591819763, 358.3123349547386
 1.7054302144118133E9, 53.1364985704422, 10.05285108089447, -12.207033455371857, 470.56917202472687
 1.7054302144275305E9, -38.057221949100494, -130.2083568572998, -122.07033455371857, 373.6309651732445
 1.7054302144275305E9, -95.26273167133331, -181.90873384475708, -151.27147340774536, 317.3828698396683
 1.7054302144282105E9, 21.30247014760971, -15.31863021850586, -26.807602882385254, 444.9583371281624
 1.7054302144282105E9, 2.1541823744773865, -80.18345504999161, -85.20988059043884, 412.40624791383743
 1.7054302144421313E9, -106.2729971408844, -209.4343975186348, -175.68554031848907, 305.41518998146057
 1.7054302144421313E9, -20.58440935611725, -70.13060396909714, -78.50797986984253, 389.6676561832428
 1.7054302144578755E9, 30.397906839847565, -27.046956479549408, -58.8809849023819, 436.82031482458115
 1.7054302144578755E9, -86.64600217342377, -197.70607125759125, -179.7545514702797, 309.0054939389229
 1.7054302144582832E9, -69.17318958044052, -138.5857327580452, -131.88383203744888, 325.76024574041367
 1.7054302144582832E9, 38.5359291434288, -8.616729497909546, -39.01463633775711, 444.2402763366699
 1.7054302144718196E9, -42.60494029521942, -145.04827988147736, -139.5431471467018, 354.243323802948
 1.7054302144718196E9, -91.1937205195427, -175.68554031848907, -159.17014211416245, 305.8938971757889
 1.70543021448752E9, 30.876614034175873, -10.770911872386932, -36.62110036611557, 439.692557990551
 1.70543021448752E9, 18.669580578804016, -61.51387447118759, -78.26862627267838, 418.62944144010544
 1.705430214488192E9, -105.79428994655609, -208.23762953281403, -188.84998816251755, 286.5062558054924
 1.705430214488192E9, -26.5682492852211, -78.02927267551422, -87.12470936775208, 380.8115730881691
 1.7054302145020547E9, 29.679846048355103, -32.55208921432495, -50.503609001636505, 442.08609396219254
 1.7054302145020547E9, -95.98079246282578, -202.49314320087433, -183.10550183057785, 314.98933386802673
 1.7054302145178978E9, -86.64600217342377, -152.94694858789444, -132.12318563461304, 343.7117655277252
 1.7054302145178978E9, 6.462547123432159, -32.791442811489105, -52.65779137611389, 449.9847626686096
 1.705430214532704E9, -95.50208526849747, -188.6106345653534, -167.06881082057953, 344.4298263192177
 1.705430214532704E9, -165.1539820432663, -246.53420507907867, -198.66348564624786, 289.85720616579056
 1.7054302145332713E9, -55.53003454208374, -90.23630613088608, -93.82661008834839, 402.1140432357788
 1.7054302145332713E9, -77.31121188402176, -152.94694858789444, -140.97926872968674, 382.72640186548233
 1.705430214547506E9, -185.02033060789108, -276.6927583217621, -230.2581604719162, 277.88952630758286
 1.705430214547506E9, -124.70322412252426, -162.76044607162476, -155.57983815670013, 342.7543511390686
 1.7054302145481977E9, -73.24220073223114, -132.3625392317772, -134.51672160625458, 389.90700978040695
 1.7054302145481977E9, -196.26994967460632, -297.0378140807152, -253.7148129940033, 271.4269791841507
 1.7054302145621395E9, -191.2435241341591, -259.9380065202713, -216.85435903072357, 278.6075870990753
 1.7054302145621395E9, -78.26862627267838, -123.50645613670349, -124.94257771968842, 396.8482640981674
 1.705430214577822E9, -166.35075002908707, -269.51215040683746, -232.65169644355774, 296.798460483551
 1.705430214577822E9, -226.42850291728973, -310.9203227162361, -264.7250784635544, 235.04523241519928
 1.7054302145782785E9, -112.0174834728241, -145.76634067296982, -136.91025757789612, 366.689710855484
 1.7054302145782785E9, -115.60778743028641, -204.40797197818756, -184.78097701072693, 349.21689826250076
 1.7054302145918078E9, -223.55625975131989, -323.6060633659363, -266.6399072408676, 245.8161442875862
 1.7054302145918078E9, -137.62831836938858, -185.25968420505524, -161.56367808580399, 337.24921840429306
 1.7054302146074607E9, -78.98668706417084, -143.85151189565659, -139.30379354953766, 388.7102417945862
 1.7054302146074607E9, -187.89257377386093, -297.5165212750435, -244.61937630176544, 278.128879904747
 1.7054302146081913E9, -173.77071154117584, -241.26842594146729, -205.84409356117249, 286.9849629998207
 1.7054302146081913E9, -60.31710648536682, -106.99105793237686, -108.9058867096901, 402.1140432357788
 1.7054302146219163E9, -147.20246225595474, -246.77355867624283, -216.85435903072357, 311.15967631340027
 1.7054302146219163E9, -204.1686183810234, -286.5062558054924, -240.31101155281067, 260.65606731176376
 1.705430214637462E9, -85.449234187603, -126.6180528998375, -119.91615217924118, 378.41803711652756
 1.705430214637462E9, -105.07622915506363, -185.73839139938354, -170.18040758371353, 351.84978783130646
 1.705430214638192E9, -197.22736406326294, -293.2081565260887, -249.64580184221268, 258.2625313401222
 1.705430214638192E9, -120.8735665678978, -172.33458995819092, -151.51082700490952, 340.6001687645912
 1.705430214651784E9, -64.38611763715744, -129.49029606580734, -129.2509424686432, 389.42830258607864
 1.705430214651784E9, -183.58420902490616, -292.96880292892456, -248.68838745355606, 267.8366752266884
 1.7054302146678944E9, -161.08497089147568, -225.23173493146896, -201.0570216178894, 293.9262173175812
 1.7054302146678944E9, -54.572620153427124, -98.85303562879562, -107.46976512670517, 403.3108112215996
 1.7054302146683033E9, -136.4315503835678, -239.35359716415405, -214.70017665624619, 311.15967631340027
 1.7054302146683033E9, -182.3874410390854, -270.9482719898224, -228.82203888893127, 267.59732162952423
 1.7054302146820688E9, -66.30094641447067, -108.66653311252594, -108.66653311252594, 387.9921810030937
 1.7054302146820688E9, -78.98668706417084, -165.1539820432663, -163.47850686311722, 358.7910421490669
 1.7054302146974857E9, -176.40360110998154, -285.30948781967163, -242.94390112161636, 258.02317774295807
 1.7054302146974857E9, -98.85303562879562, -151.0321198105812, -137.86767196655273, 351.6104342341423
 1.705430214698212E9, -39.73269712924957, -103.87946116924286, -113.21425145864487, 405.46499359607697
 1.705430214698212E9, -157.49466693401337, -263.0496032834053, -232.8910500407219, 280.52241587638855
 1.7054302147117977E9, -151.0321198105812, -224.75302773714066, -193.39770650863647, 292.2507421374321
 1.7054302147117977E9, -27.525663673877716, -83.77375900745392, -96.93820685148239, 406.9011151790619
 1.705430214727637E9, -107.70911872386932, -212.0672870874405, -193.39770650863647, 325.76024574041367
 1.705430214727637E9, -167.06881082057953, -259.69865292310715, -221.16272377967834, 264.96443206071854
 1.7054302147281792E9, -54.81197375059128, -96.45949965715408, -103.1614003777504, 389.42830258607864
 1.7054302147281792E9, -66.54030001163483, -165.39333564043045, -154.1437165737152, 364.7748820781708
 1.7054302147421584E9, -166.82945722341537, -276.93211191892624, -239.83230435848236, 265.682492852211
 1.7054302147421584E9, -79.46539425849915, -135.23478239774704, -130.44771045446396, 358.3123349547386
 1.705430214757501E9, -28.722431659698486, -96.93820685148239, -107.94847232103348, 405.2256399989128
 1.705430214757501E9, -149.59599822759628, -266.6399072408676, -240.55036514997482, 267.59732162952423
 1.705430214758226E9, -131.64447844028473, -206.8015079498291, -190.52546334266663, 292.01138854026794
 1.705430214758226E9, -23.935359716415405, -81.14086943864822, -97.65626764297485, 406.66176158189774
 1.7054302147721903E9, -108.9058867096901, -221.64143097400665, -198.66348564624786, 315.94674825668335
 1.7054302147721903E9, -163.47850686311722, -258.02317774295807, -233.3697572350502, 258.5018849372864
 1.70543021480312E9, -44.99847626686096, -93.82661008834839, -108.66653311252594, 387.5134738087654
 1.70543021480312E9, -61.753228068351746, -151.0321198105812, -157.97337412834167, 357.11556696891785
 1.7054302148037152E9, -163.47850686311722, -270.9482719898224, -241.98648673295975, 250.12450903654099
 1.7054302148037152E9, -72.04543274641037, -131.88383203744888, -134.27736800909042, 352.8072022199631
 1.70543021481819E9, -18.90893417596817, -89.75759893655777, -107.94847232103348, 403.55016481876373
 1.70543021481819E9, -123.26710253953934, -240.78971874713898, -220.20530939102173, 287.9423773884773
 1.7054302148188858E9, -109.3845939040184, -181.19067305326462, -166.59010362625122, 309.4842011332512
 1.7054302148188858E9, 0.0, -49.54619461297989, -73.00284713506699, 422.9378061890602
 1.7054302148196914E9, -89.51824533939362, -195.55188888311386, -186.21709859371185, 325.0421849489212
 1.7054302148196914E9, -141.2186223268509, -234.80587881803513, -210.3918119072914, 275.017283141613
 1.7054302148318067E9, -24.414066910743713, -68.93383598327637, -83.05569821596146, 400.1992144584656
 1.7054302148318067E9, -39.49334353208542, -126.85740649700165, -128.77223527431488, 378.1786835193634
 1.705430214847872E9, -141.93668311834335, -254.1935201883316, -222.12013816833496, 268.55473601818085
 1.705430214847872E9, -53.61520576477051, -108.66653311252594, -112.73554426431656, 369.801307618618
 1.7054302148483057E9, -2.3935359716415405, -69.65189677476883, -92.15113490819931, 418.62944144010544
 1.7054302148483057E9, -118.2406769990921, -232.41234284639359, -209.9131047129631, 297.9952284693718
 1.7054302148621035E9, -92.62984210252762, -156.7766061425209, -147.4418158531189, 331.7440856695175
 1.7054302148621035E9, -3.590303957462311, -51.22166979312897, -75.39638310670853, 424.6132813692093
 1.7054302148775997E9, -85.68858778476715, -194.59447449445724, -182.8661482334137, 327.91442811489105
 1.7054302148775997E9, -108.42717951536179, -200.33896082639694, -176.88230830430984, 305.6545435786247
 1.7054302148782604E9, 7.898668706417084, -35.663685977458954, -61.9925816655159, 420.06556302309036
 1.7054302148782604E9, -10.770911872386932, -103.6401075720787, -107.70911872386932, 397.0876176953316
 1.7054302148919737E9, -116.32584822177887, -228.34333169460297, -194.8338280916214, 289.85720616579056
 1.7054302148919737E9, -24.89277410507202, -84.73117339611053, -85.9279413819313, 390.38571697473526
 1.70543021490773E9, 22.49923813343048, -41.647525906562805, -64.86482483148575, 441.6073867678642
 1.70543021490773E9, -100.28915721178055, -213.98211586475372, -184.30226981639862, 319.53705221414566
 1.7054302149084132E9, -81.14086943864822, -155.34048455953598, -141.6973295211792, 334.8556824326515
 1.7054302149084132E9, 29.201138854026794, -23.69600611925125, -47.87071943283081, 445.19769072532654
 1.7054302149219694E9, -55.53003454208374, -161.56367808580399, -153.90436297655106, 349.69560545682907
 1.7054302149219694E9, -108.9058867096901, -205.84409356117249, -178.55778348445892, 297.5165212750435
 1.705430214937522E9, 6.9412543177604675, -42.36558669805527, -60.31710648536682, 419.8262094259262
 1.705430214937522E9, -16.994105398654938, -105.31558275222778, -120.63421297073364, 391.3431313633919
 1.7054302149382484E9, -114.65037304162979, -220.9233701825142, -192.91899931430817, 291.7720349431038
 1.7054302149382484E9, -29.44049245119095, -84.01311260461807, -84.25246620178223, 389.6676561832428
 1.7054302149518573E9, 22.020530939102173, -44.041061878204346, -66.77965360879898, 435.3841932415962
 1.7054302149518573E9, -90.95436692237854, -207.99827593564987, -186.456452190876, 314.0319194793701
 1.705430214984023E9, -71.08801835775375, -145.2876334786415, -134.75607520341873, 338.685339987278
 1.705430214984023E9, 32.791442811489105, -19.626994967460632, -53.375852167606354, 442.56480115652084
 1.7054302149847217E9, -56.00874173641205, -167.786871612072, -157.97337412834167, 339.40340077877045
 1.7054302149847217E9, -100.0498036146164, -195.55188888311386, -173.29200434684753, 301.1068252325058
 1.7054302149854033E9, 13.882508635520935, -32.07338201999664, -53.61520576477051, 423.6558669805527
 1.7054302149854033E9, -8.377375900745392, -106.51235073804855, -115.60778743028641, 387.27412021160126
 1.705430214986118E9, -120.8735665678978, -233.8484644293785, -207.2802151441574, 277.41081911325455
 1.705430214986118E9, -29.679846048355103, -89.03953814506531, -97.17756044864655, 375.30644035339355
 1.705430214996792E9, 17.7121661901474, -49.306841015815735, -73.72090792655945, 424.6132813692093
 1.705430214996792E9, -92.15113490819931, -204.1686183810234, -185.25968420505524, 311.15967631340027
 1.7054302150118177E9, -75.39638310670853, -150.31405901908875, -139.0644399523735, 332.2227928638458
 1.7054302150118177E9, 39.49334353208542, -11.010265469551086, -40.21140432357788, 445.19769072532654
 1.7054302150272956E9, -52.41843777894974, -160.12755650281906, -155.10113096237183, 344.908533513546
 1.7054302150272956E9, -101.96463239192963, -192.44029211997986, -174.01006513834, 300.6281180381775
 1.7054302150424669E9, -1.4361215829849243, -90.47565972805023, -97.4169140458107, 404.50757920742035
 1.7054302150424669E9, -106.2729971408844, -216.37565183639526, -184.30226981639862, 300.1494108438492
 1.7054302150432935E9, -15.797337412834167, -72.04543274641037, -78.74733346700668, 391.8218385577202
 1.7054302150432935E9, 30.63726043701172, -34.70627158880234, -58.8809849023819, 441.6073867678642
 1.7054302150568533E9, -83.29505181312561, -196.98801046609879, -176.6429547071457, 320.9731737971306
 1.7054302150568533E9, -61.9925816655159, -131.40512484312057, -132.60189282894135, 337.4885720014572
 1.7054302150726912E9, 37.81786835193634, -11.488972663879395, -42.844293892383575, 445.19769072532654
 1.7054302150726912E9, -50.26425540447235, -156.7766061425209, -154.1437165737152, 346.10530149936676
 1.7054302150733519E9, -102.92204678058624, -195.55188888311386, -177.83972269296646, 295.60169249773026
 1.7054302150733519E9, 14.839923024177551, -32.55208921432495, -58.40227770805359, 417.911380648613
 1.7054302150868747E9, -4.308364748954773, -98.37432843446732, -106.03364354372025, 391.58248496055603
 1.7054302150868747E9, -115.36843383312225, -223.79561334848404, -197.4667176604271, 288.6604381799698
 1.705430215103394E9, -32.07338201999664, -86.16729497909546, -98.61368203163147, 370.7587220072746
 1.705430215103394E9, 32.07338201999664, -39.01463633775711, -67.49771440029144, 427.246170938015
 1.705430215103966E9, -80.90151584148407, -197.22736406326294, -174.72812592983246, 309.24484753608704
 1.705430215103966E9, -64.14676403999329, -136.67090398073196, -129.7296496629715, 336.29180401563644
 1.7054302151167915E9, 39.49334353208542, -14.600569427013397, -41.88687950372696, 445.67639791965485
 1.7054302151167915E9, -50.98231619596481, -161.80303168296814, -151.75018060207367, 347.78077667951584
 1.7054302151323476E9, -97.4169140458107, -191.7222313284874, -166.82945722341537, 307.3300187587738
 1.7054302151323476E9, 20.10570216178894, -20.823762953281403, -44.041061878204346, 433.23001086711884
 1.705430215147767E9, -10.05285108089447, -98.61368203163147, -102.92204678058624, 396.8482640981674
 1.705430215147767E9, -109.62394750118256, -212.78534787893295, -183.8235626220703, 294.64427810907364
 1.7054302151483183E9, -25.37148129940033, -79.22604066133499, -87.36406296491623, 381.7689874768257
 1.7054302151483183E9, 27.286310076713562, -39.73269712924957, -60.31710648536682, 438.25643640756607
 1.7054302151624615E9, -87.36406296491623, -206.08344715833664, -185.73839139938354, 308.04807955026627
 1.7054302151624615E9, -68.69448238611221, -139.30379354953766, -129.2509424686432, 335.0950360298157
 1.7054302151631813E9, 12.44638705253601, -37.09980756044388, -77.55056548118591, 415.2784910798073
 1.7054302151631813E9, -31.83402842283249, -134.51672160625458, -138.82508635520935, 360.466517329216
 1.7054302151768305E9, -63.428703248500824, -153.42565578222275, -136.4315503835678, 333.65891444683075
 1.7054302151768305E9, 64.14676403999329, 27.525663673877716, -10.531558275222778, 458.362138569355
 1.705430215192546E9, 63.428703248500824, -17.233458995819092, -41.647525906562805, 445.915751516819
 1.705430215192546E9, -33.03079640865326, -133.3199536204338, -123.26710253953934, 336.29180401563644
 1.7054302151932292E9, 76.11444389820099, 33.50950360298157, 1.4361215829849243, 447.5912266969681
 1.7054302151932292E9, 138.5857327580452, 80.66216224431992, 29.919199645519257, 503.5999684333801
 1.7054302152067816E9, 29.201138854026794, -69.65189677476883, -80.42280864715576, 390.1463633775711
 1.7054302152067816E9, 59.59904569387436, -0.9574143886566162, -12.925094246864319, 425.33134216070175
 1.7054302152230346E9, 190.28610974550247, 154.1437165737152, 93.10854929685593, 547.6410303115845
 1.7054302152230346E9, 95.74143886566162, 1.6754751801490784, -13.643155038356781, 446.3944587111473
 1.7054302152233727E9, 56.72680252790451, -12.685740649700165, -18.669580578804016, 423.6558669805527
 1.7054302152233727E9, 171.13782197237015, 144.8089262843132, 101.96463239192963, 547.4016767144203
 1.705430215236974E9, 143.13345110416412, 76.11444389820099, 42.844293892383575, 516.5250626802444
 1.705430215236974E9, 50.74296259880066, -36.14239317178726, -36.62110036611557, 415.0391374826431
 1.7054302152524588E9, 135.23478239774704, 99.57109642028809, 62.949996054172516, 497.85548210144043
 1.7054302152524588E9, 184.30226981639862, 130.44771045446396, 78.98668706417084, 540.699775993824
 1.7054302152531738E9, 66.06159281730652, -29.201138854026794, -38.29657554626465, 413.84236949682236
 1.7054302152531738E9, 78.50797986984253, 22.259884536266327, 3.1115967631340027, 434.9054860472679
 1.7054302152668152E9, 173.05265074968338, 139.78250074386597, 86.16729497909546, 547.6410303115845
 1.7054302152668152E9, 78.98668706417084, -12.685740649700165, -26.5682492852211, 447.83058029413223
 1.70543021528284E9, 22.738591730594635, -52.17908418178558, -51.46102339029312, 394.69408172369003
 1.70543021528284E9, 133.79866081476212, 104.83687555789948, 66.06159281730652, 518.918598651886
 1.7054302152833323E9, 108.9058867096901, 35.4243323802948, 1.4361215829849243, 476.7923655509949
 1.7054302152833323E9, -4.308364748954773, -98.37432843446732, -89.75759893655777, 366.689710855484
 1.7054302152969673E9, 78.50797986984253, 33.988210797309875, 6.462547123432159, 454.7718346118927
 1.7054302152969673E9, 120.39485937356949, 61.753228068351746, 18.430226981639862, 496.65871411561966
 1.7054302153124487E9, -0.23935359716415405, -101.48592519760132, -92.86919569969177, 372.912904381752
 1.7054302153124487E9, 18.669580578804016, -41.1688187122345, -45.716537058353424, 392.53989934921265
 1.7054302153131735E9, 116.08649462461472, 76.11444389820099, 34.70627158880234, 498.33418929576874
 1.7054302153131735E9, 24.17471331357956, -63.90741044282913, -73.72090792655945, 412.6456015110016
 1.7054302153268335E9, -21.78117734193802, -102.20398598909378, -90.95436692237854, 362.6206997036934
 1.7054302153268335E9, 93.82661008834839, 61.03516727685928, 29.679846048355103, 484.4516806602478
 1.7054302153425248E9, 72.52413994073868, -10.531558275222778, -31.35532122850418, 449.74540907144547
 1.7054302153425248E9, -39.01463633775711, -136.67090398073196, -123.50645613670349, 334.8556824326515
 1.7054302153432918E9, 50.0249018073082, 8.138022303581238, -15.079276621341705, 436.34160763025284
 1.7054302153432918E9, 94.784024477005, 36.62110036611557, 0.23935359716415405, 477.2710727453232
 1.7054302153571336E9, -30.397906839847565, -133.79866081476212, -128.77223527431488, 350.41366624832153
 1.7054302153571336E9, -4.787071943283081, -66.77965360879898, -63.18934965133667, 384.8805842399597
 1.705430215372688E9, 99.81045001745224, 55.05132734775543, 22.020530939102173, 490.91422778367996
 1.705430215372688E9, 8.377375900745392, -91.1937205195427, -95.02337807416916, 391.8218385577202
 1.7054302153732533E9, -34.94562518596649, -121.11292016506195, -107.94847232103348, 344.66917991638184
 1.7054302153732533E9, 79.46539425849915, 40.69011151790619, 7.180607914924622, 464.1066249012947
 1.7054302153869605E9, 51.22166979312897, -32.55208921432495, -48.34942662715912, 427.00681734085083
 1.7054302153869605E9, -56.487448930740356, -154.38307017087936, -144.56957268714905, 314.0319194793701
 1.7054302154027648E9, 36.860453963279724, -9.574143886566162, -30.63726043701172, 431.07582849264145
 1.7054302154027648E9, 82.09828382730484, 21.063116550445557, -11.488972663879395, 475.5955975651741
 1.705430215403319E9, -33.50950360298157, -134.03801441192627, -119.19809138774872, 356.8762133717537
 1.705430215403319E9, -17.7121661901474, -78.50797986984253, -70.36995756626129, 379.8541586995125
 1.70543021541698E9, 86.40664857625961, 41.647525906562805, 12.207033455371857, 483.4942662715912
 1.70543021541698E9, 2.3935359716415405, -95.50208526849747, -87.60341656208038, 394.2153745293617
 1.7054302154325616E9, -44.75912266969681, -126.6180528998375, -103.87946116924286, 354.243323802948
 1.7054302154325616E9, 70.13060396909714, 28.483078062534332, 11.728326261043549, 469.8511112332344
 1.705430215433277E9, 41.40817230939865, -37.81786835193634, -50.0249018073082, 438.4957900047302
 1.705430215433277E9, -58.162924110889435, -156.2978989481926, -134.03801441192627, 335.3343896269798
 1.7054302154467547E9, 22.738591730594635, -20.58440935611725, -36.14239317178726, 404.02887201309204
 1.7054302154467547E9, 68.69448238611221, 12.925094246864319, -16.51539820432663, 468.4149896502495
 1.7054302154625108E9, -44.75912266969681, -153.1863021850586, -127.0967600941658, 357.354920566082
 1.7054302154625108E9, -11.728326261043549, -76.35379749536514, -66.06159281730652, 393.2579601407051
 1.7054302154632008E9, 82.57699102163315, 38.29657554626465, 2.6328895688056946, 484.21232706308365
 1.7054302154632008E9, -4.787071943283081, -101.48592519760132, -104.59752196073532, 379.6148051023483
 1.7054302154768417E9, -53.1364985704422, -137.14961117506027, -127.33611369132996, 331.50473207235336
 1.7054302154768417E9, 65.58288562297821, 24.89277410507202, -7.65931510925293, 462.1917961239815
 1.7054302154925635E9, 32.3127356171608, -53.85455936193466, -63.428703248500824, 426.0494029521942
 1.7054302154925635E9, -67.97642159461975, -170.18040758371353, -147.9205230474472, 313.5532122850418
 1.7054302154932115E9, 22.97794532775879, -25.610834896564484, -42.844293892383575, 418.15073424577713
 1.7054302154932115E9, 64.86482483148575, -1.1967679858207703, -24.653420507907867, 457.64407777786255
 1.705430215507134E9, -47.3920122385025, -153.1863021850586, -135.4741359949112, 344.1904727220535
 1.705430215507134E9, -25.850188493728638, -93.58725649118423, -93.10854929685593, 363.33876049518585
 1.7054302155225437E9, 76.5931510925293, 22.97794532775879, -8.377375900745392, 469.61175763607025
 1.7054302155225437E9, -16.03669100999832, -120.8735665678978, -116.32584822177887, 375.5457939505577
 1.7054302155232687E9, -61.51387447118759, -150.0747054219246, -129.96900326013565, 333.8982680439949
 1.7054302155232687E9, 61.9925816655159, 28.722431659698486, -5.265779137611389, 469.13305044174194
 1.7054302155367732E9, 32.55208921432495, -51.46102339029312, -62.47128885984421, 429.40035331249237
 1.7054302155367732E9, -69.89125037193298, -169.94105398654938, -151.51082700490952, 320.4944666028023
 1.7054302155525272E9, 13.643155038356781, -43.32300108671188, -55.769388139247894, 409.29465115070343
 1.7054302155525272E9, 53.1364985704422, -9.095436692237854, -30.876614034175873, 460.27696734666824
 1.7054302155532513E9, -57.92357051372528, -167.30816441774368, -149.59599822759628, 336.0524504184723
 1.7054302155532513E9, -41.1688187122345, -113.21425145864487, -104.35816836357117, 357.59427416324615
 1.7054302155667987E9, 59.359692096710205, 14.361215829849243, -20.58440935611725, 459.0801993608475
 1.7054302155667987E9, -33.74885720014572, -135.71348959207535, -127.0967600941658, 361.4239317178726
 1.7054302155826795E9, -69.17318958044052, -157.49466693401337, -141.45797592401505, 324.5634777545929
 1.7054302155826795E9, 52.41843777894974, 14.600569427013397, -10.292204678058624, 464.34597849845886
 1.705430215583244E9, 15.079276621341705, -69.41254317760468, -83.53440541028976, 408.8159439563751
 1.705430215583244E9, -83.29505181312561, -180.95131945610046, -157.01595973968506, 316.6648090481758
 1.7054302155971208E9, 2.8722431659698486, -42.844293892383575, -56.00874173641205, 410.0127119421959
 1.7054302155971208E9, 46.434597849845886, -15.079276621341705, -39.49334353208542, 452.138945043087
 1.7054302156124961E9, -74.19961512088776, -180.95131945610046, -168.50493240356445, 310.9203227162361
 1.7054302156124961E9, -46.67395144701004, -114.65037304162979, -111.77812987565994, 345.8659479022026
 1.7054302156132495E9, 54.33326655626297, 5.983839929103851, -33.27015000581741, 448.78799468278885
 1.7054302156132495E9, -33.74885720014572, -136.67090398073196, -132.12318563461304, 356.3975061774254
 1.7054302156268668E9, -80.90151584148407, -164.675274848938, -147.9205230474472, 318.8189914226532
 1.7054302156268668E9, 46.434597849845886, 8.616729497909546, -14.361215829849243, 448.78799468278885
 1.7054302156427932E9, 14.361215829849243, -71.08801835775375, -87.84277015924454, 399.4811536669731
 1.7054302156427932E9, -77.0718582868576, -185.25968420505524, -161.32432448863983, 306.8513115644455
 1.7054302156433585E9, 10.770911872386932, -39.253989934921265, -52.897144973278046, 410.0127119421959
 1.7054302156433585E9, 53.85455936193466, -9.095436692237854, -37.33916115760803, 455.7292490005493
 1.7054302156574457E9, -61.27452087402344, -168.02622520923615, -153.1863021850586, 335.3343896269798
 1.7054302156574457E9, -33.50950360298157, -96.93820685148239, -94.3053172826767, 366.689710855484
 1.7054302156725209E9, 61.51387447118759, 15.557983815670013, -15.557983815670013, 465.7821000814438
 1.7054302156725209E9, -30.63726043701172, -129.49029606580734, -123.74580973386765, 374.1096723675728
 1.7054302156732442E9, -77.55056548118591, -158.9307885169983, -140.50056153535843, 334.61632883548737
 1.7054302156732442E9, 36.860453963279724, -5.026425540447235, -22.259884536266327, 451.6602378487587
 1.7054302156870553E9, 4.069011151790619, -81.61957663297653, -93.10854929685593, 407.61917597055435
 1.7054302156870553E9, -95.74143886566162, -195.79124248027802, -171.8558827638626, 306.3726043701172
 1.7054302157033992E9, -4.308364748954773, -48.82813382148743, -60.556460082530975, 402.35339683294296
 1.7054302157033992E9, 30.15855324268341, -32.3127356171608, -56.2480953335762, 435.86290043592453
 1.705430215703894E9, -80.42280864715576, -194.3551208972931, -169.46234679222107, 312.1170907020569
 1.705430215703894E9, -47.3920122385025, -112.0174834728241, -109.86330109834671, 349.9349590539932
 1.7054302157169898E9, 51.46102339029312, 4.787071943283081, -27.525663673877716, 456.4473097920418
 1.7054302157169898E9, -36.62110036611557, -138.1070255637169, -129.7296496629715, 361.6632853150368
 1.7054302157324798E9, -80.42280864715576, -163.23915326595306, -151.0321198105812, 310.20226192474365
 1.7054302157324798E9, 39.73269712924957, -0.4787071943283081, -43.56235468387604, 415.7571982741356
 1.7054302157331984E9, 12.44638705253601, -67.97642159461975, -78.74733346700668, 426.28875654935837
 1.7054302157331984E9, -80.42280864715576, -182.8661482334137, -151.27147340774536, 329.58990329504013
 1.7054302157468457E9, 4.069011151790619, -44.75912266969681, -56.2480953335762, 407.14046877622604
 1.7054302157468457E9, 46.913305044174194, -17.233458995819092, -40.92946511507034, 454.53248101472855
 1.7054302157633247E9, -74.19961512088776, -181.19067305326462, -169.22299319505692, 311.87773710489273
 1.7054302157633247E9, -50.0249018073082, -111.29942268133163, -108.9058867096901, 346.3446550965309
 1.7054302157775753E9, 52.41843777894974, 6.223193526268005, -17.472812592983246, 461.473735332489
 1.7054302157775753E9, -34.22756439447403, -133.55930721759796, -130.92641764879227, 358.55168855190277
 1.7054302157782516E9, -76.35379749536514, -161.80303168296814, -143.13345110416412, 322.8880025744438
 1.7054302157782516E9, 40.450757920742035, 2.6328895688056946, -13.643155038356781, 460.0376137495041
 1.7054302157926197E9, 1.4361215829849243, -83.05569821596146, -85.449234187603, 404.02887201309204
 1.7054302157926197E9, -100.76786440610886, -206.08344715833664, -168.50493240356445, 297.75587487220764
 1.7054302157933412E9, -16.276044607162476, -63.18934965133667, -78.98668706417084, 366.689710855484
 1.7054302157933412E9, 37.81786835193634, -30.876614034175873, -49.306841015815735, 446.15510511398315
 1.7054302158073075E9, -74.19961512088776, -188.6106345653534, -162.28173887729645, 344.908533513546
 1.7054302158073075E9, -56.2480953335762, -120.39485937356949, -113.93231225013733, 337.72792559862137
 1.7054302158227603E9, 61.03516727685928, 13.882508635520935, -17.7121661901474, 468.1756360530853
 1.7054302158227603E9, -42.844293892383575, -142.41539031267166, -130.2083568572998, 372.912904381752
 1.7054302158232825E9, -89.27889174222946, -180.233258664608, -156.53725254535675, 312.5957978963852
 1.7054302158232825E9, 30.15855324268341, -11.24961906671524, -34.70627158880234, 441.6073867678642
 1.7054302158368504E9, 5.744486331939697, -84.01311260461807, -88.560830950737, 398.76309287548065
 1.7054302158368504E9, -90.23630613088608, -190.76481693983078, -169.94105398654938, 304.2184219956398
 1.7054302158525023E9, 0.4787071943283081, -45.95589065551758, -64.86482483148575, 408.09788316488266
 1.7054302158525023E9, 42.36558669805527, -23.935359716415405, -48.82813382148743, 444.4796299338341
 1.7054302158532104E9, -76.83250468969345, -185.9777449965477, -168.98363959789276, 320.9731737971306
 1.7054302158532104E9, -44.519769072532654, -110.10265469551086, -107.46976512670517, 350.41366624832153
 1.705430215866814E9, 48.110073029994965, -4.308364748954773, -40.92946511507034, 434.4267788529396
 1.705430215866814E9, -47.63136583566666, -150.31405901908875, -145.52698707580566, 346.10530149936676
 1.7054302158828917E9, -94.3053172826767, -180.233258664608, -158.21272772550583, 313.0745050907135
 1.7054302158828917E9, 29.201138854026794, -12.685740649700165, -45.237829864025116, 430.11841410398483
 1.7054302158833547E9, -3.1115967631340027, -92.62984210252762, -111.53877627849579, 381.2902802824974
 1.7054302158833547E9, -105.07622915506363, -207.51956874132156, -188.13192737102509, 292.49009573459625
 1.7054302159132404E9, -11.010265469551086, -60.07775288820267, -75.63573670387268, 396.8482640981674
 1.7054302159132404E9, 42.36558669805527, -30.397906839847565, -53.61520576477051, 439.2138507962227
 1.7054302159139528E9, -80.18345504999161, -192.91899931430817, -179.51519787311554, 307.56937235593796
 1.7054302159139528E9, -51.46102339029312, -119.67679858207703, -111.53877627849579, 349.9349590539932
 1.705430215914921E9, 46.67395144701004, 2.6328895688056946, -33.03079640865326, 449.5060554742813
 1.705430215914921E9, -41.40817230939865, -146.00569427013397, -146.72375506162643, 352.32849502563477
 1.7054302159268692E9, -82.8163446187973, -170.18040758371353, -156.05854535102844, 318.10093063116074
 1.7054302159268692E9, 40.450757920742035, -0.7180607914924622, -33.27015000581741, 442.56480115652084
 1.7054302159425056E9, 9.095436692237854, -82.09828382730484, -96.22014605998993, 400.1992144584656
 1.7054302159425056E9, -84.73117339611053, -188.6106345653534, -166.1113964319229, 300.86747163534164
 1.7054302159432633E9, 7.419961512088776, -41.647525906562805, -50.26425540447235, 418.62944144010544
 1.7054302159432633E9, 43.32300108671188, -23.69600611925125, -46.19524425268173, 452.85700583457947
 1.7054302159568553E9, -68.93383598327637, -179.7545514702797, -161.56367808580399, 322.16994178295135
 1.7054302159568553E9, -47.3920122385025, -109.62394750118256, -108.42717951536179, 359.0303957462311
 1.7054302159726975E9, 53.85455936193466, 4.787071943283081, -32.791442811489105, 457.8834313750267
 1.7054302159726975E9, -42.844293892383575, -141.93668311834335, -144.09086549282074, 337.24921840429306
 1.7054302159733396E9, -81.85893023014069, -166.1113964319229, -148.3992302417755, 309.24484753608704
 1.7054302159733396E9, 35.184978783130646, -6.9412543177604675, -29.679846048355103, 443.7615691423416
 1.7054302159868338E9, -4.547718346118927, -92.62984210252762, -96.69885325431824, 406.1830543875694
 1.7054302159868338E9, -102.68269318342209, -209.9131047129631, -182.14808744192123, 294.64427810907364
 1.7054302160027683E9, -4.308364748954773, -51.93973058462143, -70.13060396909714, 395.17278891801834
 1.7054302160027683E9, 10.292204678058624, -57.92357051372528, -82.337637424469, 409.29465115070343
 1.7054302160032473E9, -68.93383598327637, -175.92489391565323, -159.8882029056549, 334.8556824326515
 1.7054302160032473E9, -32.3127356171608, -97.89562124013901, -92.62984210252762, 370.2800148129463
 1.7054302160169044E9, 48.110073029994965, 6.223193526268005, -31.594674825668335, 458.8408457636833
 1.7054302160169044E9, -23.217298924922943, -115.84714102745056, -98.37432843446732, 401.39598244428635
 1.7054302160317793E9, -73.72090792655945, -149.11729103326797, -131.16577124595642, 345.3872407078743
 1.7054302160317793E9, 64.38611763715744, 42.36558669805527, 24.414066910743713, 497.3767749071121
 1.7054302160475163E9, -64.6254712343216, -147.9205230474472, -126.6180528998375, 359.5091029405594
 1.7054302160475163E9, 12.685740649700165, -16.276044607162476, -30.876614034175873, 443.7615691423416
 1.7054302160482457E9, 44.519769072532654, -2.3935359716415405, -27.286310076713562, 474.1594759821892
 1.7054302160482457E9, -70.36995756626129, -164.91462844610214, -144.09086549282074, 352.0891414284706
 1.705430216062078E9, -41.647525906562805, -87.84277015924454, -79.22604066133499, 386.79541301727295
 1.705430216062078E9, 56.2480953335762, 22.259884536266327, -10.531558275222778, 482.7762054800987
 1.7054302160775783E9, -36.381746768951416, -126.6180528998375, -118.48003059625626, 386.31670582294464
 1.7054302160775783E9, -82.57699102163315, -154.1437165737152, -139.78250074386597, 337.9672791957855
 1.7054302160783553E9, 38.057221949100494, 10.531558275222778, -15.31863021850586, 460.9950281381607
 1.7054302160783553E9, 7.180607914924622, -68.69448238611221, -73.24220073223114, 428.44293892383575
 1.7054302160917804E9, -86.64600217342377, -171.3771755695343, -143.85151189565659, 339.6427543759346
 1.7054302160917804E9, 1.6754751801490784, -27.525663673877716, -43.56235468387604, 426.5281101465225
 1.7054302161075675E9, 43.08364748954773, -8.616729497909546, -29.679846048355103, 469.13305044174194
 1.7054302161075675E9, -68.45512878894806, -163.71786046028137, -140.73991513252258, 355.9187989830971
 1.7054302161082537E9, -39.73269712924957, -90.23630613088608, -84.97052699327469, 385.83799862861633
 1.7054302161082537E9, 57.44486331939697, 21.78117734193802, -11.24961906671524, 484.21232706308365
 1.7054302161219108E9, -41.1688187122345, -134.99542880058289, -118.48003059625626, 376.5032083392143
 1.7054302161219108E9, -76.11444389820099, -150.31405901908875, -120.15550577640533, 350.1743126511574
 1.7054302161375813E9, 42.36558669805527, 13.164447844028473, -5.026425540447235, 476.0743047595024
 1.7054302161375813E9, 12.207033455371857, -66.06159281730652, -71.56672555208206, 437.0596684217453
 1.7054302161383383E9, -92.86919569969177, -180.95131945610046, -156.05854535102844, 330.3079640865326
 1.7054302161383383E9, -2.3935359716415405, -39.73269712924957, -52.41843777894974, 413.1243087053299
 1.7054302161517787E9, 42.844293892383575, -16.754751801490784, -41.647525906562805, 460.5163209438324
 1.7054302161517787E9, -71.80607914924622, -175.44618672132492, -152.22888779640198, 349.4562518596649
 1.7054302161676912E9, -41.40817230939865, -99.57109642028809, -92.86919569969177, 372.19484359025955
 1.7054302161676912E9, 54.093912959098816, 9.813497483730316, -20.823762953281403, 464.82468569278717
 1.705430216168247E9, -30.876614034175873, -129.2509424686432, -120.15550577640533, 388.7102417945862
 1.705430216168247E9, -71.80607914924622, -150.5534126162529, -128.29352807998657, 354.00397020578384
 1.7054302161818492E9, 44.75912266969681, 8.8560830950737, -11.967679858207703, 465.3033928871155
 1.7054302161818492E9, 11.967679858207703, -73.24220073223114, -84.97052699327469, 416.2359054684639
 1.7054302161978788E9, -86.64600217342377, -184.30226981639862, -159.64884930849075, 320.4944666028023
 1.7054302161978788E9, 6.223193526268005, -32.791442811489105, -41.40817230939865, 429.6397069096565
 1.7054302161983922E9, 48.110073029994965, -7.419961512088776, -29.919199645519257, 476.31365835666656
 1.7054302161983922E9, -66.54030001163483, -171.13782197237015, -143.61215829849243, 344.66917991638184
 1.7054302162118616E9, -34.466917991638184, -93.10854929685593, -83.05569821596146, 393.49731373786926
 1.7054302162118616E9, 67.01900720596313, 27.76501727104187, 0.7180607914924622, 500.4883716702461
 1.7054302162275715E9, -29.679846048355103, -123.9851633310318, -117.52261620759964, 375.78514754772186
 1.7054302162275715E9, -68.2157751917839, -144.8089262843132, -122.07033455371857, 355.6794453859329
 1.7054302162282462E9, 49.06748741865158, 14.600569427013397, -13.164447844028473, 469.61175763607025
 1.7054302162282462E9, 12.925094246864319, -65.58288562297821, -80.90151584148407, 426.0494029521942
 1.7054302162419949E9, -91.43307411670685, -180.7119658589363, -158.21272772550583, 325.0421849489212
 1.7054302162419949E9, -1.6754751801490784, -34.94562518596649, -49.78554821014404, 426.0494029521942
 1.7054302162579727E9, 40.450757920742035, -17.951519787311554, -46.67395144701004, 456.9260169863701
 1.7054302162579727E9, -69.17318958044052, -174.4887723326683, -156.53725254535675, 336.0524504184723
 1.7054302162584069E9, -47.3920122385025, -106.99105793237686, -97.89562124013901, 357.8336277604103
 1.7054302162584069E9, 53.85455936193466, 13.403801441192627, -22.738591730594635, 463.38856410980225
 1.7054302162719383E9, -36.14239317178726, -132.12318563461304, -128.77223527431488, 376.024501144886
 1.7054302162719383E9, -81.85893023014069, -158.9307885169983, -141.6973295211792, 326.4783065319061
 1.7054302162874987E9, 37.81786835193634, 9.574143886566162, -24.653420507907867, 457.8834313750267
 1.7054302162874987E9, 3.590303957462311, -79.22604066133499, -86.88535577058792, 415.0391374826431
 1.7054302162882454E9, -90.95436692237854, -185.02033060789108, -169.94105398654938, 296.3197532892227
 1.7054302162882454E9, 3.829657554626465, -33.50950360298157, -47.3920122385025, 418.8687950372696
 1.7054302163018425E9, 47.87071943283081, -5.744486331939697, -31.594674825668335, 472.24464720487595
 1.7054302163018425E9, -82.8163446187973, -178.07907629013062, -160.84561729431152, 332.2227928638458
 1.705430216317954E9, -51.700376987457275, -107.94847232103348, -93.58725649118423, 368.12583243846893
 1.705430216317954E9, 50.26425540447235, 7.65931510925293, -21.063116550445557, 474.1594759821892
 1.7054302163184583E9, -48.34942662715912, -142.65474390983582, -128.53288167715073, 374.34902596473694
 1.7054302163184583E9, -85.9279413819313, -157.97337412834167, -141.2186223268509, 337.72792559862137
 1.7054302163320048E9, 34.70627158880234, 1.6754751801490784, -15.31863021850586, 457.8834313750267
 1.7054302163320048E9, -5.265779137611389, -85.9279413819313, -81.38022303581238, 425.5706957578659
 1.7054302163474948E9, -97.17756044864655, -189.0893417596817, -157.2553133368492, 330.54731768369675
 1.7054302163474948E9, -0.7180607914924622, -38.057221949100494, -48.110073029994965, 421.74103820323944
 1.7054302163482332E9, 32.3127356171608, -27.286310076713562, -44.519769072532654, 456.9260169863701
 1.7054302163482332E9, -79.94410145282745, -179.99390506744385, -159.8882029056549, 338.685339987278
 1.7054302163619008E9, -53.1364985704422, -106.99105793237686, -98.61368203163147, 373.15225797891617
 1.7054302163619008E9, 51.93973058462143, 10.05285108089447, -16.994105398654938, 478.94654792547226
 1.7054302163778665E9, -44.99847626686096, -140.97926872968674, -131.64447844028473, 365.01423567533493
 1.7054302163778665E9, -87.12470936775208, -163.47850686311722, -144.56957268714905, 322.16994178295135
 1.7054302163783069E9, 27.046956479549408, -4.547718346118927, -24.89277410507202, 453.57506662607193
 1.7054302163783069E9, -3.590303957462311, -84.49181979894638, -90.71501332521439, 408.8159439563751
 1.7054302163918557E9, -100.5285108089447, -194.8338280916214, -164.91462844610214, 313.5532122850418
 1.7054302163918557E9, -13.882508635520935, -53.61520576477051, -59.83839929103851, 409.5340047478676
 1.705430216407482E9, 33.03079640865326, -28.96178525686264, -52.41843777894974, 452.37829864025116
 1.705430216407482E9, -84.25246620178223, -183.344855427742, -159.8882029056549, 328.39313530921936
 1.7054302164082012E9, -46.67395144701004, -106.2729971408844, -98.37432843446732, 363.57811409235
 1.7054302164082012E9, 52.65779137611389, 7.898668706417084, -29.201138854026794, 465.54274648427963
 1.705430216422273E9, -51.46102339029312, -151.51082700490952, -143.13345110416412, 356.8762133717537
 1.705430216422273E9, -87.12470936775208, -168.50493240356445, -154.62242376804352, 314.27127307653427
 1.7054302164375036E9, 28.004370868206024, -13.164447844028473, -46.67395144701004, 419.10814863443375
 1.7054302164375036E9, -4.787071943283081, -87.36406296491623, -99.81045001745224, 407.8585295677185
 1.7054302164384322E9, -106.03364354372025, -201.77508240938187, -172.33458995819092, 308.2874331474304
 1.7054302164384322E9, -5.983839929103851, -51.46102339029312, -67.97642159461975, 409.5340047478676
 1.7054302164518309E9, 36.381746768951416, -25.850188493728638, -58.8809849023819, 438.0170828104019
 1.7054302164518309E9, -70.13060396909714, -173.77071154117584, -154.86177736520767, 338.2066327929497
 1.7054302164674776E9, -37.578514754772186, -95.26273167133331, -94.3053172826767, 376.98191553354263
 1.7054302164674776E9, 54.81197375059128, 8.377375900745392, -21.30247014760971, 471.76594001054764
 1.705430216468195E9, -40.69011151790619, -142.89409750699997, -134.03801441192627, 363.81746768951416
 1.705430216468195E9, -75.39638310670853, -157.2553133368492, -129.7296496629715, 337.0098648071289
 1.7054302164821446E9, 36.860453963279724, 1.9148287773132324, -18.190873384475708, 465.3033928871155
 1.7054302164821446E9, 4.787071943283081, -87.12470936775208, -93.82661008834839, 413.6030158996582
 1.7054302165138924E9, -86.40664857625961, -180.47261226177216, -154.62242376804352, 323.12735617160797
 1.7054302165138924E9, 3.1115967631340027, -44.2804154753685, -55.53003454208374, 416.2359054684639
 1.7054302165146668E9, 43.32300108671188, -24.414066910743713, -47.15265864133835, 447.5912266969681
 1.7054302165146668E9, -73.72090792655945, -176.88230830430984, -158.9307885169983, 328.6324889063835
 1.7054302165154104E9, -43.32300108671188, -107.70911872386932, -95.26273167133331, 375.30644035339355
 1.7054302165154104E9, 54.093912959098816, 8.377375900745392, -18.430226981639862, 477.7497799396515
 1.7054302165161142E9, -47.15265864133835, -147.20246225595474, -139.0644399523735, 362.1419925093651
 1.7054302165161142E9, -84.97052699327469, -165.6326892375946, -146.00569427013397, 323.84541696310043
 1.705430216526831E9, 28.243724465370178, -5.505132734775543, -33.50950360298157, 444.00092273950577
 1.705430216526831E9, -7.898668706417084, -92.86919569969177, -102.20398598909378, 405.46499359607697
 1.70543021654291E9, -101.24657160043716, -201.5357288122177, -175.68554031848907, 306.8513115644455
 1.70543021654291E9, -5.505132734775543, -50.26425540447235, -64.86482483148575, 410.25206553936005
 1.7054302165576253E9, 38.29657554626465, -28.483078062534332, -47.15265864133835, 448.30928748846054
 1.7054302165576253E9, -85.9279413819313, -193.63706010580063, -176.88230830430984, 314.0319194793701
 1.7054302165583937E9, -48.82813382148743, -114.41101944446564, -107.94847232103348, 358.7910421490669
 1.7054302165583937E9, 54.81197375059128, 3.1115967631340027, -29.201138854026794, 462.43114972114563
 1.7054302165718577E9, -50.0249018073082, -149.83535182476044, -143.61215829849243, 359.0303957462311
 1.7054302165718577E9, -83.29505181312561, -167.06881082057953, -146.9631086587906, 325.5208921432495
 1.7054302165877366E9, 33.50950360298157, -4.547718346118927, -33.27015000581741, 446.15510511398315
 1.7054302165877366E9, -0.23935359716415405, -89.51824533939362, -93.58725649118423, 407.14046877622604
 1.7054302165883284E9, -104.59752196073532, -199.62090003490448, -166.59010362625122, 307.09066516160965
 1.7054302165883284E9, -7.180607914924622, -49.06748741865158, -59.12033849954605, 407.61917597055435
 1.7054302166021755E9, 43.32300108671188, -19.626994967460632, -42.844293892383575, 450.2241162657738
 1.7054302166021755E9, -84.97052699327469, -193.63706010580063, -174.01006513834, 312.1170907020569
 1.7054302166176467E9, -45.237829864025116, -109.86330109834671, -105.55493634939194, 363.33876049518585
 1.7054302166176467E9, 46.913305044174194, -3.1115967631340027, -33.988210797309875, 462.90985691547394
 1.705430216618408E9, -45.95589065551758, -148.63858383893967, -142.1760367155075, 355.9187989830971
 1.705430216618408E9, -83.53440541028976, -167.54751801490784, -146.72375506162643, 328.39313530921936
 1.7054302166319385E9, 33.74885720014572, -6.9412543177604675, -24.414066910743713, 455.01118820905685
 1.7054302166319385E9, -9.334790289402008, -96.45949965715408, -98.37432843446732, 403.3108112215996
 1.7054302166475112E9, -97.17756044864655, -195.79124248027802, -165.87204283475876, 318.57963782548904
 1.7054302166475112E9, 2.8722431659698486, -45.237829864025116, -56.487448930740356, 419.10814863443375
 1.705430216648238E9, 39.73269712924957, -27.76501727104187, -50.98231619596481, 452.138945043087
 1.705430216648238E9, -78.02927267551422, -185.73839139938354, -168.50493240356445, 323.84541696310043
 1.7054302166620865E9, -35.4243323802948, -103.40075397491455, -95.26273167133331, 372.4341971874237
 1.7054302166620865E9, 51.46102339029312, -4.787071943283081, -31.115967631340027, 455.7292490005493
 1.7054302166777723E9, -44.2804154753685, -149.11729103326797, -145.04827988147736, 351.131727039814
 1.7054302166777723E9, -88.80018454790115, -172.33458995819092, -153.90436297655106, 313.79256588220596
 1.705430216678378E9, 33.27015000581741, -11.24961906671524, -31.83402842283249, 449.027348279953
 1.705430216678378E9, 1.9148287773132324, -84.97052699327469, -94.784024477005, 411.20947992801666
 1.7054302166917865E9, -98.61368203163147, -198.18477845191956, -175.20683312416077, 305.1758363842964
 1.7054302166917865E9, -1.6754751801490784, -49.06748741865158, -62.949996054172516, 403.0714576244354
 1.7054302167077353E9, 34.22756439447403, -33.988210797309875, -58.40227770805359, 439.692557990551
 1.7054302167077353E9, -81.14086943864822, -190.04675614833832, -174.01006513834, 317.8615770339966
 1.7054302167083135E9, -40.69011151790619, -108.9058867096901, -117.04390901327133, 342.51499754190445
 1.7054302167083135E9, 54.33326655626297, 1.6754751801490784, -28.722431659698486, 463.38856410980225
 1.7054302167218444E9, -41.88687950372696, -146.48440146446228, -141.6973295211792, 360.70587092638016
 1.7054302167218444E9, -78.98668706417084, -164.43592125177383, -145.2876334786415, 329.58990329504013
 1.7054302167375386E9, 41.88687950372696, -0.23935359716415405, -24.653420507907867, 452.85700583457947
 1.7054302167375386E9, 5.744486331939697, -84.73117339611053, -95.98079246282578, 405.46499359607697
 1.705430216738237E9, -93.10854929685593, -192.91899931430817, -170.898468375206, 310.4416155219078
 1.705430216738237E9, 12.685740649700165, -39.253989934921265, -51.46102339029312, 418.15073424577713
 1.705430216751794E9, 36.62110036611557, -30.15855324268341, -58.162924110889435, 438.97449719905853
 1.705430216751794E9, -73.72090792655945, -187.89257377386093, -172.09523636102676, 324.80283135175705
 1.7054302167675102E9, -33.988210797309875, -97.65626764297485, -99.33174282312393, 375.30644035339355
 1.7054302167675102E9, 59.12033849954605, 4.787071943283081, -30.15855324268341, 462.6705033183098
 1.705430216768232E9, -33.03079640865326, -142.89409750699997, -138.1070255637169, 352.8072022199631
 1.705430216768232E9, -76.5931510925293, -160.84561729431152, -140.73991513252258, 331.02602487802505
 1.7054302167821398E9, 46.67395144701004, 4.787071943283081, -24.17471331357956, 460.5163209438324
 1.7054302167821398E9, 10.531558275222778, -78.26862627267838, -86.40664857625961, 416.95396625995636
 1.7054302167978048E9, -88.560830950737, -185.25968420505524, -160.84561729431152, 318.10093063116074
 1.7054302167978048E9, 11.488972663879395, -36.381746768951416, -41.88687950372696, 421.5016846060753
 1.7054302167983196E9, 43.56235468387604, -25.610834896564484, -47.3920122385025, 453.57506662607193
 1.7054302167983196E9, -65.34353202581406, -179.99390506744385, -161.80303168296814, 336.0524504184723
 1.7054302168118567E9, -22.259884536266327, -88.80018454790115, -83.29505181312561, 385.11993783712387
 1.7054302168118567E9, 62.47128885984421, 13.643155038356781, -18.669580578804016, 467.696928858757
 1.7054302168281555E9, -43.80170828104019, -150.31405901908875, -135.4741359949112, 359.5091029405594
 1.7054302168281555E9, -77.78991907835007, -158.69143491983414, -138.82508635520935, 329.8292568922043
 1.7054302168422546E9, 46.434597849845886, 7.898668706417084, -23.456652522087097, 450.4634698629379
 1.7054302168422546E9, 3.590303957462311, -78.74733346700668, -93.34790289402008, 407.14046877622604
 1.7054302168582656E9, -83.29505181312561, -185.02033060789108, -158.45208132266998, 321.69123458862305
 1.7054302168582656E9, 9.334790289402008, -31.594674825668335, -43.32300108671188, 428.44293892383575
 1.7054302168589425E9, 42.844293892383575, -25.132127702236176, -46.19524425268173, 449.027348279953
 1.7054302168589425E9, -67.01900720596313, -175.92489391565323, -157.01595973968506, 324.5634777545929
 1.7054302168597302E9, -48.34942662715912, -100.0498036146164, -101.24657160043716, 366.45035725831985
 1.7054302168597302E9, 58.162924110889435, 8.377375900745392, -22.97794532775879, 468.65434324741364
 1.705430216871906E9, -47.3920122385025, -147.20246225595474, -137.62831836938858, 363.0994068980217
 1.705430216871906E9, -83.29505181312561, -166.82945722341537, -153.1863021850586, 317.6222234368324
 1.7054302168876677E9, 37.578514754772186, -2.3935359716415405, -34.22756439447403, 444.00092273950577
 1.7054302168876677E9, -2.8722431659698486, -89.27889174222946, -98.85303562879562, 400.43856805562973
 1.7054302168884735E9, -95.74143886566162, -198.4241320490837, -165.6326892375946, 309.4842011332512
 1.7054302168884735E9, -3.1115967631340027, -47.87071943283081, -64.14676403999329, 407.14046877622604
 1.705430216901865E9, 33.74885720014572, -36.860453963279724, -61.9925816655159, 438.0170828104019
 1.705430216901865E9, -82.57699102163315, -195.3125352859497, -170.898468375206, 319.05834501981735
 1.705430216918468E9, -42.60494029521942, -102.92204678058624, -105.07622915506363, 361.4239317178726
 1.705430216918468E9, 44.75912266969681, -5.744486331939697, -36.62110036611557, 455.48989540338516
 1.7054302169189248E9, -45.95589065551758, -151.98953419923782, -136.91025757789612, 358.7910421490669
 1.7054302169189248E9, -78.26862627267838, -161.80303168296814, -138.82508635520935, 331.98343926668167
 1.7054302169318268E9, 38.29657554626465, 1.1967679858207703, -24.89277410507202, 450.2241162657738
 1.7054302169318268E9, -0.7180607914924622, -90.47565972805023, -94.3053172826767, 405.9437007904053
 1.7054302169481668E9, -89.03953814506531, -186.456452190876, -159.17014211416245, 320.2551130056381
 1.7054302169481668E9, 3.590303957462311, -39.253989934921265, -50.74296259880066, 421.26233100891113
 1.7054302169489613E9, 37.578514754772186, -29.44049245119095, -49.78554821014404, 441.6073867678642
 1.7054302169489613E9, -76.83250468969345, -184.54162341356277, -167.54751801490784, 321.21252739429474
 1.7054302169618728E9, -43.56235468387604, -106.03364354372025, -98.85303562879562, 373.87031877040863
 1.7054302169618728E9, 57.20550972223282, 1.6754751801490784, -22.738591730594635, 472.4840008020401
 1.7054302169775279E9, -48.82813382148743, -151.75018060207367, -137.86767196655273, 362.1419925093651
 1.7054302169775279E9, -73.4815543293953, -156.05854535102844, -132.12318563461304, 337.72792559862137
 1.7054302169782398E9, 44.99847626686096, 8.138022303581238, -14.839923024177551, 457.8834313750267
 1.7054302169782398E9, -1.1967679858207703, -90.47565972805023, -94.54467087984085, 404.7469328045845
 1.7054302169922335E9, -97.4169140458107, -197.4667176604271, -169.70170038938522, 309.9629083275795
 1.7054302169922335E9, -2.8722431659698486, -45.716537058353424, -60.07775288820267, 408.57659035921097
 1.705430217007516E9, 37.09980756044388, -28.722431659698486, -54.81197375059128, 440.6499723792076
 1.705430217007516E9, -83.29505181312561, -189.80740255117416, -167.54751801490784, 325.0421849489212
 1.7054302170082395E9, -40.92946511507034, -103.6401075720787, -89.75759893655777, 375.78514754772186
 1.7054302170082395E9, 57.44486331939697, 2.1541823744773865, -25.610834896564484, 470.56917202472687
 1.705430217021876E9, -44.99847626686096, -149.83535182476044, -133.55930721759796, 363.57811409235
 1.705430217021876E9, -75.15702950954437, -155.34048455953598, -130.6870640516281, 342.51499754190445
 1.7054302170373156E9, 43.32300108671188, 6.7019007205963135, -11.488972663879395, 464.1066249012947
 1.7054302170373156E9, -4.787071943283081, -88.32147735357285, -90.47565972805023, 410.0127119421959
 1.7054302170688877E9, 1.6754751801490784, -42.36558669805527, -54.33326655626297, 417.911380648613
 1.7054302170688877E9, 32.3127356171608, -33.50950360298157, -50.26425540447235, 440.41061878204346
 1.70543021706962E9, -76.83250468969345, -185.4990378022194, -159.17014211416245, 330.06861048936844
 1.70543021706962E9, -40.21140432357788, -102.44333958625793, -93.82661008834839, 377.46062272787094
 1.7054302170703592E9, 54.81197375059128, 4.308364748954773, -22.49923813343048, 470.09046483039856
 1.7054302170703592E9, -39.73269712924957, -143.13345110416412, -136.91025757789612, 365.01423567533493
 1.7054302170711904E9, -69.41254317760468, -157.73402053117752, -138.5857327580452, 325.76024574041367
 1.7054302170711904E9, 47.3920122385025, 1.9148287773132324, -28.483078062534332, 446.3944587111473
 1.7054302170818567E9, 7.419961512088776, -82.8163446187973, -91.43307411670685, 410.9701263308525
 1.7054302170818567E9, -87.12470936775208, -188.37128096818924, -167.786871612072, 314.98933386802673
 1.705430217096871E9, 7.419961512088776, -40.92946511507034, -52.41843777894974, 424.37392777204514
 1.705430217096871E9, 44.75912266969681, -24.653420507907867, -45.237829864025116, 458.60149216651917
 1.7054302171125276E9, -81.14086943864822, -187.17451298236847, -170.41976118087769, 317.8615770339966
 1.7054302171125276E9, -34.22756439447403, -94.06596368551254, -91.43307411670685, 377.93932992219925
 1.7054302171132307E9, 56.00874173641205, 3.590303957462311, -25.610834896564484, 466.97886806726456
 1.7054302171132307E9, -49.06748741865158, -154.62242376804352, -136.4315503835678, 357.354920566082
 1.7054302171275396E9, -76.35379749536514, -160.36691009998322, -135.71348959207535, 336.5311576128006
 1.7054302171275396E9, 33.50950360298157, -9.334790289402008, -29.44049245119095, 449.26670187711716
 1.705430217142805E9, -7.419961512088776, -93.10854929685593, -100.28915721178055, 397.3269712924957
 1.705430217142805E9, -95.98079246282578, -190.76481693983078, -172.81329715251923, 308.04807955026627
 1.7054302171432943E9, 4.069011151790619, -43.08364748954773, -63.66805684566498, 407.3798223733902
 1.7054302171432943E9, 32.07338201999664, -40.69011151790619, -63.18934965133667, 427.7248781323433
 1.7054302171573603E9, -79.7047478556633, -189.32869535684586, -172.09523636102676, 320.2551130056381
 1.7054302171573603E9, -45.47718346118927, -101.48592519760132, -109.62394750118256, 360.22716373205185
 1.7054302171726923E9, 48.110073029994965, -4.547718346118927, -40.92946511507034, 456.2079561948776
 1.7054302171726923E9, -55.53003454208374, -162.76044607162476, -152.94694858789444, 346.8233622908592
 1.7054302171733174E9, -82.09828382730484, -166.82945722341537, -146.48440146446228, 322.4092953801155
 1.7054302171733174E9, 41.1688187122345, -1.6754751801490784, -26.328895688056946, 453.3357130289078
 1.7054302171868336E9, 1.9148287773132324, -87.60341656208038, -93.10854929685593, 405.9437007904053
 1.7054302171868336E9, -88.32147735357285, -187.41386657953262, -162.0423852801323, 312.83515149354935
 1.705430217202569E9, 11.010265469551086, -34.466917991638184, -47.87071943283081, 416.2359054684639
 1.705430217202569E9, 43.08364748954773, -29.679846048355103, -45.95589065551758, 446.8731659054756
 1.7054302172032487E9, -78.02927267551422, -189.80740255117416, -165.87204283475876, 320.73382019996643
 1.7054302172032487E9, -31.35532122850418, -95.98079246282578, -103.40075397491455, 366.2110036611557
 1.7054302172168615E9, 44.2804154753685, -6.9412543177604675, -37.578514754772186, 452.85700583457947
 1.7054302172168615E9, -46.19524425268173, -149.83535182476044, -134.03801441192627, 357.11556696891785
 1.7054302172328544E9, -82.57699102163315, -161.56367808580399, -145.52698707580566, 328.87184250354767
 1.7054302172328544E9, 39.253989934921265, -5.505132734775543, -34.70627158880234, 438.4957900047302
 1.7054302172335644E9, -8.616729497909546, -96.45949965715408, -105.79428994655609, 397.0876176953316
 1.7054302172335644E9, -97.4169140458107, -194.59447449445724, -167.06881082057953, 311.3990299105644
 1.705430217246828E9, 7.180607914924622, -44.519769072532654, -56.966156125068665, 414.32107669115067
 1.705430217246828E9, 34.94562518596649, -38.29657554626465, -60.79581367969513, 446.3944587111473
 1.7054302172632203E9, -79.7047478556633, -186.93515938520432, -172.33458995819092, 319.7764058113098
 1.7054302172632203E9, -42.844293892383575, -103.87946116924286, -101.48592519760132, 365.01423567533493
 1.7054302172639344E9, 54.81197375059128, 3.590303957462311, -24.653420507907867, 466.7395144701004
 1.7054302172639344E9, -44.99847626686096, -145.76634067296982, -133.08060002326965, 363.57811409235
 1.705430217277123E9, -82.337637424469, -159.8882029056549, -143.85151189565659, 325.0421849489212
 1.705430217277123E9, 35.663685977458954, -0.7180607914924622, -24.89277410507202, 448.0699338912964
 1.7054302172926264E9, -9.574143886566162, -94.784024477005, -106.51235073804855, 389.90700978040695
 1.7054302172926264E9, -106.99105793237686, -205.12603276968002, -178.79713708162308, 299.6707036495209
 1.7054302172933557E9, -10.292204678058624, -52.41843777894974, -65.1041784286499, 395.65149611234665
 1.7054302172933557E9, 23.456652522087097, -45.47718346118927, -69.41254317760468, 431.55453568696976
 1.7054302173068533E9, -100.0498036146164, -209.4343975186348, -183.8235626220703, 301.34617882966995
 1.7054302173068533E9, -49.78554821014404, -108.18782591819763, -109.86330109834671, 361.6632853150368
 1.7054302173230453E9, 44.519769072532654, -3.3509503602981567, -33.50950360298157, 453.57506662607193
 1.7054302173230453E9, -54.81197375059128, -160.12755650281906, -151.98953419923782, 349.4562518596649
 1.7054302173233068E9, -80.42280864715576, -160.36691009998322, -139.78250074386597, 326.4783065319061
 1.7054302173233068E9, 39.01463633775711, 1.1967679858207703, -23.935359716415405, 452.85700583457947
 1.7054302173368824E9, -8.616729497909546, -96.93820685148239, -105.55493634939194, 395.65149611234665
 1.7054302173368824E9, -98.13497483730316, -195.3125352859497, -168.02622520923615, 304.6971291899681
 1.7054302173526132E9, -9.813497483730316, -54.81197375059128, -70.8486647605896, 403.3108112215996
 1.7054302173526132E9, 34.70627158880234, -37.81786835193634, -58.40227770805359, 438.7351436018944
 1.7054302173533187E9, -83.53440541028976, -189.56804895401, -172.81329715251923, 315.2286874651909
 1.7054302173533187E9, -39.253989934921265, -100.28915721178055, -100.0498036146164, 361.6632853150368
 1.7054302173668249E9, 50.98231619596481, -2.1541823744773865, -27.525663673877716, 456.9260169863701
 1.7054302173668249E9, -49.06748741865158, -152.70759499073029, -139.30379354953766, 352.5678486227989
 1.7054302173825362E9, -78.26862627267838, -158.9307885169983, -132.8412464261055, 331.02602487802505
 1.7054302173825362E9, 38.29657554626465, 0.23935359716415405, -26.5682492852211, 442.56480115652084
 1.7054302173833003E9, 1.4361215829849243, -87.12470936775208, -91.43307411670685, 410.25206553936005
 1.7054302173833003E9, -86.40664857625961, -185.02033060789108, -153.90436297655106, 321.9305881857872
 1.705430217414033E9, 11.728326261043549, -31.35532122850418, -39.97205072641373, 427.246170938015
 1.705430217414033E9, 39.73269712924957, -31.35532122850418, -50.98231619596481, 445.915751516819
 1.7054302174149466E9, -86.64600217342377, -192.44029211997986, -169.70170038938522, 320.4944666028023
 1.7054302174149466E9, -42.12623310089111, -100.28915721178055, -93.58725649118423, 377.2212691307068
 1.7054302174155629E9, 46.67395144701004, -5.744486331939697, -32.55208921432495, 450.7028234601021
 1.7054302174155629E9, -53.375852167606354, -156.2978989481926, -145.52698707580566, 346.8233622908592
 1.7054302174268308E9, -85.68858778476715, -166.59010362625122, -145.04827988147736, 321.69123458862305
 1.7054302174268308E9, 46.19524425268173, 2.6328895688056946, -21.541823744773865, 461.9524425268173
 1.7054302174425404E9, -5.265779137611389, -89.27889174222946, -101.96463239192963, 401.6353360414505
 1.7054302174425404E9, -93.82661008834839, -196.50930327177048, -167.54751801490784, 305.1758363842964
 1.7054302174432228E9, 4.787071943283081, -38.057221949100494, -56.00874173641205, 414.799783885479
 1.7054302174432228E9, 34.466917991638184, -36.381746768951416, -56.2480953335762, 441.1286795735359
 1.7054302174571788E9, -83.77375900745392, -193.63706010580063, -168.02622520923615, 323.12735617160797
 1.7054302174571788E9, -48.82813382148743, -110.58136188983917, -102.92204678058624, 362.1419925093651
 1.705430217472601E9, 50.0249018073082, -3.829657554626465, -29.201138854026794, 458.8408457636833
 1.705430217472601E9, -52.897144973278046, -155.34048455953598, -147.4418158531189, 355.44009178876877
 1.7054302174732275E9, -85.449234187603, -163.47850686311722, -148.3992302417755, 322.8880025744438
 1.7054302174732275E9, 36.860453963279724, -5.744486331939697, -31.115967631340027, 451.1815306544304
 1.7054302174868312E9, -11.24961906671524, -97.17756044864655, -102.92204678058624, 398.0450320839882
 1.7054302174868312E9, -97.65626764297485, -191.7222313284874, -165.1539820432663, 310.4416155219078
 1.7054302175032144E9, -3.829657554626465, -46.19524425268173, -55.05132734775543, 409.5340047478676
 1.7054302175032144E9, 20.58440935611725, -46.19524425268173, -62.71064245700836, 437.29902201890945
 1.70543021750393E9, -100.28915721178055, -203.6899111866951, -181.19067305326462, 308.7661403417587
 1.70543021750393E9, -52.41843777894974, -115.36843383312225, -101.00721800327301, 362.86005330085754
 1.7054302175172553E9, 27.525663673877716, -25.610834896564484, -53.85455936193466, 437.5383756160736
 1.7054302175172553E9, -62.949996054172516, -167.06881082057953, -156.53725254535675, 343.47241193056107
 1.705430217532522E9, -86.64600217342377, -168.2655788064003, -150.5534126162529, 314.7499802708626
 1.705430217532522E9, 35.4243323802948, -6.223193526268005, -32.791442811489105, 447.11251950263977
 1.7054302175333498E9, -10.770911872386932, -101.72527879476547, -106.99105793237686, 394.4547281265259
 1.7054302175333498E9, -92.39048850536346, -190.28610974550247, -164.91462844610214, 309.72355473041534
 1.705430217546846E9, -1.4361215829849243, -44.99847626686096, -60.79581367969513, 410.0127119421959
 1.705430217546846E9, 26.5682492852211, -43.56235468387604, -65.58288562297821, 428.2035853266716
 1.7054302175625703E9, -91.1937205195427, -201.29637521505356, -179.51519787311554, 303.7397148013115
 1.7054302175625703E9, -49.78554821014404, -110.10265469551086, -106.03364354372025, 357.354920566082
 1.7054302175632136E9, 44.519769072532654, -6.7019007205963135, -36.381746768951416, 457.4047241806984
 1.7054302175632136E9, -62.47128885984421, -166.59010362625122, -153.90436297655106, 345.62659430503845
 1.7054302175771391E9, -90.23630613088608, -169.70170038938522, -144.8089262843132, 322.4092953801155
 1.7054302175771391E9, 37.33916115760803, -5.983839929103851, -27.525663673877716, 448.5486410856247
 1.705430217592757E9, -14.600569427013397, -104.35816836357117, -112.73554426431656, 389.42830258607864
 1.705430217592757E9, -101.48592519760132, -199.14219284057617, -173.5313579440117, 302.0642396211624
 1.7054302175933712E9, -3.829657554626465, -51.46102339029312, -59.83839929103851, 409.29465115070343
 1.7054302175933712E9, 28.243724465370178, -42.844293892383575, -70.60931116342545, 423.17715978622437
 1.7054302176069856E9, -93.10854929685593, -206.08344715833664, -181.43002665042877, 305.1758363842964
 1.7054302176069856E9, -40.92946511507034, -106.99105793237686, -101.00721800327301, 361.9026389122009
 1.7054302176224809E9, 49.78554821014404, -4.547718346118927, -34.466917991638184, 458.362138569355
 1.7054302176224809E9, -47.63136583566666, -150.79276621341705, -138.34637916088104, 355.6794453859329
 1.7054302176232097E9, -83.05569821596146, -166.59010362625122, -143.61215829849243, 323.6060633659363
 1.7054302176232097E9, 38.29657554626465, -4.787071943283081, -30.15855324268341, 452.138945043087
 1.705430217636802E9, -9.574143886566162, -99.33174282312393, -108.66653311252594, 393.01860654354095
 1.705430217636802E9, -100.28915721178055, -195.07318168878555, -163.71786046028137, 308.04807955026627
 1.705430217652472E9, 5.265779137611389, -42.36558669805527, -51.700376987457275, 419.8262094259262
 1.705430217652472E9, 39.97205072641373, -31.115967631340027, -47.15265864133835, 443.52221554517746
 1.7054302176532264E9, -83.77375900745392, -196.03059607744217, -172.81329715251923, 309.24484753608704
 1.7054302176532264E9, -38.29657554626465, -99.81045001745224, -95.50208526849747, 374.34902596473694
 1.705430217683454E9, 60.07775288820267, 9.334790289402008, -16.03669100999832, 476.0743047595024
 1.705430217683454E9, -46.67395144701004, -150.31405901908875, -132.12318563461304, 360.70587092638016
 1.7054302176839323E9, -71.56672555208206, -150.5534126162529, -126.85740649700165, 341.0788759589195
 1.7054302176839323E9, 45.95589065551758, 0.4787071943283081, -22.738591730594635, 452.6176522374153
 1.705430217684722E9, -4.787071943283081, -100.76786440610886, -103.6401075720787, 392.3005457520485
 1.705430217684722E9, -92.39048850536346, -192.2009385228157, -163.71786046028137, 305.1758363842964
 1.7054302176972861E9, 7.419961512088776, -38.5359291434288, -56.966156125068665, 414.5604302883148
 1.7054302176972861E9, 36.860453963279724, -33.27015000581741, -57.20550972223282, 436.580961227417
 1.7054302177124012E9, -77.31121188402176, -185.25968420505524, -168.50493240356445, 321.21252739429474
 1.7054302177124012E9, -30.15855324268341, -92.86919569969177, -87.36406296491623, 377.46062272787094
 1.7054302177275598E9, 54.093912959098816, -0.9574143886566162, -26.328895688056946, 460.0376137495041
 1.7054302177275598E9, -47.15265864133835, -151.51082700490952, -137.62831836938858, 352.32849502563477
 1.7054302177282705E9, -70.8486647605896, -154.38307017087936, -134.27736800909042, 327.91442811489105
 1.7054302177282705E9, 43.32300108671188, -3.590303957462311, -28.243724465370178, 453.57506662607193
 1.7054302177429297E9, -3.829657554626465, -94.3053172826767, -98.61368203163147, 400.6779216527939
 1.7054302177429297E9, -93.10854929685593, -191.48287773132324, -162.5210924744606, 309.0054939389229
 1.7054302177432723E9, 6.223193526268005, -35.4243323802948, -53.375852167606354, 414.32107669115067
 1.7054302177432723E9, 31.115967631340027, -38.057221949100494, -62.71064245700836, 437.5383756160736
 1.7054302177570727E9, -78.26862627267838, -185.25968420505524, -161.56367808580399, 311.87773710489273
 1.7054302177570727E9, -36.860453963279724, -92.39048850536346, -87.12470936775208, 375.78514754772186
 1.705430217772896E9, 53.61520576477051, 1.4361215829849243, -27.525663673877716, 466.97886806726456
 1.705430217772896E9, -51.700376987457275, -157.97337412834167, -142.89409750699997, 347.78077667951584
 1.705430217773335E9, -75.87509030103683, -158.21272772550583, -133.79866081476212, 332.2227928638458
 1.705430217773335E9, 43.80170828104019, 3.1115967631340027, -18.190873384475708, 454.7718346118927
 1.7054302177868776E9, -5.265779137611389, -94.3053172826767, -99.33174282312393, 401.39598244428635
 1.7054302177868776E9, -92.15113490819931, -190.52546334266663, -161.56367808580399, 310.20226192474365
 1.7054302178025284E9, 11.967679858207703, -33.03079640865326, -50.503609001636505, 412.6456015110016
 1.7054302178025284E9, 37.09980756044388, -32.791442811489105, -60.556460082530975, 431.3151820898056
 1.7054302178032477E9, -78.74733346700668, -191.2435241341591, -167.30816441774368, 315.94674825668335
 1.7054302178032477E9, -26.328895688056946, -93.34790289402008, -89.99695253372192, 369.3226004242897
 1.7054302178168607E9, 60.07775288820267, 0.4787071943283081, -28.483078062534332, 462.43114972114563
 1.7054302178168607E9, -40.92946511507034, -145.04827988147736, -140.50056153535843, 354.96138459444046
 1.7054302178329737E9, -74.91767591238022, -153.1863021850586, -135.9528431892395, 333.4195608496666
 1.7054302178329737E9, 40.92946511507034, 0.7180607914924622, -25.132127702236176, 449.5060554742813
 1.70543021783338E9, -9.574143886566162, -97.17756044864655, -100.76786440610886, 398.5237392783165
 1.70543021783338E9, -87.12470936775208, -181.43002665042877, -157.49466693401337, 317.3828698396683
 1.7054302178468843E9, 8.8560830950737, -35.663685977458954, -53.61520576477051, 407.8585295677185
 1.7054302178468843E9, 29.44049245119095, -41.40817230939865, -60.31710648536682, 432.7513036727905
 1.7054302178625517E9, -88.560830950737, -196.03059607744217, -169.22299319505692, 315.2286874651909
 1.7054302178625517E9, -41.647525906562805, -100.0498036146164, -98.85303562879562, 368.60453963279724
 1.7054302178632667E9, 49.54619461297989, -0.23935359716415405, -34.22756439447403, 455.01118820905685
 1.7054302178632667E9, -55.05132734775543, -157.49466693401337, -147.4418158531189, 346.8233622908592
 1.7054302178771012E9, -75.87509030103683, -154.62242376804352, -137.14961117506027, 329.350549697876
 1.7054302178771012E9, 37.09980756044388, -2.6328895688056946, -26.5682492852211, 448.30928748846054
 1.7054302178928468E9, -8.377375900745392, -98.85303562879562, -100.76786440610886, 391.8218385577202
 1.7054302178928468E9, -87.12470936775208, -190.04675614833832, -157.01595973968506, 312.83515149354935
 1.7054302178932831E9, 7.898668706417084, -34.94562518596649, -52.41843777894974, 417.1933198571205
 1.7054302178932831E9, 33.03079640865326, -37.81786835193634, -62.949996054172516, 435.6235468387604
 1.7054302179068632E9, -88.08212375640869, -197.4667176604271, -177.6003690958023, 305.1758363842964
 1.7054302179068632E9, -38.77528274059296, -105.55493634939194, -102.20398598909378, 363.57811409235
 1.7054302179225264E9, 47.15265864133835, -6.9412543177604675, -46.434597849845886, 442.804154753685
 1.7054302179225264E9, -47.63136583566666, -158.21272772550583, -152.22888779640198, 347.5414230823517
 1.7054302179232795E9, -78.50797986984253, -161.80303168296814, -143.37280470132828, 321.9305881857872
 1.7054302179232795E9, 36.381746768951416, -6.462547123432159, -37.33916115760803, 444.2402763366699
 1.7054302179368849E9, -11.24961906671524, -101.00721800327301, -110.82071548700333, 387.0347666144371
 1.7054302179368849E9, -95.74143886566162, -193.39770650863647, -162.28173887729645, 301.1068252325058
 1.7054302179525652E9, 9.334790289402008, -39.73269712924957, -51.93973058462143, 409.5340047478676
 1.7054302179525652E9, 37.09980756044388, -34.22756439447403, -60.31710648536682, 434.9054860472679
 1.705430217953223E9, -83.05569821596146, -193.87641370296478, -170.41976118087769, 314.98933386802673
 1.705430217953223E9, -33.27015000581741, -95.74143886566162, -92.62984210252762, 369.08324682712555
 1.7054302179668696E9, 45.716537058353424, -4.069011151790619, -35.90303957462311, 456.68666338920593
 1.7054302179668696E9, -55.290680944919586, -158.69143491983414, -145.76634067296982, 350.1743126511574
 1.705430217983168E9, -67.97642159461975, -150.79276621341705, -133.3199536204338, 328.6324889063835
 1.705430217983168E9, 42.12623310089111, 4.547718346118927, -27.525663673877716, 449.9847626686096
 1.7054302179976065E9, -1.6754751801490784, -91.672427713871, -106.2729971408844, 396.8482640981674
 1.7054302179976065E9, -91.672427713871, -188.6106345653534, -164.19656765460968, 305.6545435786247
 1.7054302179983249E9, 0.23935359716415405, -42.844293892383575, -59.83839929103851, 406.66176158189774
 1.7054302179983249E9, 27.76501727104187, -40.21140432357788, -61.753228068351746, 436.82031482458115
 1.7054302180126276E9, -93.82661008834839, -203.6899111866951, -172.33458995819092, 314.0319194793701
 1.7054302180126276E9, -40.450757920742035, -98.85303562879562, -91.91178131103516, 372.912904381752
 1.7054302180132542E9, 45.47718346118927, -1.9148287773132324, -31.35532122850418, 453.57506662607193
 1.7054302180132542E9, -52.65779137611389, -157.01595973968506, -147.9205230474472, 345.3872407078743
 1.7054302180270643E9, -78.74733346700668, -158.21272772550583, -138.1070255637169, 327.1963673233986
 1.7054302180270643E9, 44.75912266969681, 2.6328895688056946, -27.286310076713562, 447.83058029413223
 1.7054302180419168E9, -2.8722431659698486, -95.02337807416916, -106.99105793237686, 389.1889489889145
 1.7054302180419168E9, -91.91178131103516, -188.6106345653534, -165.1539820432663, 305.6545435786247
 1.7054302180575104E9, 32.07338201999664, -39.01463633775711, -59.12033849954605, 428.2035853266716
 1.7054302180575104E9, -83.77375900745392, -188.84998816251755, -162.5210924744606, 319.05834501981735
 1.7054302180582397E9, -37.09980756044388, -93.58725649118423, -86.88535577058792, 376.98191553354263
 1.7054302180582397E9, 40.21140432357788, -10.292204678058624, -37.09980756044388, 455.7292490005493
 1.705430218072089E9, -54.33326655626297, -159.17014211416245, -139.5431471467018, 351.37108063697815
 1.705430218072089E9, -68.2157751917839, -148.15987664461136, -128.77223527431488, 338.2066327929497
 1.7054302180875328E9, 44.041061878204346, 9.574143886566162, -17.472812592983246, 458.60149216651917
 1.7054302180875328E9, -3.3509503602981567, -88.32147735357285, -94.784024477005, 404.98628640174866
 1.7054302180883105E9, -89.75759893655777, -186.69580578804016, -157.97337412834167, 310.4416155219078
 1.7054302180883105E9, 12.207033455371857, -33.03079640865326, -50.98231619596481, 417.6720270514488
 1.705430218101836E9, 38.5359291434288, -38.057221949100494, -53.85455936193466, 440.6499723792076
 1.705430218101836E9, -85.20988059043884, -191.48287773132324, -166.59010362625122, 323.6060633659363
 1.705430218117999E9, -37.09980756044388, -92.15113490819931, -89.27889174222946, 376.7425619363785
 1.705430218117999E9, 45.237829864025116, -4.787071943283081, -30.397906839847565, 461.23438173532486
 1.7054302181328025E9, -52.41843777894974, -156.2978989481926, -134.75607520341873, 358.55168855190277
 1.7054302181328025E9, -69.65189677476883, -145.2876334786415, -127.0967600941658, 340.1214615702629
 1.7054302181334004E9, 47.15265864133835, 5.983839929103851, -16.03669100999832, 465.0640392899513
 1.7054302181334004E9, -3.829657554626465, -92.15113490819931, -96.22014605998993, 408.57659035921097
 1.7054302181475585E9, -89.51824533939362, -184.54162341356277, -157.01595973968506, 317.3828698396683
 1.7054302181475585E9, 15.557983815670013, -27.76501727104187, -40.69011151790619, 425.81004935503006
 1.70543021814826E9, 28.004370868206024, -38.5359291434288, -56.00874173641205, 438.7351436018944
 1.70543021814826E9, -85.9279413819313, -192.2009385228157, -166.59010362625122, 320.73382019996643
 1.7054302181784854E9, -30.63726043701172, -88.80018454790115, -82.57699102163315, 383.9231698513031
 1.7054302181784854E9, 55.769388139247894, 4.308364748954773, -24.89277410507202, 463.86727130413055
 1.705430218179146E9, -49.06748741865158, -148.3992302417755, -137.38896477222443, 353.52526301145554
 1.705430218179146E9, -72.04543274641037, -147.4418158531189, -129.01158887147903, 336.0524504184723
 1.705430218179912E9, 34.22756439447403, -1.4361215829849243, -27.286310076713562, 447.83058029413223
 1.705430218179912E9, -20.345055758953094, -112.0174834728241, -112.97489786148071, 382.9657554626465
 1.705430218191833E9, -102.68269318342209, -198.4241320490837, -167.786871612072, 298.71328926086426
 1.705430218191833E9, -9.095436692237854, -45.47718346118927, -55.769388139247894, 413.1243087053299
 1.7054302182076633E9, 12.685740649700165, -54.572620153427124, -75.39638310670853, 424.134574174881
 1.7054302182076633E9, -96.22014605998993, -201.77508240938187, -174.72812592983246, 312.1170907020569
 1.705430218208252E9, -40.21140432357788, -95.02337807416916, -92.39048850536346, 370.04066121578217
 1.705430218208252E9, 44.2804154753685, -7.180607914924622, -40.69011151790619, 455.7292490005493
 1.7054302182219706E9, -59.59904569387436, -160.60626369714737, -146.72375506162643, 351.131727039814
 1.7054302182219706E9, -81.61957663297653, -158.9307885169983, -132.3625392317772, 333.18020725250244
 1.7054302182375984E9, 44.99847626686096, 8.616729497909546, -19.626994967460632, 461.71308892965317
 1.7054302182375984E9, -12.44638705253601, -99.09238922595978, -100.28915721178055, 401.39598244428635
 1.7054302182383084E9, -88.80018454790115, -183.344855427742, -155.8191917538643, 320.9731737971306
 1.7054302182383084E9, 7.65931510925293, -35.90303957462311, -45.95589065551758, 423.17715978622437
 1.705430218251808E9, 31.594674825668335, -39.73269712924957, -61.51387447118759, 436.34160763025284
 1.705430218251808E9, -85.449234187603, -195.3125352859497, -162.76044607162476, 317.8615770339966
 1.7054302182679453E9, -33.27015000581741, -91.672427713871, -89.51824533939362, 373.15225797891617
 1.7054302182679453E9, 52.897144973278046, -0.4787071943283081, -24.89277410507202, 468.4149896502495
 1.7054302182683506E9, -55.53003454208374, -152.94694858789444, -140.50056153535843, 348.9775446653366
 1.7054302182683506E9, -74.67832231521606, -154.62242376804352, -132.3625392317772, 331.7440856695175
 1.7054302182818477E9, 40.92946511507034, -3.829657554626465, -24.89277410507202, 455.48989540338516
 1.7054302182818477E9, -5.983839929103851, -100.28915721178055, -105.31558275222778, 399.0024464726448
 1.7054302182976139E9, -90.71501332521439, -184.30226981639862, -161.32432448863983, 309.72355473041534
 1.7054302182976139E9, 12.44638705253601, -32.791442811489105, -47.63136583566666, 418.15073424577713
 1.7054302182982793E9, 32.55208921432495, -37.578514754772186, -62.949996054172516, 434.4267788529396
 1.7054302182982793E9, -80.42280864715576, -188.84998816251755, -165.39333564043045, 314.7499802708626
 1.7054302183119593E9, -33.988210797309875, -92.39048850536346, -92.62984210252762, 376.024501144886
 1.7054302183119593E9, 48.34942662715912, -5.983839929103851, -37.09980756044388, 457.16537058353424
 1.70543021832826E9, -54.572620153427124, -160.60626369714737, -150.0747054219246, 342.7543511390686
 1.70543021832826E9, -82.8163446187973, -158.45208132266998, -140.50056153535843, 325.28153854608536
 1.7054302183289344E9, 46.19524425268173, 6.223193526268005, -21.063116550445557, 457.8834313750267
 1.7054302183289344E9, -3.829657554626465, -97.17756044864655, -95.02337807416916, 404.7469328045845
 1.7054302183423915E9, -100.76786440610886, -198.4241320490837, -167.30816441774368, 305.41518998146057
 1.7054302183423915E9, 35.184978783130646, -8.377375900745392, -23.456652522087097, 444.00092273950577
 1.7054302183575633E9, 51.46102339029312, -23.69600611925125, -47.15265864133835, 453.3357130289078
 1.7054302183575633E9, -59.12033849954605, -172.09523636102676, -151.0321198105812, 331.02602487802505
 1.7054302183582525E9, -1.6754751801490784, -66.30094641447067, -73.9602615237236, 387.75282740592957
 1.7054302183582525E9, 99.57109642028809, 36.860453963279724, -5.026425540447235, 483.25491267442703
 1.7054302183721356E9, 1.4361215829849243, -104.35816836357117, -108.9058867096901, 379.8541586995125
 1.7054302183721356E9, -2.3935359716415405, -86.64600217342377, -79.7047478556633, 379.8541586995125
 1.705430218387555E9, 121.11292016506195, 72.52413994073868, 26.328895688056946, 499.77031087875366
 1.705430218387555E9, 59.12033849954605, -40.450757920742035, -54.81197375059128, 438.97449719905853
 1.7054302183882604E9, -12.207033455371857, -124.70322412252426, -108.66653311252594, 352.5678486227989
 1.7054302183882604E9, 95.98079246282578, 42.844293892383575, 8.138022303581238, 469.61175763607025
 1.7054302184018967E9, 109.3845939040184, 28.004370868206024, -12.44638705253601, 476.31365835666656
 1.7054302184018967E9, -3.1115967631340027, -115.1290802359581, -107.46976512670517, 368.60453963279724
 1.7054302184175303E9, 35.663685977458954, -29.201138854026794, -42.12623310089111, 415.2784910798073
 1.7054302184175303E9, 119.91615217924118, 60.31710648536682, 19.148287773132324, 503.8393220305443
 1.705430218418257E9, 3.1115967631340027, -104.35816836357117, -93.34790289402008, 392.7792529463768
 1.705430218418257E9, -14.600569427013397, -98.85303562879562, -86.88535577058792, 368.3651860356331
 1.7054302184323013E9, 101.00721800327301, 56.2480953335762, 17.951519787311554, 491.6322885751724
 1.7054302184323013E9, 42.12623310089111, -56.966156125068665, -67.49771440029144, 427.246170938015
 1.7054302184475522E9, -39.97205072641373, -140.26120793819427, -115.60778743028641, 349.4562518596649
 1.7054302184475522E9, 42.60494029521942, -3.829657554626465, -23.935359716415405, 439.93191158771515
 1.7054302184482656E9, 67.25836080312729, -7.898668706417084, -30.876614034175873, 461.71308892965317
 1.7054302184482656E9, -58.40227770805359, -164.19656765460968, -141.93668311834335, 331.2653784751892
 1.7054302184622817E9, -8.138022303581238, -68.69448238611221, -70.36995756626129, 386.5560594201088
 1.7054302184622817E9, 66.06159281730652, 7.180607914924622, -28.722431659698486, 456.2079561948776
 1.7054302184775853E9, -41.647525906562805, -145.04827988147736, -138.34637916088104, 351.37108063697815
 1.7054302184775853E9, -64.86482483148575, -144.8089262843132, -129.49029606580734, 334.13762164115906
 1.7054302184783008E9, 40.69011151790619, -4.787071943283081, -34.466917991638184, 444.4796299338341
 1.7054302184783008E9, -14.839923024177551, -108.42717951536179, -106.75170433521271, 383.9231698513031
 1.7054302184919116E9, -89.51824533939362, -191.96158492565155, -162.9997996687889, 304.6971291899681
 1.7054302184919116E9, 6.462547123432159, -39.49334353208542, -54.33326655626297, 405.46499359607697
 1.7054302185083244E9, 24.17471331357956, -51.93973058462143, -74.67832231521606, 419.8262094259262
 1.7054302185083244E9, -83.77375900745392, -202.49314320087433, -173.77071154117584, 307.8087259531021
 1.7054302185227044E9, -38.77528274059296, -101.72527879476547, -100.76786440610886, 361.9026389122009
 1.7054302185227044E9, 50.0249018073082, -5.744486331939697, -38.057221949100494, 447.83058029413223
 1.705430218523332E9, -50.74296259880066, -161.32432448863983, -151.75018060207367, 335.81309682130814
 1.705430218523332E9, -71.56672555208206, -152.70759499073029, -132.3625392317772, 327.6750745177269
 1.7054302185372744E9, 48.58878022432327, 0.0, -28.96178525686264, 445.915751516819
 1.7054302185372744E9, -2.6328895688056946, -100.0498036146164, -103.87946116924286, 387.0347666144371
 1.705430218552536E9, -90.95436692237854, -186.69580578804016, -171.8558827638626, 296.3197532892227
 1.705430218552536E9, 1.1967679858207703, -41.88687950372696, -61.03516727685928, 400.91727524995804
 1.7054302185533478E9, 14.361215829849243, -60.556460082530975, -76.83250468969345, 411.68818712234497
 1.7054302185533478E9, -100.28915721178055, -210.3918119072914, -183.10550183057785, 300.1494108438492
 1.7054302185679345E9, -49.06748741865158, -111.06006908416748, -106.99105793237686, 353.0465558171272
 1.7054302185679345E9, 33.74885720014572, -23.217298924922943, -55.05132734775543, 438.7351436018944
 1.7054302185683687E9, -68.2157751917839, -178.31842988729477, -162.28173887729645, 331.50473207235336
 1.7054302185683687E9, -85.449234187603, -169.22299319505692, -148.63858383893967, 309.9629083275795
 1.7054302185819814E9, 23.217298924922943, -20.10570216178894, -43.32300108671188, 431.55453568696976
 1.7054302185819814E9, -23.456652522087097, -122.07033455371857, -116.56520181894302, 376.5032083392143
 1.705430218597538E9, -105.07622915506363, -202.49314320087433, -171.8558827638626, 294.64427810907364
 1.705430218597538E9, 0.9574143886566162, -46.913305044174194, -59.83839929103851, 406.1830543875694
 1.7054302185982823E9, 27.286310076713562, -46.434597849845886, -66.30094641447067, 428.92164611816406
 1.7054302185982823E9, -96.45949965715408, -204.88667917251587, -181.43002665042877, 300.38876444101334
 1.705430218612342E9, -43.80170828104019, -105.31558275222778, -103.40075397491455, 355.44009178876877
 1.705430218612342E9, 45.47718346118927, -17.233458995819092, -44.041061878204346, 442.56480115652084
 1.7054302186287084E9, -68.69448238611221, -175.20683312416077, -155.10113096237183, 337.24921840429306
 1.7054302186287084E9, -84.49181979894638, -172.33458995819092, -147.20246225595474, 317.6222234368324
 1.7054302186291776E9, 32.791442811489105, -7.65931510925293, -35.663685977458954, 433.469364464283
 1.7054302186291776E9, -33.50950360298157, -128.53288167715073, -132.3625392317772, 365.2535892724991
 1.7054302186418543E9, -101.96463239192963, -203.92926478385925, -176.16424751281738, 296.08039969205856
 1.7054302186418543E9, -2.1541823744773865, -46.434597849845886, -61.51387447118759, 404.02887201309204
 1.7054302186575675E9, 14.839923024177551, -59.359692096710205, -75.15702950954437, 418.3900878429413
 1.7054302186575675E9, -99.57109642028809, -212.30664068460464, -178.79713708162308, 301.82488602399826
 1.7054302186582696E9, -50.98231619596481, -112.97489786148071, -105.79428994655609, 359.26974934339523
 1.7054302186582696E9, 31.115967631340027, -23.69600611925125, -51.46102339029312, 441.3680331707001
 1.7054302186723936E9, -69.89125037193298, -179.27584427595139, -168.98363959789276, 328.1537817120552
 1.7054302186723936E9, -88.560830950737, -169.94105398654938, -148.15987664461136, 317.1435162425041
 1.7054302186876197E9, 32.791442811489105, -9.334790289402008, -32.3127356171608, 446.3944587111473
 1.7054302186876197E9, -19.626994967460632, -110.10265469551086, -111.53877627849579, 384.64123064279556
 1.7054302186883488E9, -92.39048850536346, -192.44029211997986, -156.2978989481926, 308.7661403417587
 1.7054302186883488E9, 3.829657554626465, -39.49334353208542, -50.74296259880066, 411.20947992801666
 1.7054302187018757E9, 21.063116550445557, -56.00874173641205, -68.45512878894806, 429.6397069096565
 1.7054302187018757E9, -94.784024477005, -204.88667917251587, -175.92489391565323, 309.0054939389229
 1.7054302187342107E9, -44.99847626686096, -101.72527879476547, -95.74143886566162, 366.92906445264816
 1.7054302187342107E9, 32.55208921432495, -25.610834896564484, -46.434597849845886, 443.2828619480133
 1.705430218734734E9, -71.32737195491791, -179.51519787311554, -158.21272772550583, 333.18020725250244
 1.705430218734734E9, -92.15113490819931, -167.54751801490784, -151.75018060207367, 313.31385868787766
 1.7054302187354908E9, 26.5682492852211, -16.754751801490784, -43.32300108671188, 435.3841932415962
 1.7054302187354908E9, -27.046956479549408, -120.63421297073364, -125.89999210834503, 368.3651860356331
 1.705430218736143E9, -101.96463239192963, -204.88667917251587, -167.30816441774368, 301.82488602399826
 1.705430218736143E9, -1.6754751801490784, -48.58878022432327, -59.83839929103851, 407.14046877622604
 1.7054302187468417E9, 17.233458995819092, -56.487448930740356, -67.7370679974556, 424.85263496637344
 1.7054302187468417E9, -105.55493634939194, -212.30664068460464, -180.47261226177216, 299.6707036495209
 1.7054302187622747E9, -51.22166979312897, -109.62394750118256, -99.09238922595978, 356.15815258026123
 1.7054302187622747E9, 38.5359291434288, -16.994105398654938, -45.95589065551758, 443.2828619480133
 1.705430218777595E9, -68.2157751917839, -176.6429547071457, -159.64884930849075, 332.2227928638458
 1.705430218777595E9, -83.77375900745392, -166.59010362625122, -140.50056153535843, 322.8880025744438
 1.7054302187782912E9, 35.4243323802948, -9.813497483730316, -33.988210797309875, 441.3680331707001
 1.7054302187782912E9, -25.850188493728638, -123.50645613670349, -126.6180528998375, 367.8864788413048
 1.7054302187920358E9, -104.35816836357117, -203.45055758953094, -173.29200434684753, 297.0378140807152
 1.7054302187920358E9, -3.829657554626465, -48.58878022432327, -62.71064245700836, 400.43856805562973
 1.705430218807856E9, 5.265779137611389, -71.80607914924622, -87.12470936775208, 410.73077273368835
 1.705430218807856E9, -104.83687555789948, -214.22146946191788, -193.39770650863647, 288.1817309856415
 1.7054302188083863E9, -44.519769072532654, -106.51235073804855, -102.20398598909378, 360.70587092638016
 1.7054302188083863E9, 38.057221949100494, -18.90893417596817, -48.82813382148743, 436.82031482458115
 1.7054302188220396E9, -67.97642159461975, -174.9674795269966, -158.9307885169983, 332.2227928638458
 1.7054302188220396E9, -80.66216224431992, -158.69143491983414, -137.62831836938858, 327.43572092056274
 1.7054302188375852E9, 31.594674825668335, -11.010265469551086, -34.22756439447403, 446.3944587111473
 1.7054302188375852E9, -20.345055758953094, -113.69295865297318, -111.06006908416748, 383.9231698513031
 1.7054302188384128E9, -102.20398598909378, -196.98801046609879, -168.02622520923615, 296.798460483551
 1.7054302188384128E9, -2.6328895688056946, -47.87071943283081, -58.8809849023819, 409.77335834503174
 1.7054302188521402E9, 13.643155038356781, -61.9925816655159, -77.31121188402176, 422.4590989947319
 1.7054302188521402E9, -91.43307411670685, -199.86025363206863, -177.6003690958023, 306.3726043701172
 1.705430218867548E9, -37.09980756044388, -95.98079246282578, -89.27889174222946, 371.4767827987671
 1.705430218867548E9, 42.36558669805527, -15.31863021850586, -39.97205072641373, 448.30928748846054
 1.705430218868281E9, -64.14676403999329, -170.18040758371353, -154.38307017087936, 329.350549697876
 1.705430218868281E9, -79.7047478556633, -156.2978989481926, -136.91025757789612, 328.39313530921936
 1.705430218898332E9, 42.60494029521942, -2.6328895688056946, -24.653420507907867, 452.85700583457947
 1.705430218898332E9, -16.03669100999832, -107.23041152954102, -108.18782591819763, 388.7102417945862
 1.7054302188989944E9, -95.02337807416916, -192.679645717144, -161.08497089147568, 307.09066516160965
 1.7054302188989944E9, -7.419961512088776, -50.98231619596481, -57.20550972223282, 413.36366230249405
 1.7054302188997235E9, 15.079276621341705, -53.61520576477051, -68.93383598327637, 430.8364748954773
 1.7054302188997235E9, -96.45949965715408, -204.1686183810234, -172.81329715251923, 302.7823004126549
 1.705430218912216E9, -43.80170828104019, -101.00721800327301, -95.74143886566162, 367.1684180498123
 1.705430218912216E9, 32.791442811489105, -22.738591730594635, -47.3920122385025, 442.08609396219254
 1.7054302189282413E9, -68.2157751917839, -173.77071154117584, -159.17014211416245, 332.70150005817413
 1.7054302189282413E9, -79.7047478556633, -164.43592125177383, -139.5431471467018, 320.2551130056381
 1.7054302189289644E9, 33.50950360298157, -11.488972663879395, -36.62110036611557, 439.45320439338684
 1.7054302189289644E9, -19.148287773132324, -111.29942268133163, -111.53877627849579, 383.20510905981064
 1.7054302189421277E9, -110.34200829267502, -203.2112039923668, -174.24941873550415, 301.34617882966995
 1.7054302189421277E9, 6.9412543177604675, -36.14239317178726, -51.46102339029312, 421.5016846060753
 1.705430218958042E9, 14.839923024177551, -56.00874173641205, -71.32737195491791, 426.5281101465225
 1.705430218958042E9, -98.13497483730316, -202.49314320087433, -173.29200434684753, 306.61195796728134
 1.7054302189583972E9, -36.62110036611557, -94.54467087984085, -88.08212375640869, 373.3916115760803
 1.7054302189583972E9, 35.90303957462311, -22.020530939102173, -51.46102339029312, 434.66613245010376
 1.7054302189719057E9, -56.966156125068665, -164.91462844610214, -149.83535182476044, 335.0950360298157
 1.7054302189719057E9, -71.32737195491791, -149.35664463043213, -134.03801441192627, 329.1111961007118
 1.7054302189875357E9, 42.844293892383575, -2.3935359716415405, -29.201138854026794, 450.2241162657738
 1.7054302189875357E9, -18.90893417596817, -113.93231225013733, -114.41101944446564, 378.6573907136917
 1.705430218988294E9, -94.784024477005, -191.96158492565155, -164.43592125177383, 305.8938971757889
 1.705430218988294E9, 5.744486331939697, -40.92946511507034, -48.82813382148743, 415.0391374826431
 1.7054302190019257E9, 15.797337412834167, -53.375852167606354, -70.60931116342545, 420.7836238145828
 1.7054302190019257E9, -95.50208526849747, -207.51956874132156, -181.19067305326462, 299.6707036495209
 1.7054302190176785E9, -41.88687950372696, -101.72527879476547, -103.1614003777504, 360.70587092638016
 1.7054302190176785E9, 41.647525906562805, -16.51539820432663, -45.716537058353424, 441.8467403650284
 1.7054302190182498E9, -61.03516727685928, -170.41976118087769, -153.90436297655106, 335.3343896269798
 1.7054302190182498E9, -79.46539425849915, -157.73402053117752, -141.6973295211792, 321.4518809914589
 1.7054302190318751E9, 41.647525906562805, -1.9148287773132324, -28.96178525686264, 451.42088425159454
 1.7054302190318751E9, -14.600569427013397, -109.86330109834671, -108.42717951536179, 382.4870482683182
 1.7054302190468607E9, -86.40664857625961, -187.65322017669678, -157.73402053117752, 307.09066516160965
 1.7054302190468607E9, 10.531558275222778, -32.3127356171608, -50.74296259880066, 414.5604302883148
 1.7054302190796032E9, -87.60341656208038, -193.15835291147232, -173.05265074968338, 313.31385868787766
 1.7054302190796032E9, -38.057221949100494, -100.28915721178055, -94.3053172826767, 368.60453963279724
 1.7054302190802932E9, 42.12623310089111, -9.574143886566162, -39.73269712924957, 451.42088425159454
 1.7054302190802932E9, -56.00874173641205, -158.21272772550583, -144.56957268714905, 342.7543511390686
 1.705430219081097E9, -70.36995756626129, -147.9205230474472, -130.44771045446396, 329.350549697876
 1.705430219081097E9, 40.21140432357788, 3.829657554626465, -26.807602882385254, 446.63381230831146
 1.7054302190818057E9, -17.951519787311554, -107.23041152954102, -112.25683706998825, 382.9657554626465
 1.7054302190818057E9, -100.5285108089447, -196.03059607744217, -167.06881082057953, 300.38876444101334
 1.705430219092108E9, -1.4361215829849243, -42.844293892383575, -59.359692096710205, 408.8159439563751
 1.705430219092108E9, 12.925094246864319, -60.79581367969513, -77.55056548118591, 413.6030158996582
 1.70543021910703E9, -100.5285108089447, -203.2112039923668, -183.344855427742, 297.75587487220764
 1.70543021910703E9, -41.1688187122345, -94.3053172826767, -97.17756044864655, 375.0670867562294
 1.7054302191226287E9, 47.15265864133835, -8.8560830950737, -36.860453963279724, 455.7292490005493
 1.7054302191226287E9, -56.00874173641205, -155.34048455953598, -143.13345110416412, 346.8233622908592
 1.7054302191233108E9, -71.32737195491791, -144.09086549282074, -127.0967600941658, 342.99370473623276
 1.7054302191233108E9, 46.67395144701004, 3.590303957462311, -18.190873384475708, 460.9950281381607
 1.7054302191368363E9, -13.882508635520935, -101.96463239192963, -99.57109642028809, 397.80567848682404
 1.7054302191368363E9, -87.36406296491623, -176.16424751281738, -151.0321198105812, 316.6648090481758
 1.705430219152619E9, 22.738591730594635, -21.78117734193802, -35.663685977458954, 433.469364464283
 1.705430219152619E9, 34.22756439447403, -39.97205072641373, -55.290680944919586, 439.692557990551
 1.705430219153288E9, -85.449234187603, -190.28610974550247, -164.91462844610214, 314.98933386802673
 1.705430219153288E9, -33.27015000581741, -88.80018454790115, -87.12470936775208, 378.89674431085587
 1.7054302191668508E9, 55.05132734775543, 3.3509503602981567, -25.610834896564484, 471.0478792190552
 1.7054302191668508E9, -59.359692096710205, -165.87204283475876, -142.41539031267166, 347.78077667951584
 1.7054302191825964E9, -77.31121188402176, -154.38307017087936, -133.3199536204338, 332.9408536553383
 1.7054302191825964E9, 39.73269712924957, 3.1115967631340027, -21.541823744773865, 456.68666338920593
 1.7054302191833727E9, -20.10570216178894, -105.79428994655609, -106.2729971408844, 391.8218385577202
 1.7054302191833727E9, -96.93820685148239, -187.89257377386093, -158.9307885169983, 310.20226192474365
 1.70543021919686E9, 22.97794532775879, -21.541823744773865, -36.62110036611557, 431.07582849264145
 1.70543021919686E9, 30.15855324268341, -39.97205072641373, -55.769388139247894, 439.93191158771515
 1.7054302192127876E9, -83.77375900745392, -185.73839139938354, -161.08497089147568, 321.4518809914589
 1.7054302192127876E9, -28.96178525686264, -80.90151584148407, -83.53440541028976, 386.0773522257805
 1.705430219213362E9, 51.700376987457275, -2.1541823744773865, -27.286310076713562, 460.9950281381607
 1.705430219213362E9, -45.95589065551758, -150.0747054219246, -129.49029606580734, 358.3123349547386
 1.7054302192437217E9, -62.949996054172516, -132.3625392317772, -118.71938419342041, 345.8659479022026
 1.7054302192437217E9, 56.00874173641205, 16.51539820432663, -8.616729497909546, 472.0052936077118
 1.7054302192444212E9, -12.685740649700165, -101.48592519760132, -105.31558275222778, 391.8218385577202
 1.7054302192444212E9, -84.25246620178223, -181.19067305326462, -155.10113096237183, 318.8189914226532
 1.7054302192579243E9, 13.403801441192627, -28.243724465370178, -44.041061878204346, 427.246170938015
 1.7054302192579243E9, 23.935359716415405, -47.87071943283081, -69.41254317760468, 422.9378061890602
 1.7054302192583477E9, -84.73117339611053, -192.91899931430817, -165.87204283475876, 317.8615770339966
 1.7054302192583477E9, -30.63726043701172, -90.23630613088608, -91.672427713871, 373.3916115760803
 1.705430219289646E9, 47.87071943283081, -7.180607914924622, -35.184978783130646, 451.6602378487587
 1.705430219289646E9, -59.83839929103851, -167.786871612072, -149.59599822759628, 339.88210797309875
 1.7054302192903824E9, -67.7370679974556, -148.63858383893967, -127.33611369132996, 337.9672791957855
 1.7054302192903824E9, 46.434597849845886, 5.744486331939697, -20.345055758953094, 456.2079561948776
 1.7054302192910752E9, -10.292204678058624, -100.5285108089447, -102.92204678058624, 396.3695569038391
 1.7054302192910752E9, -92.15113490819931, -185.73839139938354, -158.45208132266998, 314.5106266736984
 1.7054302192920413E9, 14.121862232685089, -29.919199645519257, -42.12623310089111, 430.357767701149
 1.7054302192920413E9, 28.004370868206024, -43.56235468387604, -58.8809849023819, 440.1712651848793
 1.705430219301916E9, -87.12470936775208, -190.28610974550247, -165.39333564043045, 319.2976986169815
 1.705430219301916E9, -29.679846048355103, -78.74733346700668, -79.46539425849915, 387.5134738087654
 1.7054302193168871E9, 47.87071943283081, -5.983839929103851, -29.44049245119095, 454.05377382040024
 1.7054302193168871E9, -58.8809849023819, -163.23915326595306, -151.98953419923782, 341.0788759589195
 1.70543021933271E9, -70.60931116342545, -149.11729103326797, -131.16577124595642, 330.06861048936844
 1.70543021933271E9, 47.15265864133835, 6.462547123432159, -20.345055758953094, 457.4047241806984
 1.7054302193333666E9, -16.754751801490784, -112.73554426431656, -113.45360505580902, 383.4444626569748
 1.7054302193333666E9, -90.23630613088608, -190.76481693983078, -161.56367808580399, 309.0054939389229
 1.7054302193468783E9, 9.574143886566162, -36.14239317178726, -50.98231619596481, 416.2359054684639
 1.7054302193468783E9, 18.430226981639862, -58.8809849023819, -77.31121188402176, 416.2359054684639
 1.705430219362646E9, -95.26273167133331, -199.38154643774033, -180.47261226177216, 301.1068252325058
 1.705430219362646E9, -36.14239317178726, -93.34790289402008, -92.39048850536346, 367.40777164697647
 1.7054302193632896E9, 45.47718346118927, -12.44638705253601, -42.12623310089111, 444.2402763366699
 1.7054302193632896E9, -62.47128885984421, -167.54751801490784, -151.51082700490952, 335.573743224144
 1.705430219377036E9, -65.82223922014236, -145.52698707580566, -123.74580973386765, 343.7117655277252
 1.705430219377036E9, 42.12623310089111, -1.1967679858207703, -24.17471331357956, 455.250541806221
 1.705430219392604E9, -15.797337412834167, -108.18782591819763, -106.75170433521271, 396.8482640981674
 1.705430219392604E9, -88.32147735357285, -181.43002665042877, -151.51082700490952, 320.9731737971306
 1.7054302193932936E9, 17.951519787311554, -25.37148129940033, -31.115967631340027, 431.7938892841339
 1.7054302193932936E9, 29.919199645519257, -44.041061878204346, -50.74296259880066, 444.9583371281624
 1.7054302194068475E9, -89.75759893655777, -197.22736406326294, -168.50493240356445, 312.5957978963852
 1.7054302194068475E9, -35.4243323802948, -88.80018454790115, -89.03953814506531, 378.1786835193634
 1.705430219422974E9, 44.99847626686096, -10.531558275222778, -31.83402842283249, 458.8408457636833
 1.705430219422974E9, -58.162924110889435, -166.82945722341537, -146.24504786729813, 347.78077667951584
 1.705430219423347E9, -74.67832231521606, -153.1863021850586, -132.8412464261055, 332.70150005817413
 1.705430219423347E9, 46.19524425268173, 5.265779137611389, -20.10570216178894, 457.8834313750267
 1.7054302194368825E9, -13.164447844028473, -105.07622915506363, -105.79428994655609, 386.5560594201088
 1.7054302194368825E9, -91.672427713871, -188.37128096818924, -160.36691009998322, 311.6383835077286
 1.7054302194527385E9, 16.754751801490784, -28.483078062534332, -44.99847626686096, 420.3049166202545
 1.7054302194527385E9, 29.44049245119095, -44.519769072532654, -61.51387447118759, 432.2725964784622
 1.7054302194533248E9, -84.49181979894638, -194.11576730012894, -167.54751801490784, 310.68096911907196
 1.7054302194533248E9, -33.50950360298157, -89.51824533939362, -88.08212375640869, 376.024501144886
 1.7054302194668524E9, 44.2804154753685, -9.334790289402008, -38.5359291434288, 449.74540907144547
 1.7054302194668524E9, -61.51387447118759, -168.02622520923615, -151.27147340774536, 332.9408536553383
 1.7054302194825716E9, -68.45512878894806, -147.9205230474472, -126.37869930267334, 339.1640471816063
 1.7054302194825716E9, 39.73269712924957, 2.1541823744773865, -23.935359716415405, 452.37829864025116
 1.7054302194833083E9, -19.38764137029648, -111.06006908416748, -113.93231225013733, 379.3754515051842
 1.7054302194833083E9, -97.17756044864655, -187.89257377386093, -161.08497089147568, 307.09066516160965
 1.705430219496925E9, 5.026425540447235, -40.21140432357788, -50.98231619596481, 419.8262094259262
 1.705430219496925E9, 18.90893417596817, -50.26425540447235, -68.93383598327637, 427.00681734085083
 1.7054302195125866E9, -98.13497483730316, -198.90283924341202, -168.2655788064003, 313.5532122850418
 1.7054302195125866E9, -33.50950360298157, -89.03953814506531, -89.03953814506531, 378.89674431085587
 1.7054302195132883E9, 39.73269712924957, -7.898668706417084, -40.92946511507034, 448.5486410856247
 1.7054302195132883E9, -56.00874173641205, -160.60626369714737, -148.87793743610382, 335.3343896269798
 1.705430219527086E9, -75.15702950954437, -155.8191917538643, -135.23478239774704, 327.43572092056274
 1.705430219527086E9, 44.2804154753685, 2.6328895688056946, -20.823762953281403, 453.3357130289078
 1.7054302195426483E9, -17.951519787311554, -106.03364354372025, -116.08649462461472, 381.52963387966156
 1.7054302195426483E9, -88.80018454790115, -176.6429547071457, -156.7766061425209, 311.3990299105644
 1.7054302195433123E9, 8.616729497909546, -34.466917991638184, -55.290680944919586, 410.4914191365242
 1.7054302195433123E9, 16.994105398654938, -54.33326655626297, -67.25836080312729, 422.9378061890602
 1.7054302195568397E9, -88.80018454790115, -193.63706010580063, -166.59010362625122, 311.87773710489273
 1.7054302195568397E9, -35.4243323802948, -84.25246620178223, -89.03953814506531, 376.024501144886
 1.705430219572861E9, 43.80170828104019, -9.574143886566162, -40.21140432357788, 451.89959144592285
 1.705430219572861E9, -61.27452087402344, -165.87204283475876, -154.1437165737152, 333.18020725250244
 1.7054302195734303E9, -72.28478634357452, -151.98953419923782, -129.96900326013565, 333.4195608496666
 1.7054302195734303E9, 39.01463633775711, 2.3935359716415405, -19.38764137029648, 456.2079561948776
 1.7054302195870068E9, -23.456652522087097, -114.65037304162979, -113.21425145864487, 382.9657554626465
 1.7054302195870068E9, -106.99105793237686, -194.11576730012894, -163.95721405744553, 311.3990299105644
 1.7054302196025546E9, 2.1541823744773865, -37.578514754772186, -50.98231619596481, 421.022977411747
 1.7054302196025546E9, 13.164447844028473, -57.20550972223282, -74.91767591238022, 416.47525906562805
 1.705430219603278E9, -98.61368203163147, -203.2112039923668, -178.31842988729477, 298.9526428580284
 1.705430219603278E9, -42.844293892383575, -99.33174282312393, -94.06596368551254, 364.0568212866783
 1.705430219616878E9, 45.237829864025116, -10.292204678058624, -37.33916115760803, 448.78799468278885
 1.705430219616878E9, -59.12033849954605, -164.675274848938, -150.31405901908875, 339.1640471816063
 1.7054302196325505E9, -68.69448238611221, -138.1070255637169, -124.70322412252426, 336.0524504184723
 1.7054302196325505E9, 43.08364748954773, 5.505132734775543, -22.259884536266327, 456.2079561948776
 1.7054302196332562E9, -19.626994967460632, -108.42717951536179, -110.82071548700333, 386.31670582294464
 1.7054302196332562E9, -87.84277015924454, -181.90873384475708, -155.10113096237183, 311.3990299105644
 1.70543021966339E9, 20.58440935611725, -26.807602882385254, -41.647525906562805, 423.6558669805527
 1.70543021966339E9, 28.004370868206024, -44.75912266969681, -63.66805684566498, 429.6397069096565
 1.705430219664035E9, -91.91178131103516, -200.0996072292328, -174.72812592983246, 307.56937235593796
 1.705430219664035E9, -32.07338201999664, -86.16729497909546, -88.32147735357285, 373.6309651732445
 1.7054302196647985E9, 50.0249018073082, -8.8560830950737, -34.466917991638184, 452.37829864025116
 1.7054302196647985E9, -56.966156125068665, -162.0423852801323, -144.56957268714905, 346.10530149936676
 1.7054302196769083E9, -68.69448238611221, -144.3302190899849, -131.40512484312057, 332.46214646101
 1.7054302196769083E9, 43.80170828104019, 0.0, -30.15855324268341, 452.37829864025116
 1.7054302196931932E9, -15.557983815670013, -110.82071548700333, -111.06006908416748, 382.4870482683182
 1.7054302196931932E9, -88.08212375640869, -183.10550183057785, -154.62242376804352, 310.68096911907196
 1.7054302197079132E9, 7.898668706417084, -32.791442811489105, -55.769388139247894, 412.1668943166733
 1.7054302197079132E9, 26.328895688056946, -44.519769072532654, -66.77965360879898, 428.44293892383575
 1.705430219708426E9, -93.82661008834839, -199.38154643774033, -171.8558827638626, 309.24484753608704
 1.705430219708426E9, -34.70627158880234, -82.09828382730484, -86.16729497909546, 378.89674431085587
 1.705430219722767E9, 48.34942662715912, -6.9412543177604675, -38.5359291434288, 450.7028234601021
 1.705430219722767E9, -60.79581367969513, -166.35075002908707, -148.63858383893967, 337.4885720014572
 1.705430219723376E9, -70.8486647605896, -144.8089262843132, -130.44771045446396, 333.65891444683075
 1.705430219723376E9, 46.434597849845886, 3.3509503602981567, -21.063116550445557, 453.3357130289078
 1.7054302197368488E9, -8.616729497909546, -105.07622915506363, -105.55493634939194, 385.83799862861633
 1.7054302197368488E9, -85.449234187603, -179.51519787311554, -152.94694858789444, 314.98933386802673
 1.7054302197689302E9, 17.7121661901474, -21.30247014760971, -43.56235468387604, 423.8952205777168
 1.7054302197689302E9, 29.919199645519257, -41.647525906562805, -61.9925816655159, 422.9378061890602
 1.705430219769626E9, -93.58725649118423, -198.66348564624786, -179.7545514702797, 295.12298530340195
 1.705430219769626E9, -28.243724465370178, -81.38022303581238, -88.560830950737, 367.6471252441406
 1.7054302197704792E9, 50.503609001636505, -4.069011151790619, -28.96178525686264, 452.138945043087
 1.7054302197704792E9, -50.0249018073082, -155.10113096237183, -144.8089262843132, 345.14788711071014
 1.7054302197711303E9, -69.17318958044052, -144.3302190899849, -132.12318563461304, 331.50473207235336
 1.7054302197711303E9, 49.06748741865158, 4.308364748954773, -22.49923813343048, 453.0963594317436
 1.7054302197823944E9, -7.180607914924622, -100.5285108089447, -101.48592519760132, 388.470888197422
 1.7054302197823944E9, -89.99695253372192, -181.19067305326462, -160.36691009998322, 310.9203227162361
 1.7054302197968493E9, 15.079276621341705, -22.738591730594635, -44.041061878204346, 427.246170938015
 1.7054302197968493E9, 25.850188493728638, -46.913305044174194, -65.34353202581406, 429.1609997153282
 1.7054302198126197E9, -87.12470936775208, -186.21709859371185, -162.76044607162476, 314.0319194793701
 1.7054302198126197E9, -31.594674825668335, -84.49181979894638, -84.73117339611053, 374.34902596473694
 1.705430219813282E9, 46.67395144701004, -4.547718346118927, -33.50950360298157, 459.5589065551758
 1.705430219813282E9, -61.753228068351746, -163.47850686311722, -152.46824139356613, 341.796936750412
 1.7054302198272543E9, -73.00284713506699, -144.09086549282074, -122.54904174804688, 336.77051120996475
 1.7054302198272543E9, 49.06748741865158, 11.488972663879395, -20.345055758953094, 459.5589065551758
 1.7054302198425581E9, -20.58440935611725, -110.58136188983917, -118.00132340192795, 374.5883795619011
 1.7054302198425581E9, -86.88535577058792, -181.19067305326462, -156.7766061425209, 307.56937235593796
 1.7054302198432848E9, 8.8560830950737, -37.81786835193634, -56.72680252790451, 408.8159439563751
 1.7054302198432848E9, 20.823762953281403, -54.81197375059128, -70.36995756626129, 422.69845259189606
 1.705430219856841E9, -79.7047478556633, -184.54162341356277, -162.76044607162476, 318.8189914226532
 1.705430219856841E9, -26.08954209089279, -83.77375900745392, -86.16729497909546, 378.89674431085587
 1.7054302198727815E9, 49.06748741865158, -6.9412543177604675, -30.63726043701172, 459.5589065551758
 1.7054302198727815E9, -52.65779137611389, -155.34048455953598, -145.04827988147736, 349.21689826250076
 1.7054302198733487E9, -65.82223922014236, -136.4315503835678, -115.84714102745056, 351.37108063697815
 1.7054302198733487E9, 49.06748741865158, 9.334790289402008, -17.951519787311554, 461.9524425268173
 1.7054302198869505E9, -17.472812592983246, -110.58136188983917, -109.62394750118256, 387.27412021160126
 1.7054302198869505E9, -95.98079246282578, -186.69580578804016, -154.1437165737152, 315.94674825668335
 1.7054302199025445E9, 9.095436692237854, -30.15855324268341, -43.56235468387604, 424.6132813692093
 1.7054302199025445E9, 18.430226981639862, -47.15265864133835, -64.38611763715744, 432.9906572699547
 1.7054302199032648E9, -96.45949965715408, -194.8338280916214, -163.23915326595306, 312.5957978963852
 1.7054302199032648E9, -36.381746768951416, -88.32147735357285, -82.337637424469, 382.4870482683182
 1.70543021991721E9, 41.88687950372696, -9.574143886566162, -31.594674825668335, 458.60149216651917
 1.70543021991721E9, -66.77965360879898, -169.46234679222107, -158.21272772550583, 337.0098648071289
 1.7054302199327283E9, -73.9602615237236, -146.24504786729813, -130.2083568572998, 334.8556824326515
 1.7054302199327283E9, 42.12623310089111, -2.6328895688056946, -25.132127702236176, 456.4473097920418
 1.7054302199333074E9, -22.49923813343048, -122.78839534521103, -116.56520181894302, 379.3754515051842
 1.7054302199333074E9, -101.48592519760132, -193.87641370296478, -165.6326892375946, 304.2184219956398
 1.70543021994689E9, 2.3935359716415405, -39.253989934921265, -52.897144973278046, 409.77335834503174
