 Timestamp, EXG Channel 0, EXG Channel 1, EXG Channel 2, EXG Channel 3
 1.7052701505462933E9, 511.4986371397972, -65.34353202581406, 125.89999210834503, -50.503609001636505
 1.7052701505462933E9, 445.4370443224907, -179.27584427595139, 443.04350835084915, -159.17014211416245
 1.7052701505609577E9, 396.60891050100327, -148.63858383893967, 78.74733346700668, -134.99542880058289
 1.7052701505609577E9, 476.31365835666656, -67.25836080312729, 78.02927267551422, -56.00874173641205
 1.7052701505754392E9, 483.73361986875534, -106.03364354372025, 316.1861018538475, -92.39048850536346
 1.7052701505754392E9, 401.1566288471222, -145.04827988147736, 132.12318563461304, -135.9528431892395
 1.7052701505761192E9, 443.7615691423416, -66.77965360879898, -1.4361215829849243, -62.949996054172516
 1.7052701505761192E9, 503.360614836216, -69.41254317760468, 254.6722273826599, -65.1041784286499
 1.7052701505899332E9, 419.10814863443375, -156.53725254535675, 193.63706010580063, -145.04827988147736
 1.7052701505899332E9, 412.40624791383743, -110.10265469551086, -50.74296259880066, -95.74143886566162
 1.7052701506054363E9, 504.55738282203674, -57.44486331939697, 147.9205230474472, -39.97205072641373
 1.7052701506054363E9, 454.2931274175644, -124.46387052536011, 268.794089615345, -112.73554426431656
 1.7052701506061013E9, 395.17278891801834, -128.53288167715073, 14.839923024177551, -120.15550577640533
 1.7052701506061013E9, 474.6381831765175, -57.68421691656113, 52.41843777894974, -48.110073029994965
 1.7052701506198068E9, 476.5530119538307, -108.18782591819763, 280.52241587638855, -87.12470936775208
 1.7052701506198068E9, 391.1037777662277, -148.3992302417755, 103.1614003777504, -138.82508635520935
 1.7052701506355176E9, 436.580961227417, -66.54030001163483, -14.839923024177551, -64.6254712343216
 1.7052701506355176E9, 505.2754436135292, -59.59904569387436, 241.02907234430313, -54.33326655626297
 1.7052701506361995E9, 422.21974539756775, -140.50056153535843, 208.47698312997818, -126.37869930267334
 1.7052701506361995E9, 413.36366230249405, -97.17756044864655, -23.217298924922943, -87.36406296491623
 1.7052701506661928E9, 504.3180292248726, -46.19524425268173, 153.90436297655106, -38.29657554626465
 1.7052701506661928E9, 447.83058029413223, -126.13934570550919, 262.81024968624115, -116.32584822177887
 1.705270150666865E9, 388.2315346002579, -135.9528431892395, 3.590303957462311, -129.01158887147903
 1.705270150666865E9, 473.920122385025, -58.8809849023819, 43.08364748954773, -50.503609001636505
 1.7052701506677065E9, 472.0052936077118, -118.71938419342041, 265.44313925504684, -98.85303562879562
 1.7052701506677065E9, 382.00834107398987, -175.44618672132492, 78.74733346700668, -156.05854535102844
 1.7052701506797743E9, 431.07582849264145, -93.58725649118423, -35.184978783130646, -81.38022303581238
 1.7052701506797743E9, 486.1271558403969, -83.53440541028976, 225.47108852863312, -73.00284713506699
 1.705270150695932E9, 416.7146126627922, -155.8191917538643, 190.76481693983078, -140.73991513252258
 1.705270150695932E9, 405.7043471932411, -109.86330109834671, -35.663685977458954, -104.11881476640701
 1.7052701506962917E9, 498.81289649009705, -48.82813382148743, 151.98953419923782, -45.47718346118927
 1.7052701506962917E9, 454.05377382040024, -130.2083568572998, 263.28895688056946, -116.56520181894302
 1.7052701507099216E9, 394.69408172369003, -134.51672160625458, 11.967679858207703, -125.66063851118088
 1.7052701507099216E9, 481.57943749427795, -48.34942662715912, 61.27452087402344, -44.99847626686096
 1.7052701507261336E9, 485.4090950489044, -94.3053172826767, 284.352073431015, -84.01311260461807
 1.7052701507261336E9, 404.50757920742035, -151.27147340774536, 106.51235073804855, -136.19219678640366
 1.7052701507262087E9, 446.15510511398315, -65.58288562297821, -0.7180607914924622, -69.17318958044052
 1.7052701507262087E9, 505.03609001636505, -66.54030001163483, 235.28458601236343, -56.2480953335762
 1.705270150740077E9, 426.5281101465225, -147.9205230474472, 202.25378960371017, -134.27736800909042
 1.705270150740077E9, 405.9437007904053, -108.18782591819763, -38.77528274059296, -103.6401075720787
 1.705270150755446E9, 497.3767749071121, -58.162924110889435, 137.14961117506027, -44.99847626686096
 1.705270150755446E9, 444.71898353099823, -133.55930721759796, 259.459299325943, -120.15550577640533
 1.7052701507561648E9, 380.3328658938408, -142.1760367155075, 14.839923024177551, -137.86767196655273
 1.7052701507561648E9, 466.97886806726456, -56.487448930740356, 51.22166979312897, -57.92357051372528
 1.7052701507697563E9, 475.35624396800995, -111.77812987565994, 275.017283141613, -99.33174282312393
 1.7052701507697563E9, 386.79541301727295, -158.21272772550583, 93.58725649118423, -151.51082700490952
 1.7052701507854753E9, 438.25643640756607, -81.61957663297653, -11.24961906671524, -74.43896871805191
 1.7052701507854753E9, 500.7277252674103, -66.54030001163483, 232.41234284639359, -59.359692096710205
 1.7052701507861395E9, 418.8687950372696, -146.72375506162643, 196.74865686893463, -137.62831836938858
 1.7052701507861395E9, 409.29465115070343, -108.42717951536179, -30.63726043701172, -99.33174282312393
 1.7052701507998376E9, 497.3767749071121, -48.110073029994965, 151.98953419923782, -46.434597849845886
 1.7052701507998376E9, 455.7292490005493, -128.77223527431488, 257.54447054862976, -114.65037304162979
 1.7052701508154833E9, 397.5663248896599, -132.3625392317772, 24.414066910743713, -125.66063851118088
 1.7052701508154833E9, 477.98913353681564, -51.700376987457275, 62.949996054172516, -44.99847626686096
 1.7052701508161547E9, 489.47810620069504, -91.672427713871, 288.42108458280563, -81.85893023014069
 1.7052701508161547E9, 408.09788316488266, -143.85151189565659, 120.63421297073364, -130.2083568572998
 1.7052701508306663E9, 444.4796299338341, -68.2157751917839, 7.180607914924622, -62.47128885984421
 1.7052701508306663E9, 500.96707886457443, -70.13060396909714, 234.56652522087097, -61.27452087402344
 1.705270150845504E9, 421.022977411747, -150.0747054219246, 198.66348564624786, -139.0644399523735
 1.705270150845504E9, 406.9011151790619, -109.3845939040184, -26.08954209089279, -105.31558275222778
 1.7052701508461592E9, 496.65871411561966, -54.81197375059128, 148.3992302417755, -51.93973058462143
 1.7052701508461592E9, 446.15510511398315, -131.16577124595642, 257.7838241457939, -119.91615217924118
 1.705270150859976E9, 391.1037777662277, -135.9528431892395, 15.797337412834167, -129.2509424686432
 1.705270150859976E9, 475.35624396800995, -60.79581367969513, 54.33326655626297, -49.78554821014404
 1.7052701508920124E9, 481.8187910914421, -95.26273167133331, 283.63401263952255, -83.53440541028976
 1.7052701508920124E9, 397.0876176953316, -148.3992302417755, 115.84714102745056, -145.52698707580566
 1.7052701508925498E9, 444.4796299338341, -84.25246620178223, -13.403801441192627, -74.67832231521606
 1.7052701508925498E9, 503.1212612390518, -69.41254317760468, 229.30074608325958, -57.92357051372528
 1.7052701508933234E9, 425.33134216070175, -144.56957268714905, 197.9454248547554, -139.0644399523735
 1.7052701508933234E9, 411.4488335251808, -105.79428994655609, -24.17471331357956, -97.4169140458107
 1.7052701508940468E9, 493.3077637553215, -57.92357051372528, 146.72375506162643, -45.47718346118927
 1.7052701508940468E9, 449.027348279953, -128.05417448282242, 261.13477450609207, -114.41101944446564
 1.7052701509048676E9, 390.86442416906357, -140.50056153535843, 20.823762953281403, -132.3625392317772
 1.7052701509048676E9, 463.38856410980225, -62.949996054172516, 51.22166979312897, -60.556460082530975
 1.705270150919989E9, 470.3298184275627, -113.93231225013733, 258.2625313401222, -99.33174282312393
 1.705270150919989E9, 396.60891050100327, -154.86177736520767, 101.72527879476547, -146.48440146446228
 1.70527015093558E9, 440.6499723792076, -83.53440541028976, -11.728326261043549, -74.67832231521606
 1.70527015093558E9, 486.1271558403969, -82.09828382730484, 222.12013816833496, -76.83250468969345
 1.7052701509362671E9, 409.29465115070343, -158.21272772550583, 186.456452190876, -147.20246225595474
 1.7052701509362671E9, 398.76309287548065, -117.7619698047638, -33.27015000581741, -110.10265469551086
 1.70527015094972E9, 475.1168903708458, -68.45512878894806, 133.08060002326965, -65.58288562297821
 1.70527015094972E9, 424.85263496637344, -150.5534126162529, 233.60911083221436, -136.4315503835678
 1.7052701509654999E9, 380.09351229667664, -155.34048455953598, -1.9148287773132324, -146.24504786729813
 1.7052701509654999E9, 452.37829864025116, -77.0718582868576, 29.679846048355103, -75.15702950954437
 1.7052701509661524E9, 462.43114972114563, -121.59162735939026, 251.79998421669006, -105.55493634939194
 1.7052701509661524E9, 395.8908497095108, -151.98953419923782, 95.02337807416916, -139.5431471467018
 1.7052701509798E9, 450.4634698629379, -69.17318958044052, -10.05285108089447, -57.44486331939697
 1.7052701509798E9, 514.1315267086029, -55.53003454208374, 230.97622126340866, -43.80170828104019
 1.7052701509955049E9, 461.71308892965317, -108.18782591819763, 229.30074608325958, -97.89562124013901
 1.7052701509955049E9, 464.34597849845886, -55.769388139247894, 18.669580578804016, -44.041061878204346
 1.7052701509961803E9, 543.0933119654655, -5.744486331939697, 196.50930327177048, -1.9148287773132324
 1.7052701509961803E9, 501.92449325323105, -78.50797986984253, 306.13325077295303, -64.86482483148575
 1.7052701510101068E9, 449.26670187711716, -76.5931510925293, 80.42280864715576, -69.65189677476883
 1.7052701510101068E9, 516.5250626802444, -4.069011151790619, 102.68269318342209, -4.308364748954773
 1.7052701510417893E9, 515.5676482915878, -64.6254712343216, 305.6545435786247, -51.46102339029312
 1.7052701510417893E9, 441.6073867678642, -107.94847232103348, 143.85151189565659, -93.58725649118423
 1.7052701510425584E9, 479.42525511980057, -45.95589065551758, 18.430226981639862, -36.62110036611557
 1.7052701510425584E9, 512.9347587227821, -54.81197375059128, 241.02907234430313, -41.647525906562805
 1.7052701510434802E9, 443.2828619480133, -122.30968815088272, 213.0247014760971, -115.84714102745056
 1.7052701510434802E9, 422.69845259189606, -87.12470936775208, -16.03669100999832, -85.449234187603
 1.7052701510441782E9, 498.33418929576874, -56.2480953335762, 142.89409750699997, -45.95589065551758
 1.7052701510441782E9, 446.63381230831146, -137.14961117506027, 245.8161442875862, -118.2406769990921
 1.7052701510547576E9, 386.0773522257805, -138.1070255637169, 9.334790289402008, -132.12318563461304
 1.7052701510547576E9, 460.75567454099655, -62.949996054172516, 47.87071943283081, -63.18934965133667
 1.7052701510699148E9, 453.0963594317436, -120.39485937356949, 255.86899536848068, -108.66653311252594
 1.7052701510699148E9, 383.68381625413895, -158.45208132266998, 91.1937205195427, -149.59599822759628
 1.70527015108559E9, 424.85263496637344, -89.27889174222946, -22.020530939102173, -85.20988059043884
 1.70527015108559E9, 471.76594001054764, -90.95436692237854, 210.15245831012726, -86.64600217342377
 1.7052701510861905E9, 407.14046877622604, -162.5210924744606, 179.7545514702797, -146.00569427013397
 1.7052701510861905E9, 398.0450320839882, -123.74580973386765, -41.88687950372696, -113.45360505580902
 1.7052701510997863E9, 478.2284871339798, -60.07775288820267, 133.55930721759796, -59.59904569387436
 1.7052701510997863E9, 439.2138507962227, -138.34637916088104, 236.9600611925125, -129.7296496629715
 1.7052701511154575E9, 385.11993783712387, -140.50056153535843, 8.8560830950737, -132.8412464261055
 1.7052701511154575E9, 459.79826015233994, -71.08801835775375, 39.49334353208542, -60.79581367969513
 1.705270151116214E9, 466.50016087293625, -118.00132340192795, 249.88515543937683, -101.00721800327301
 1.705270151116214E9, 389.6676561832428, -150.79276621341705, 98.37432843446732, -141.45797592401505
 1.7052701511297786E9, 427.00681734085083, -90.23630613088608, -25.37148129940033, -81.61957663297653
 1.7052701511297786E9, 470.56917202472687, -98.13497483730316, 196.03059607744217, -88.560830950737
 1.7052701511457913E9, 405.46499359607697, -161.32432448863983, 177.83972269296646, -149.59599822759628
 1.7052701511457913E9, 396.3695569038391, -121.11292016506195, -44.519769072532654, -111.77812987565994
 1.7052701511461835E9, 477.2710727453232, -76.35379749536514, 123.02774894237518, -66.30094641447067
 1.7052701511461835E9, 433.70871806144714, -149.59599822759628, 225.23173493146896, -133.55930721759796
 1.705270151160211E9, 373.3916115760803, -166.1113964319229, -19.866348564624786, -145.52698707580566
 1.705270151160211E9, 436.34160763025284, -90.95436692237854, 22.49923813343048, -87.60341656208038
 1.705270151175769E9, 454.2931274175644, -123.02774894237518, 257.54447054862976, -118.48003059625626
 1.705270151175769E9, 365.49294286966324, -178.55778348445892, 90.71501332521439, -167.786871612072
 1.705270151176282E9, 408.3372367620468, -104.59752196073532, -15.31863021850586, -97.4169140458107
 1.705270151176282E9, 444.71898353099823, -107.23041152954102, 208.47698312997818, -104.35816836357117
 1.7052701511897457E9, 366.92906445264816, -183.10550183057785, 179.27584427595139, -181.43002665042877
 1.7052701511897457E9, 352.32849502563477, -155.10113096237183, -51.700376987457275, -147.4418158531189
 1.7052701512222075E9, 417.6720270514488, -101.48592519760132, 126.6180528998375, -110.58136188983917
 1.7052701512222075E9, 371.23742920160294, -178.55778348445892, 224.9923813343048, -177.83972269296646
 1.7052701512225914E9, 324.0847705602646, -175.68554031848907, -8.616729497909546, -178.79713708162308
 1.7052701512225914E9, 395.4121425151825, -103.6401075720787, 31.35532122850418, -110.82071548700333
 1.7052701512234714E9, 396.60891050100327, -155.8191917538643, 238.15682917833328, -154.1437165737152
 1.7052701512234714E9, 321.69123458862305, -197.70607125759125, 75.15702950954437, -198.66348564624786
 1.7052701512240217E9, 368.60453963279724, -130.2083568572998, -37.09980756044388, -131.88383203744888
 1.7052701512240217E9, 415.2784910798073, -132.3625392317772, 185.73839139938354, -128.77223527431488
 1.7052701512352264E9, 350.6530198454857, -203.45055758953094, 156.53725254535675, -190.28610974550247
 1.7052701512352264E9, 347.30206948518753, -159.8882029056549, -67.25836080312729, -157.01595973968506
 1.7052701512499957E9, 415.51784467697144, -116.32584822177887, 102.68269318342209, -111.77812987565994
 1.7052701512499957E9, 378.6573907136917, -191.00417053699493, 215.89694464206696, -170.65911477804184
 1.705270151265865E9, 334.3769752383232, -178.31842988729477, -8.616729497909546, -169.46234679222107
 1.705270151265865E9, 404.98628640174866, -103.1614003777504, 23.935359716415405, -103.6401075720787
 1.7052701512663636E9, 411.68818712234497, -146.24504786729813, 240.55036514997482, -140.97926872968674
 1.7052701512663636E9, 341.55758315324783, -183.10550183057785, 85.20988059043884, -185.02033060789108
 1.705270151279771E9, 390.38571697473526, -113.93231225013733, -23.69600611925125, -113.21425145864487
 1.705270151279771E9, 428.44293892383575, -112.73554426431656, 201.0570216178894, -111.53877627849579
 1.705270151295446E9, 369.3226004242897, -189.32869535684586, 161.56367808580399, -175.92489391565323
 1.705270151295446E9, 362.38134610652924, -150.31405901908875, -51.46102339029312, -138.1070255637169
 1.7052701512961807E9, 432.9906572699547, -106.51235073804855, 114.88972663879395, -104.11881476640701
 1.7052701512961807E9, 385.11993783712387, -176.16424751281738, 216.1362982392311, -167.06881082057953
 1.705270151309951E9, 336.5311576128006, -175.92489391565323, -2.6328895688056946, -173.05265074968338
 1.705270151309951E9, 410.25206553936005, -105.79428994655609, 27.286310076713562, -103.6401075720787
 1.7052701513258862E9, 428.44293892383575, -140.73991513252258, 247.01291227340698, -134.75607520341873
 1.7052701513258862E9, 350.6530198454857, -187.89257377386093, 80.66216224431992, -178.07907629013062
 1.7052701513264167E9, 391.8218385577202, -118.95873779058456, -31.35532122850418, -115.84714102745056
 1.7052701513264167E9, 441.6073867678642, -117.28326261043549, 200.5783144235611, -112.0174834728241
 1.7052701513397386E9, 369.801307618618, -184.30226981639862, 174.01006513834, -179.27584427595139
 1.7052701513397386E9, 363.0994068980217, -139.5431471467018, -44.041061878204346, -136.91025757789612
 1.7052701513552313E9, 443.2828619480133, -97.4169140458107, 121.59162735939026, -93.82661008834839
 1.7052701513552313E9, 399.0024464726448, -170.18040758371353, 225.47108852863312, -162.28173887729645
 1.7052701513704736E9, 356.3975061774254, -171.61652916669846, -2.3935359716415405, -162.76044607162476
 1.7052701513704736E9, 432.7513036727905, -95.50208526849747, 35.663685977458954, -85.449234187603
 1.7052701513711627E9, 445.67639791965485, -140.50056153535843, 241.50777953863144, -126.85740649700165
 1.7052701513711627E9, 363.81746768951416, -176.88230830430984, 83.53440541028976, -169.46234679222107
 1.7052701513857718E9, 408.8159439563751, -99.09238922595978, -16.276044607162476, -98.85303562879562
 1.7052701513857718E9, 460.0376137495041, -99.33174282312393, 221.4020773768425, -94.54467087984085
 1.7052701513862762E9, 398.76309287548065, -159.64884930849075, 193.63706010580063, -153.1863021850586
 1.7052701513862762E9, 382.00834107398987, -120.63421297073364, -30.397906839847565, -124.22451692819595
 1.7052701513998382E9, 457.8834313750267, -77.78991907835007, 136.67090398073196, -76.5931510925293
 1.7052701513998382E9, 419.58685582876205, -142.41539031267166, 240.07165795564651, -138.34637916088104
 1.705270151415442E9, 361.18457812070847, -159.4094957113266, -1.1967679858207703, -151.98953419923782
 1.705270151415442E9, 426.5281101465225, -111.29942268133163, 20.10570216178894, -92.86919569969177
 1.7052701514162948E9, 466.50016087293625, -109.14524030685425, 278.36823350191116, -101.72527879476547
 1.7052701514162948E9, 382.9657554626465, -160.36691009998322, 97.4169140458107, -152.46824139356613
 1.7052701514298415E9, 427.96423172950745, -90.23630613088608, -12.207033455371857, -85.68858778476715
 1.7052701514298415E9, 467.2182216644287, -104.59752196073532, 211.10987269878387, -94.54467087984085
 1.705270151445452E9, 397.0876176953316, -174.4887723326683, 171.3771755695343, -163.95721405744553
 1.705270151445452E9, 387.75282740592957, -137.62831836938858, -51.700376987457275, -123.26710253953934
 1.7052701514461424E9, 459.0801993608475, -104.59752196073532, 109.3845939040184, -90.95436692237854
 1.7052701514461424E9, 420.3049166202545, -164.91462844610214, 222.35949176549911, -149.83535182476044
 1.70527015146006E9, 369.801307618618, -161.32432448863983, -1.1967679858207703, -144.8089262843132
 1.70527015146006E9, 447.83058029413223, -90.23630613088608, 36.381746768951416, -75.63573670387268
 1.7052701514757009E9, 462.43114972114563, -132.60189282894135, 246.53420507907867, -116.08649462461472
 1.7052701514757009E9, 382.00834107398987, -168.7442860007286, 90.47565972805023, -155.8191917538643
 1.705270151476231E9, 418.15073424577713, -105.55493634939194, -31.115967631340027, -97.89562124013901
 1.705270151476231E9, 472.24464720487595, -106.51235073804855, 193.63706010580063, -92.39048850536346
 1.705270151489908E9, 402.5927504301071, -174.4887723326683, 168.50493240356445, -154.62242376804352
 1.705270151489908E9, 389.42830258607864, -140.50056153535843, -59.12033849954605, -123.26710253953934
 1.705270151505466E9, 466.7395144701004, -96.22014605998993, 113.45360505580902, -80.18345504999161
 1.705270151505466E9, 426.7674637436867, -153.6650093793869, 237.43876838684082, -141.93668311834335
 1.705270151506306E9, 373.87031877040863, -158.9307885169983, 3.3509503602981567, -139.78250074386597
 1.705270151506306E9, 452.85700583457947, -78.50797986984253, 36.62110036611557, -66.54030001163483
 1.705270151519988E9, 453.0963594317436, -129.2509424686432, 246.53420507907867, -115.1290802359581
 1.705270151519988E9, 377.93932992219925, -166.82945722341537, 85.449234187603, -156.2978989481926
 1.7052701515351648E9, 416.47525906562805, -98.61368203163147, -28.004370868206024, -93.82661008834839
 1.7052701515351648E9, 469.3724040389061, -101.96463239192963, 203.2112039923668, -89.99695253372192
 1.7052701515505056E9, 363.0994068980217, -163.71786046028137, -84.25246620178223, -146.00569427013397
 1.7052701515505056E9, 470.09046483039856, -99.09238922595978, 101.24657160043716, -75.63573670387268
 1.7052701515511577E9, 467.45757526159286, -129.49029606580734, 241.50777953863144, -97.89562124013901
 1.7052701515511577E9, 434.4267788529396, -116.32584822177887, 22.259884536266327, -89.27889174222946
 1.7052701515650396E9, 515.0889410972595, -37.81786835193634, 63.90741044282913, -14.361215829849243
 1.7052701515650396E9, 541.1784831881523, -70.36995756626129, 285.5488414168358, -41.88687950372696
 1.70527015158027E9, 475.35624396800995, -105.07622915506363, 123.26710253953934, -76.35379749536514
 1.70527015158027E9, 518.6792450547218, -28.722431659698486, 22.49923813343048, -4.787071943283081
 1.7052701515957656E9, 572.0550972223282, -30.397906839847565, 251.0819234251976, -4.308364748954773
 1.7052701515957656E9, 495.22259253263474, -94.3053172826767, 224.9923813343048, -67.01900720596313
 1.705270151596158E9, 489.2387526035309, -59.59904569387436, -0.9574143886566162, -35.4243323802948
 1.705270151596158E9, 567.7467324733734, -9.334790289402008, 176.16424751281738, 10.770911872386932
 1.7052701516105895E9, 517.4824770689011, -88.32147735357285, 273.82051515579224, -63.18934965133667
 1.7052701516105895E9, 461.23438173532486, -93.58725649118423, 43.56235468387604, -70.13060396909714
 1.7052701516112676E9, 523.4663169980049, -32.791442811489105, 65.1041784286499, -8.8560830950737
 1.7052701516112676E9, 528.9714497327805, -80.66216224431992, 278.36823350191116, -54.572620153427124
 1.7052701516247935E9, 453.57506662607193, -118.95873779058456, 113.21425145864487, -94.06596368551254
 1.7052701516247935E9, 493.06841015815735, -56.00874173641205, 5.983839929103851, -31.83402842283249
 1.7052701516407373E9, 539.7423616051674, -61.753228068351746, 236.24200040102005, -33.50950360298157
 1.7052701516407373E9, 458.8408457636833, -130.44771045446396, 195.79124248027802, -104.83687555789948
 1.7052701516412485E9, 452.6176522374153, -87.12470936775208, -22.97794532775879, -65.82223922014236
 1.7052701516412485E9, 518.918598651886, -49.06748741865158, 141.45797592401505, -32.07338201999664
 1.705270151655056E9, 472.24464720487595, -116.56520181894302, 246.05549788475037, -99.81045001745224
 1.705270151655056E9, 422.21974539756775, -121.59162735939026, 18.430226981639862, -105.55493634939194
 1.7052701516704867E9, 496.8980677127838, -54.33326655626297, 48.58878022432327, -37.09980756044388
 1.7052701516704867E9, 494.5045317411423, -104.11881476640701, 257.06576335430145, -78.02927267551422
 1.705270151671183E9, 422.9378061890602, -133.55930721759796, 100.5285108089447, -114.41101944446564
 1.705270151671183E9, 464.585332095623, -70.60931116342545, -14.839923024177551, -55.290680944919586
 1.7052701516850512E9, 512.4560515284538, -71.56672555208206, 212.5459942817688, -55.53003454208374
 1.7052701516850512E9, 448.78799468278885, -135.4741359949112, 185.9777449965477, -115.84714102745056
 1.7052701517004712E9, 443.2828619480133, -95.02337807416916, -33.50950360298157, -73.9602615237236
 1.7052701517004712E9, 517.0037698745728, -50.74296259880066, 146.48440146446228, -33.03079640865326
 1.7052701517011414E9, 470.808525621891, -118.2406769990921, 241.98648673295975, -101.24657160043716
 1.7052701517011414E9, 423.4165133833885, -114.88972663879395, 21.78117734193802, -96.22014605998993
 1.7052701517150772E9, 494.02582454681396, -44.99847626686096, 60.31710648536682, -32.791442811489105
 1.7052701517150772E9, 494.2651781439781, -95.74143886566162, 270.2302111983299, -76.35379749536514
 1.7052701517308595E9, 413.1243087053299, -142.89409750699997, 95.50208526849747, -125.18193131685257
 1.7052701517308595E9, 454.7718346118927, -71.32737195491791, -14.600569427013397, -61.03516727685928
 1.7052701517313485E9, 503.8393220305443, -75.39638310670853, 217.57241982221603, -61.51387447118759
 1.7052701517313485E9, 429.1609997153282, -149.11729103326797, 179.03649067878723, -136.67090398073196
 1.7052701517451458E9, 417.1933198571205, -111.29942268133163, -45.237829864025116, -100.5285108089447
 1.7052701517451458E9, 496.4193605184555, -70.36995756626129, 130.44771045446396, -51.93973058462143
 1.7052701517768805E9, 450.4634698629379, -148.87793743610382, 230.49751406908035, -125.42128491401672
 1.7052701517768805E9, 402.35339683294296, -137.62831836938858, 4.069011151790619, -124.94257771968842
 1.7052701517775345E9, 475.1168903708458, -65.34353202581406, 42.36558669805527, -54.33326655626297
 1.7052701517775345E9, 483.73361986875534, -111.53877627849579, 254.1935201883316, -94.54467087984085
 1.7052701517782493E9, 406.1830543875694, -149.59599822759628, 93.82661008834839, -133.79866081476212
 1.7052701517782493E9, 442.08609396219254, -79.22604066133499, -11.488972663879395, -75.15702950954437
 1.7052701517790115E9, 476.5530119538307, -102.20398598909378, 200.0996072292328, -88.32147735357285
 1.7052701517790115E9, 431.3151820898056, -142.65474390983582, 186.456452190876, -128.05417448282242
 1.7052701517897182E9, 438.97449719905853, -86.16729497909546, -15.31863021850586, -76.35379749536514
 1.7052701517897182E9, 514.3708803057671, -46.67395144701004, 152.70759499073029, -38.5359291434288
 1.70527015180475E9, 470.56917202472687, -112.25683706998825, 259.9380065202713, -100.5285108089447
 1.70527015180475E9, 422.9378061890602, -114.17166584730148, 29.679846048355103, -98.85303562879562
 1.705270151820485E9, 495.70129972696304, -38.5359291434288, 72.52413994073868, -33.27015000581741
 1.705270151820485E9, 497.13742130994797, -93.10854929685593, 278.6075870990753, -71.80607914924622
 1.705270151821169E9, 421.74103820323944, -132.12318563461304, 104.35816836357117, -117.28326261043549
 1.705270151821169E9, 464.82468569278717, -59.59904569387436, 2.6328895688056946, -52.41843777894974
 1.7052701518351355E9, 509.3444547653198, -68.93383598327637, 233.3697572350502, -51.93973058462143
 1.7052701518351355E9, 437.77772921323776, -142.41539031267166, 187.17451298236847, -125.89999210834503
 1.705270151850666E9, 428.44293892383575, -103.87946116924286, -33.50950360298157, -88.80018454790115
 1.705270151850666E9, 497.3767749071121, -63.66805684566498, 138.5857327580452, -49.306841015815735
 1.70527015185132E9, 454.7718346118927, -137.62831836938858, 235.04523241519928, -120.15550577640533
 1.70527015185132E9, 401.1566288471222, -135.4741359949112, 4.308364748954773, -122.07033455371857
 1.7052701518648555E9, 481.57943749427795, -69.17318958044052, 42.60494029521942, -53.61520576477051
 1.7052701518648555E9, 485.4090950489044, -113.69295865297318, 251.79998421669006, -88.32147735357285
 1.705270151896932E9, 411.68818712234497, -147.20246225595474, 97.4169140458107, -135.4741359949112
 1.705270151896932E9, 449.027348279953, -74.19961512088776, -3.590303957462311, -63.66805684566498
 1.7052701518976023E9, 499.5309572815895, -75.15702950954437, 225.71044212579727, -61.753228068351746
 1.7052701518976023E9, 430.59712129831314, -142.1760367155075, 194.11576730012894, -129.96900326013565
 1.7052701518984168E9, 416.95396625995636, -112.25683706998825, -30.876614034175873, -94.784024477005
 1.7052701518984168E9, 491.8716421723366, -70.8486647605896, 134.51672160625458, -54.81197375059128
 1.705270151899003E9, 452.37829864025116, -131.64447844028473, 240.31101155281067, -115.84714102745056
 1.705270151899003E9, 395.8908497095108, -137.62831836938858, 11.488972663879395, -124.94257771968842
 1.7052701519100535E9, 483.73361986875534, -62.231935262680054, 51.22166979312897, -44.75912266969681
 1.7052701519100535E9, 476.0743047595024, -112.73554426431656, 253.95416659116745, -94.54467087984085
 1.7052701519248157E9, 405.7043471932411, -145.52698707580566, 101.72527879476547, -135.71348959207535
 1.7052701519248157E9, 452.85700583457947, -71.32737195491791, 1.4361215829849243, -68.93383598327637
 1.7052701519404423E9, 504.55738282203674, -79.22604066133499, 223.31690615415573, -61.9925816655159
 1.7052701519404423E9, 429.1609997153282, -146.72375506162643, 185.9777449965477, -128.77223527431488
 1.7052701519411292E9, 421.26233100891113, -104.83687555789948, -28.722431659698486, -94.3053172826767
 1.7052701519411292E9, 501.6851396560669, -59.12033849954605, 151.75018060207367, -45.716537058353424
 1.705270151955046E9, 453.3357130289078, -131.16577124595642, 245.3374370932579, -118.2406769990921
 1.705270151955046E9, 400.91727524995804, -124.22451692819595, 21.063116550445557, -114.88972663879395
 1.7052701519704332E9, 475.5955975651741, -58.162924110889435, 54.093912959098816, -50.74296259880066
 1.7052701519704332E9, 480.8613767027855, -108.18782591819763, 264.4857248663902, -91.1937205195427
 1.7052701519711916E9, 404.50757920742035, -140.02185434103012, 102.92204678058624, -129.7296496629715
 1.7052701519711916E9, 463.86727130413055, -62.231935262680054, 2.8722431659698486, -48.58878022432327
 1.705270152001152E9, 496.65871411561966, -72.52413994073868, 229.54009968042374, -61.753228068351746
 1.705270152001152E9, 431.55453568696976, -138.5857327580452, 201.5357288122177, -126.85740649700165
 1.7052701520018609E9, 416.47525906562805, -99.81045001745224, -22.97794532775879, -88.560830950737
 1.7052701520018609E9, 495.9406533241272, -55.53003454208374, 149.11729103326797, -46.19524425268173
 1.7052701520026002E9, 450.7028234601021, -134.27736800909042, 243.18325471878052, -118.48003059625626
 1.7052701520026002E9, 400.91727524995804, -134.03801441192627, 14.121862232685089, -119.19809138774872
 1.7052701520151455E9, 476.7923655509949, -65.82223922014236, 52.897144973278046, -51.46102339029312
 1.7052701520151455E9, 488.0419846177101, -94.06596368551254, 276.2140511274338, -84.97052699327469
 1.7052701520309048E9, 410.25206553936005, -144.56957268714905, 101.96463239192963, -127.81482088565826
 1.7052701520309048E9, 459.5589065551758, -73.00284713506699, -0.9574143886566162, -55.53003454208374
 1.705270152031266E9, 503.360614836216, -76.35379749536514, 228.1039780974388, -59.12033849954605
 1.705270152031266E9, 426.0494029521942, -146.72375506162643, 185.02033060789108, -129.01158887147903
 1.705270152045236E9, 425.5706957578659, -96.93820685148239, -25.37148129940033, -92.62984210252762
 1.705270152045236E9, 505.03609001636505, -56.966156125068665, 152.70759499073029, -46.67395144701004
 1.70527015206098E9, 450.94217705726624, -128.29352807998657, 245.57679069042206, -119.43744498491287
 1.70527015206098E9, 397.5663248896599, -139.78250074386597, 14.121862232685089, -129.7296496629715
 1.7052701520613146E9, 472.72335439920425, -66.54030001163483, 52.17908418178558, -54.81197375059128
 1.7052701520613146E9, 483.25491267442703, -103.6401075720787, 266.1612000465393, -84.73117339611053
 1.7052701520751264E9, 395.4121425151825, -162.28173887729645, 89.75759893655777, -141.6973295211792
 1.7052701520751264E9, 449.027348279953, -81.14086943864822, -8.138022303581238, -72.52413994073868
 1.705270152090688E9, 488.5206918120384, -88.32147735357285, 219.48724859952927, -79.22604066133499
 1.705270152090688E9, 419.58685582876205, -159.64884930849075, 176.88230830430984, -144.09086549282074
 1.7052701520912926E9, 412.6456015110016, -109.62394750118256, -36.62110036611557, -94.06596368551254
 1.7052701520912926E9, 490.91422778367996, -67.7370679974556, 144.8089262843132, -55.290680944919586
 1.7052701521049457E9, 450.4634698629379, -136.4315503835678, 236.9600611925125, -120.8735665678978
 1.7052701521049457E9, 404.7469328045845, -131.88383203744888, 7.65931510925293, -116.32584822177887
 1.7052701521208744E9, 483.0155590772629, -62.231935262680054, 53.375852167606354, -48.110073029994965
 1.7052701521208744E9, 477.7497799396515, -116.56520181894302, 257.3051169514656, -92.62984210252762
 1.7052701521212761E9, 403.7895184159279, -157.2553133368492, 85.449234187603, -136.4315503835678
 1.7052701521212761E9, 455.250541806221, -75.87509030103683, -0.4787071943283081, -66.06159281730652
 1.7052701521351385E9, 497.3767749071121, -87.60341656208038, 227.38591730594635, -65.58288562297821
 1.7052701521351385E9, 425.33134216070175, -151.27147340774536, 181.43002665042877, -135.23478239774704
 1.7052701521508265E9, 413.84236949682236, -104.59752196073532, -29.201138854026794, -99.57109642028809
 1.7052701521508265E9, 496.4193605184555, -61.9925816655159, 151.0321198105812, -49.78554821014404
 1.705270152151336E9, 446.15510511398315, -138.82508635520935, 241.26842594146729, -121.11292016506195
 1.705270152151336E9, 397.3269712924957, -133.3199536204338, 14.839923024177551, -127.57546728849411
 1.7052701521647825E9, 473.68076878786087, -63.18934965133667, 61.03516727685928, -55.769388139247894
 1.7052701521647825E9, 475.5955975651741, -113.21425145864487, 267.8366752266884, -93.58725649118423
 1.7052701521807456E9, 403.3108112215996, -153.1863021850586, 96.69885325431824, -134.27736800909042
 1.7052701521807456E9, 453.0963594317436, -78.02927267551422, 1.4361215829849243, -64.86482483148575
 1.7052701521813695E9, 489.95681339502335, -92.62984210252762, 222.83819895982742, -70.8486647605896
 1.7052701521813695E9, 414.799783885479, -155.34048455953598, 181.19067305326462, -142.41539031267166
 1.7052701521947107E9, 414.0817230939865, -103.6401075720787, -28.96178525686264, -92.62984210252762
 1.7052701521947107E9, 494.2651781439781, -64.6254712343216, 148.63858383893967, -53.61520576477051
 1.7052701522106209E9, 449.027348279953, -139.30379354953766, 242.94390112161636, -120.63421297073364
 1.7052701522106209E9, 400.1992144584656, -131.88383203744888, 22.020530939102173, -123.26710253953934
 1.7052701522112153E9, 468.4149896502495, -66.30094641447067, 55.53003454208374, -56.966156125068665
 1.7052701522112153E9, 472.4840008020401, -118.00132340192795, 262.81024968624115, -99.81045001745224
 1.7052701522248826E9, 393.7366673350334, -155.34048455953598, 88.08212375640869, -142.65474390983582
 1.7052701522248826E9, 428.44293892383575, -94.06596368551254, -21.541823744773865, -84.25246620178223
 1.7052701522406468E9, 481.3400838971138, -96.93820685148239, 216.1362982392311, -85.20988059043884
 1.7052701522406468E9, 415.0391374826431, -168.2655788064003, 174.4887723326683, -147.68116945028305
 1.7052701522413108E9, 398.28438568115234, -122.30968815088272, -38.5359291434288, -112.97489786148071
 1.7052701522413108E9, 476.5530119538307, -78.98668706417084, 135.4741359949112, -75.15702950954437
 1.7052701522548532E9, 437.0596684217453, -141.2186223268509, 241.98648673295975, -133.08060002326965
 1.7052701522548532E9, 388.470888197422, -140.73991513252258, 9.574143886566162, -129.96900326013565
 1.7052701522706964E9, 457.8834313750267, -77.55056548118591, 48.82813382148743, -68.2157751917839
 1.7052701522706964E9, 454.2931274175644, -129.2509424686432, 258.5018849372864, -121.59162735939026
 1.7052701522712412E9, 391.1037777662277, -155.10113096237183, 97.4169140458107, -150.31405901908875
 1.7052701522712412E9, 440.88932597637177, -74.43896871805191, 5.744486331939697, -75.63573670387268
 1.7052701522848375E9, 482.2974982857704, -83.05569821596146, 238.87488996982574, -79.94410145282745
 1.7052701522848375E9, 406.1830543875694, -154.62242376804352, 192.2009385228157, -146.9631086587906
 1.7052701523005648E9, 404.2682256102562, -104.83687555789948, -17.472812592983246, -99.33174282312393
 1.7052701523005648E9, 480.3826695084572, -56.487448930740356, 163.47850686311722, -56.2480953335762
 1.7052701523012493E9, 425.81004935503006, -136.19219678640366, 255.39028817415237, -131.64447844028473
 1.7052701523012493E9, 382.72640186548233, -133.08060002326965, 25.850188493728638, -125.42128491401672
 1.7052701523151531E9, 464.82468569278717, -58.162924110889435, 72.04543274641037, -58.8809849023819
 1.7052701523151531E9, 453.8144202232361, -104.83687555789948, 275.9746975302696, -111.29942268133163
 1.705270152330696E9, 379.8541586995125, -153.1863021850586, 102.44333958625793, -146.9631086587906
 1.705270152330696E9, 430.11841410398483, -76.83250468969345, 6.223193526268005, -78.02927267551422
 1.7052701523313344E9, 471.76594001054764, -86.40664857625961, 234.80587881803513, -82.337637424469
 1.7052701523313344E9, 399.9598608613014, -155.34048455953598, 185.73839139938354, -148.87793743610382
 1.705270152344977E9, 398.5237392783165, -107.23041152954102, -26.328895688056946, -105.31558275222778
 1.705270152344977E9, 481.8187910914421, -65.58288562297821, 155.10113096237183, -57.20550972223282
 1.7052701523604991E9, 427.00681734085083, -145.52698707580566, 246.77355867624283, -131.40512484312057
 1.7052701523604991E9, 377.2212691307068, -133.3199536204338, 17.7121661901474, -134.51672160625458
 1.7052701523611736E9, 452.138945043087, -63.428703248500824, 61.51387447118759, -63.428703248500824
 1.7052701523611736E9, 456.9260169863701, -115.60778743028641, 275.25663673877716, -108.66653311252594
 1.7052701523749757E9, 381.05092668533325, -152.46824139356613, 102.20398598909378, -142.89409750699997
 1.7052701523749757E9, 436.580961227417, -74.67832231521606, 3.1115967631340027, -74.91767591238022
 1.7052701523908732E9, 483.25491267442703, -77.78991907835007, 236.4813539981842, -76.83250468969345
 1.7052701523908732E9, 408.57659035921097, -148.63858383893967, 199.38154643774033, -142.41539031267166
 1.705270152391218E9, 405.7043471932411, -105.31558275222778, -16.276044607162476, -96.69885325431824
 1.705270152391218E9, 482.05814468860626, -61.51387447118759, 159.17014211416245, -55.769388139247894
 1.7052701524048555E9, 440.6499723792076, -135.9528431892395, 254.91158097982407, -126.13934570550919
 1.7052701524048555E9, 384.16252344846725, -134.75607520341873, 22.97794532775879, -131.64447844028473
 1.7052701524210176E9, 462.6705033183098, -69.65189677476883, 62.71064245700836, -65.82223922014236
 1.7052701524210176E9, 455.96860259771347, -120.63421297073364, 272.62374716997147, -106.2729971408844
 1.7052701524212935E9, 381.7689874768257, -157.73402053117752, 95.02337807416916, -149.83535182476044
 1.7052701524212935E9, 429.40035331249237, -86.16729497909546, -10.770911872386932, -79.46539425849915
 1.705270152434765E9, 471.28723281621933, -93.10854929685593, 225.47108852863312, -83.53440541028976
 1.705270152434765E9, 397.0876176953316, -157.01595973968506, 184.30226981639862, -151.75018060207367
 1.705270152450467E9, 386.5560594201088, -119.91615217924118, -36.14239317178726, -113.93231225013733
 1.705270152450467E9, 464.82468569278717, -73.72090792655945, 147.4418158531189, -74.91767591238022
 1.70527015245117E9, 419.8262094259262, -151.75018060207367, 234.80587881803513, -138.82508635520935
 1.70527015245117E9, 364.5355284810066, -144.56957268714905, 1.4361215829849243, -142.65474390983582
 1.705270152464827E9, 453.57506662607193, -64.6254712343216, 56.2480953335762, -67.97642159461975
 1.705270152464827E9, 454.53248101472855, -117.7619698047638, 263.0496032834053, -110.34200829267502
 1.7052701524808576E9, 381.7689874768257, -158.9307885169983, 94.54467087984085, -148.15987664461136
 1.7052701524808576E9, 426.0494029521942, -85.9279413819313, -10.770911872386932, -85.68858778476715
 1.7052701524813416E9, 469.8511112332344, -89.99695253372192, 227.38591730594635, -81.14086943864822
 1.7052701524813416E9, 406.1830543875694, -155.8191917538643, 187.41386657953262, -143.13345110416412
 1.705270152495124E9, 393.97602093219757, -116.32584822177887, -37.578514754772186, -110.10265469551086
 1.705270152495124E9, 470.808525621891, -77.0718582868576, 133.55930721759796, -68.69448238611221
 1.705270152510439E9, 420.54427021741867, -145.2876334786415, 242.46519392728806, -134.99542880058289
 1.705270152510439E9, 382.247694671154, -142.41539031267166, 12.44638705253601, -131.40512484312057
 1.7052701525111716E9, 456.9260169863701, -66.54030001163483, 60.07775288820267, -62.949996054172516
 1.7052701525111716E9, 462.43114972114563, -106.51235073804855, 277.88952630758286, -106.51235073804855
 1.7052701525249405E9, 382.4870482683182, -146.48440146446228, 102.20398598909378, -144.56957268714905
 1.7052701525249405E9, 435.6235468387604, -75.15702950954437, -4.547718346118927, -70.36995756626129
 1.7052701525562088E9, 482.53685188293457, -80.66216224431992, 228.1039780974388, -72.28478634357452
 1.7052701525562088E9, 403.7895184159279, -151.0321198105812, 184.30226981639862, -145.2876334786415
 1.705270152556991E9, 479.1859015226364, -76.35379749536514, 143.85151189565659, -56.966156125068665
 1.705270152556991E9, 439.2138507962227, -127.81482088565826, 250.6032162308693, -119.91615217924118
 1.7052701525576825E9, 390.6250705718994, -131.16577124595642, 9.574143886566162, -125.89999210834503
 1.7052701525576825E9, 444.4796299338341, -60.31710648536682, 60.556460082530975, -71.56672555208206
 1.7052701525699196E9, 445.67639791965485, -118.2406769990921, 266.87926083803177, -124.70322412252426
 1.7052701525699196E9, 367.6471252441406, -152.70759499073029, 91.1937205195427, -173.5313579440117
 1.7052701525856318E9, 431.3151820898056, -82.8163446187973, -3.3509503602981567, -87.60341656208038
 1.7052701525856318E9, 481.57943749427795, -87.12470936775208, 225.94979572296143, -73.72090792655945
 1.705270152586167E9, 413.6030158996582, -163.71786046028137, 175.20683312416077, -148.15987664461136
 1.705270152586167E9, 405.2256399989128, -109.86330109834671, -31.594674825668335, -115.36843383312225
 1.7052701525999925E9, 477.031719148159, -64.38611763715744, 151.0321198105812, -77.0718582868576
 1.7052701525999925E9, 435.3841932415962, -150.5534126162529, 234.56652522087097, -134.75607520341873
 1.705270152615693E9, 407.8585295677185, -129.96900326013565, 16.276044607162476, -117.28326261043549
 1.705270152615693E9, 471.28723281621933, -63.66805684566498, 63.90741044282913, -49.306841015815735
 1.7052701526164353E9, 470.09046483039856, -111.77812987565994, 274.77792954444885, -91.91178131103516
 1.7052701526164353E9, 394.9334353208542, -143.61215829849243, 98.85303562879562, -144.09086549282074
 1.705270152629722E9, 428.6822925209999, -76.11444389820099, 0.7180607914924622, -92.39048850536346
 1.705270152629722E9, 480.8613767027855, -78.50797986984253, 238.87488996982574, -91.91178131103516
 1.7052701526457396E9, 415.99655187129974, -153.42565578222275, 181.19067305326462, -136.19219678640366
 1.7052701526457396E9, 424.85263496637344, -106.03364354372025, -32.07338201999664, -83.29505181312561
 1.705270152646298E9, 498.5735428929329, -65.1041784286499, 147.68116945028305, -41.40817230939865
 1.705270152646298E9, 443.2828619480133, -142.1760367155075, 236.9600611925125, -127.0967600941658
 1.7052701526598432E9, 393.7366673350334, -137.86767196655273, 7.65931510925293, -124.46387052536011
 1.7052701526598432E9, 467.45757526159286, -73.24220073223114, 48.82813382148743, -57.20550972223282
 1.7052701526754577E9, 466.7395144701004, -121.83098095655441, 258.2625313401222, -105.31558275222778
 1.7052701526754577E9, 397.0876176953316, -159.4094957113266, 90.95436692237854, -141.6973295211792
 1.7052701526761887E9, 436.34160763025284, -88.08212375640869, -12.207033455371857, -78.02927267551422
 1.7052701526761887E9, 481.57943749427795, -93.82661008834839, 219.72660219669342, -80.18345504999161
 1.7052701526899936E9, 412.1668943166733, -159.4094957113266, 178.79713708162308, -146.24504786729813
 1.7052701526899936E9, 413.1243087053299, -106.2729971408844, -30.63726043701172, -93.58725649118423
 1.705270152705856E9, 483.9729734659195, -71.80607914924622, 148.63858383893967, -61.03516727685928
 1.705270152705856E9, 437.29902201890945, -143.13345110416412, 236.0026468038559, -131.64447844028473
 1.7052701527064412E9, 393.7366673350334, -140.02185434103012, 10.292204678058624, -127.57546728849411
 1.7052701527064412E9, 464.34597849845886, -70.13060396909714, 57.92357051372528, -60.79581367969513
 1.7052701527198036E9, 468.65434324741364, -115.36843383312225, 272.3843935728073, -98.85303562879562
 1.7052701527198036E9, 398.28438568115234, -151.75018060207367, 93.58725649118423, -137.38896477222443
 1.705270152735751E9, 444.9583371281624, -78.50797986984253, -2.8722431659698486, -68.45512878894806
 1.705270152735751E9, 492.58970296382904, -87.60341656208038, 223.31690615415573, -74.91767591238022
 1.7052701527363944E9, 414.32107669115067, -151.0321198105812, 177.121661901474, -145.76634067296982
 1.7052701527363944E9, 410.0127119421959, -114.65037304162979, -36.860453963279724, -107.46976512670517
 1.7052701527497668E9, 500.4883716702461, -64.14676403999329, 154.38307017087936, -50.26425540447235
 1.7052701527497668E9, 453.8144202232361, -133.3199536204338, 247.25226587057114, -124.46387052536011
 1.7052701527655203E9, 395.8908497095108, -143.37280470132828, 1.6754751801490784, -128.05417448282242
 1.7052701527655203E9, 474.1594759821892, -72.76349353790283, 50.503609001636505, -55.769388139247894
 1.7052701527661936E9, 479.9039623141289, -117.52261620759964, 260.8954209089279, -102.20398598909378
 1.7052701527661936E9, 389.6676561832428, -168.7442860007286, 78.26862627267838, -156.53725254535675
 1.7052701527801733E9, 439.45320439338684, -86.88535577058792, -6.9412543177604675, -78.74733346700668
 1.7052701527801733E9, 488.0419846177101, -90.71501332521439, 223.55625975131989, -74.19961512088776
 1.7052701527957263E9, 413.84236949682236, -155.34048455953598, 183.10550183057785, -145.76634067296982
 1.7052701527957263E9, 414.799783885479, -112.25683706998825, -35.663685977458954, -102.68269318342209
 1.7052701527963636E9, 495.9406533241272, -67.7370679974556, 148.3992302417755, -58.64163130521774
 1.7052701527963636E9, 454.53248101472855, -140.26120793819427, 237.91747558116913, -121.11292016506195
 1.705270152809729E9, 395.65149611234665, -139.5431471467018, 0.9574143886566162, -128.05417448282242
 1.705270152809729E9, 468.65434324741364, -77.31121188402176, 41.88687950372696, -65.58288562297821
 1.7052701528255627E9, 477.98913353681564, -119.19809138774872, 265.682492852211, -104.35816836357117
 1.7052701528255627E9, 402.1140432357788, -155.8191917538643, 89.27889174222946, -138.5857327580452
 1.7052701528262143E9, 444.4796299338341, -81.85893023014069, -10.531558275222778, -76.11444389820099
 1.7052701528262143E9, 496.4193605184555, -88.32147735357285, 228.58268529176712, -70.8486647605896
 1.7052701528397353E9, 420.54427021741867, -160.36691009998322, 179.27584427595139, -142.1760367155075
 1.7052701528397353E9, 412.88495510816574, -107.70911872386932, -37.09980756044388, -101.24657160043716
 1.705270152855605E9, 488.0419846177101, -70.36995756626129, 143.85151189565659, -59.359692096710205
 1.705270152855605E9, 437.0596684217453, -151.51082700490952, 229.06139248609543, -133.3199536204338
 1.7052701528562803E9, 395.65149611234665, -145.04827988147736, -15.557983815670013, -132.8412464261055
 1.7052701528562803E9, 467.696928858757, -79.94410145282745, 48.58878022432327, -64.38611763715744
 1.7052701528700516E9, 470.808525621891, -123.74580973386765, 259.459299325943, -109.62394750118256
 1.7052701528700516E9, 388.7102417945862, -163.95721405744553, 80.18345504999161, -149.11729103326797
 1.7052701528857608E9, 445.915751516819, -84.73117339611053, -13.164447844028473, -70.36995756626129
 1.7052701528857608E9, 495.22259253263474, -88.80018454790115, 223.79561334848404, -69.65189677476883
 1.705270152886289E9, 419.58685582876205, -165.1539820432663, 171.8558827638626, -140.73991513252258
 1.705270152886289E9, 421.26233100891113, -107.70911872386932, -39.49334353208542, -96.45949965715408
 1.7052701529004424E9, 494.9832389354706, -70.8486647605896, 140.50056153535843, -53.61520576477051
 1.7052701529004424E9, 438.97449719905853, -150.0747054219246, 229.30074608325958, -131.88383203744888
 1.705270152915913E9, 394.4547281265259, -137.38896477222443, 4.069011151790619, -123.9851633310318
 1.705270152915913E9, 469.13305044174194, -66.77965360879898, 56.966156125068665, -59.359692096710205
 1.7052701529162972E9, 474.6381831765175, -116.08649462461472, 265.92184644937515, -97.4169140458107
 1.7052701529162972E9, 398.28438568115234, -151.51082700490952, 89.27889174222946, -139.78250074386597
 1.705270152929791E9, 443.52221554517746, -76.83250468969345, 0.4787071943283081, -72.76349353790283
 1.705270152929791E9, 489.47810620069504, -84.73117339611053, 224.27432054281235, -74.19961512088776
 1.7052701529454648E9, 416.2359054684639, -155.34048455953598, 178.79713708162308, -136.91025757789612
 1.7052701529454648E9, 415.7571982741356, -101.00721800327301, -36.860453963279724, -90.23630613088608
 1.7052701529461596E9, 504.7967364192009, -60.31710648536682, 148.63858383893967, -43.32300108671188
 1.7052701529461596E9, 447.5912266969681, -139.30379354953766, 239.5929507613182, -122.07033455371857
 1.7052701529600732E9, 402.1140432357788, -135.9528431892395, 13.643155038356781, -123.26710253953934
 1.7052701529600732E9, 476.0743047595024, -61.03516727685928, 67.01900720596313, -53.1364985704422
 1.7052701529759376E9, 467.696928858757, -112.97489786148071, 267.8366752266884, -105.31558275222778
 1.7052701529759376E9, 395.65149611234665, -152.94694858789444, 83.77375900745392, -141.2186223268509
 1.7052701529764216E9, 447.83058029413223, -81.14086943864822, -0.23935359716415405, -66.06159281730652
 1.7052701529764216E9, 491.8716421723366, -94.06596368551254, 217.09371262788773, -76.11444389820099
 1.7052701529898136E9, 420.06556302309036, -155.57983815670013, 178.55778348445892, -143.13345110416412
 1.7052701529898136E9, 415.51784467697144, -111.06006908416748, -29.679846048355103, -97.65626764297485
 1.7052701530054705E9, 494.7438853383064, -70.60931116342545, 149.11729103326797, -55.53003454208374
 1.7052701530054705E9, 432.7513036727905, -152.94694858789444, 232.65169644355774, -139.5431471467018
 1.7052701530061555E9, 389.90700978040695, -146.00569427013397, 0.23935359716415405, -135.4741359949112
 1.7052701530061555E9, 465.54274648427963, -77.78991907835007, 44.2804154753685, -62.949996054172516
 1.7052701530197988E9, 471.28723281621933, -125.66063851118088, 257.7838241457939, -102.92204678058624
 1.7052701530197988E9, 392.53989934921265, -162.76044607162476, 80.18345504999161, -146.48440146446228
 1.7052701530355856E9, 442.3254475593567, -87.84277015924454, -11.24961906671524, -78.74733346700668
 1.7052701530355856E9, 488.0419846177101, -95.98079246282578, 218.7691878080368, -78.74733346700668
 1.705270153036187E9, 417.43267345428467, -155.57983815670013, 185.9777449965477, -139.5431471467018
 1.705270153036187E9, 411.20947992801666, -117.52261620759964, -44.041061878204346, -98.37432843446732
 1.7052701530503387E9, 501.6851396560669, -60.31710648536682, 153.90436297655106, -50.98231619596481
 1.7052701530503387E9, 447.11251950263977, -143.37280470132828, 236.24200040102005, -122.07033455371857
 1.7052701530655396E9, 400.1992144584656, -138.82508635520935, 6.462547123432159, -124.22451692819595
 1.7052701530655396E9, 477.51042634248734, -69.17318958044052, 52.65779137611389, -56.2480953335762
 1.7052701530662596E9, 480.3826695084572, -111.29942268133163, 272.14503997564316, -98.61368203163147
 1.7052701530662596E9, 400.91727524995804, -157.73402053117752, 87.36406296491623, -139.78250074386597
 1.7052701530797806E9, 443.2828619480133, -86.88535577058792, 0.0, -73.00284713506699
 1.7052701530797806E9, 510.5412227511406, -64.38611763715744, 252.27869141101837, -60.07775288820267
 1.7052701530955596E9, 423.17715978622437, -143.61215829849243, 195.55188888311386, -131.88383203744888
 1.7052701530955596E9, 426.0494029521942, -93.58725649118423, -16.276044607162476, -90.47565972805023
 1.7052701530961976E9, 491.6322885751724, -58.64163130521774, 162.28173887729645, -55.53003454208374
 1.7052701530961976E9, 444.9583371281624, -132.8412464261055, 249.64580184221268, -122.54904174804688
 1.7052701531100671E9, 404.50757920742035, -127.81482088565826, 16.994105398654938, -120.15550577640533
 1.7052701531100671E9, 480.62202310562134, -55.53003454208374, 73.72090792655945, -49.06748741865158
 1.7052701531258752E9, 479.42525511980057, -116.56520181894302, 267.1186144351959, -97.65626764297485
 1.7052701531258752E9, 411.68818712234497, -142.41539031267166, 93.34790289402008, -126.13934570550919
 1.70527015312656E9, 457.16537058353424, -70.60931116342545, 5.983839929103851, -58.162924110889435
 1.70527015312656E9, 492.58970296382904, -80.90151584148407, 230.01880687475204, -71.08801835775375
 1.7052701531397624E9, 430.357767701149, -145.04827988147736, 183.344855427742, -131.64447844028473
 1.7052701531397624E9, 427.7248781323433, -91.91178131103516, -23.456652522087097, -89.51824533939362
 1.7052701531557205E9, 504.07867562770844, -56.72680252790451, 158.45208132266998, -48.82813382148743
 1.7052701531557205E9, 462.1917961239815, -131.88383203744888, 246.77355867624283, -110.58136188983917
 1.705270153156178E9, 406.66176158189774, -138.82508635520935, 8.377375900745392, -119.43744498491287
 1.705270153156178E9, 487.5632774233818, -50.98231619596481, 83.29505181312561, -43.32300108671188
 1.7052701531701517E9, 490.91422778367996, -99.09238922595978, 284.59142702817917, -87.12470936775208
 1.7052701531701517E9, 413.1243087053299, -141.6973295211792, 102.68269318342209, -130.6870640516281
 1.7052701531855707E9, 470.09046483039856, -61.51387447118759, 25.850188493728638, -52.897144973278046
 1.7052701531855707E9, 507.4296259880066, -76.83250468969345, 243.90131551027298, -66.06159281730652
 1.7052701531862369E9, 426.0494029521942, -148.63858383893967, 185.73839139938354, -134.99542880058289
 1.7052701531862369E9, 428.6822925209999, -101.72527879476547, -30.15855324268341, -82.09828382730484
 1.705270153199781E9, 502.40320044755936, -67.49771440029144, 158.21272772550583, -46.67395144701004
 1.705270153199781E9, 451.1815306544304, -137.86767196655273, 247.9703266620636, -117.04390901327133
 1.7052701532163157E9, 404.7469328045845, -126.13934570550919, 12.685740649700165, -115.84714102745056
 1.7052701532163157E9, 476.7923655509949, -63.428703248500824, 67.25836080312729, -56.00874173641205
 1.7052701532164028E9, 468.8936968445778, -116.80455541610718, 263.5283104777336, -106.99105793237686
 1.7052701532164028E9, 406.1830543875694, -143.61215829849243, 88.32147735357285, -131.88383203744888
 1.7052701532305665E9, 451.6602378487587, -78.26862627267838, -6.223193526268005, -64.14676403999329
 1.7052701532305665E9, 500.0096644759178, -78.50797986984253, 232.41234284639359, -67.25836080312729
 1.7052701532455437E9, 421.9803918004036, -151.51082700490952, 181.66938024759293, -136.4315503835678
 1.7052701532455437E9, 415.51784467697144, -100.5285108089447, -26.807602882385254, -97.17756044864655
 1.7052701532463205E9, 492.58970296382904, -67.49771440029144, 156.2978989481926, -51.93973058462143
 1.7052701532463205E9, 440.41061878204346, -141.45797592401505, 235.76329320669174, -129.01158887147903
 1.7052701532597768E9, 403.55016481876373, -134.99542880058289, 5.983839929103851, -116.56520181894302
 1.7052701532597768E9, 476.31365835666656, -58.40227770805359, 67.7370679974556, -55.05132734775543
 1.705270153275699E9, 475.1168903708458, -104.11881476640701, 274.5385759472847, -92.62984210252762
 1.705270153275699E9, 408.09788316488266, -137.62831836938858, 108.42717951536179, -129.96900326013565
 1.7052701532761953E9, 438.0170828104019, -90.23630613088608, -6.9412543177604675, -79.7047478556633
 1.7052701532761953E9, 491.39293497800827, -93.82661008834839, 223.31690615415573, -73.72090792655945
 1.7052701532898312E9, 431.3151820898056, -144.8089262843132, 185.25968420505524, -131.88383203744888
 1.7052701532898312E9, 417.911380648613, -108.66653311252594, -37.81786835193634, -98.37432843446732
 1.7052701533054311E9, 493.3077637553215, -74.19961512088776, 144.3302190899849, -63.18934965133667
 1.7052701533054311E9, 453.8144202232361, -143.85151189565659, 242.46519392728806, -117.7619698047638
 1.7052701533062348E9, 401.6353360414505, -135.4741359949112, 8.377375900745392, -128.05417448282242
 1.7052701533062348E9, 486.36650943756104, -66.06159281730652, 61.03516727685928, -53.1364985704422
 1.7052701533198316E9, 481.10073029994965, -115.1290802359581, 264.4857248663902, -99.57109642028809
 1.7052701533198316E9, 398.76309287548065, -151.98953419923782, 90.47565972805023, -140.02185434103012
 1.70527015333542E9, 460.9950281381607, -77.0718582868576, -3.1115967631340027, -63.428703248500824
 1.70527015333542E9, 496.65871411561966, -85.68858778476715, 228.82203888893127, -70.8486647605896
 1.705270153336144E9, 419.10814863443375, -161.56367808580399, 170.18040758371353, -141.2186223268509
 1.705270153336144E9, 423.6558669805527, -101.00721800327301, -35.663685977458954, -95.26273167133331
 1.7052701533500848E9, 497.6161285042763, -69.17318958044052, 153.42565578222275, -57.68421691656113
 1.7052701533500848E9, 435.86290043592453, -149.83535182476044, 228.58268529176712, -138.82508635520935
 1.705270153365697E9, 399.24180006980896, -136.4315503835678, 9.095436692237854, -125.89999210834503
 1.705270153365697E9, 471.5265864133835, -69.41254317760468, 56.487448930740356, -56.00874173641205
 1.7052701533664048E9, 470.09046483039856, -122.54904174804688, 256.347702562809, -100.5285108089447
 1.7052701533664048E9, 403.7895184159279, -157.73402053117752, 79.46539425849915, -133.79866081476212
 1.7052701533797445E9, 448.0699338912964, -77.0718582868576, -11.967679858207703, -67.25836080312729
 1.7052701533797445E9, 497.85548210144043, -84.73117339611053, 229.30074608325958, -68.2157751917839
 1.705270153395944E9, 420.7836238145828, -152.46824139356613, 176.16424751281738, -142.89409750699997
 1.705270153395944E9, 417.6720270514488, -109.62394750118256, -36.62110036611557, -94.3053172826767
 1.705270153396436E9, 500.7277252674103, -66.54030001163483, 158.21272772550583, -51.700376987457275
 1.705270153396436E9, 446.15510511398315, -146.24504786729813, 235.04523241519928, -125.18193131685257
 1.7052701534100804E9, 396.8482640981674, -137.38896477222443, 0.9574143886566162, -120.63421297073364
 1.7052701534100804E9, 472.24464720487595, -76.83250468969345, 53.85455936193466, -56.487448930740356
 1.705270153441853E9, 478.46784073114395, -115.36843383312225, 260.8954209089279, -95.74143886566162
 1.705270153441853E9, 403.3108112215996, -145.52698707580566, 90.95436692237854, -129.49029606580734
 1.7052701534425285E9, 453.0963594317436, -75.63573670387268, -2.1541823744773865, -60.79581367969513
 1.7052701534425285E9, 494.5045317411423, -84.97052699327469, 227.38591730594635, -71.08801835775375
 1.7052701534432635E9, 413.1243087053299, -162.76044607162476, 163.47850686311722, -146.24504786729813
 1.7052701534432635E9, 421.74103820323944, -109.62394750118256, -31.83402842283249, -95.02337807416916
 1.7052701534440248E9, 497.85548210144043, -63.66805684566498, 152.94694858789444, -50.0249018073082
 1.7052701534440248E9, 443.2828619480133, -146.48440146446228, 229.06139248609543, -125.89999210834503
 1.7052701534549532E9, 394.4547281265259, -139.78250074386597, -7.898668706417084, -130.92641764879227
 1.7052701534549532E9, 467.696928858757, -71.32737195491791, 47.63136583566666, -63.90741044282913
 1.7052701534700894E9, 467.2182216644287, -119.43744498491287, 263.28895688056946, -104.59752196073532
 1.7052701534700894E9, 393.7366673350334, -154.86177736520767, 78.50797986984253, -144.3302190899849
 1.7052701534856768E9, 445.915751516819, -78.26862627267838, -2.8722431659698486, -74.67832231521606
 1.7052701534856768E9, 495.22259253263474, -86.16729497909546, 229.30074608325958, -74.67832231521606
 1.70527015348625E9, 409.5340047478676, -165.1539820432663, 165.39333564043045, -154.1437165737152
 1.70527015348625E9, 411.20947992801666, -105.31558275222778, -32.3127356171608, -97.89562124013901
 1.7052701534998145E9, 485.4090950489044, -72.52413994073868, 140.50056153535843, -63.428703248500824
 1.7052701534998145E9, 433.9480716586113, -150.5534126162529, 229.06139248609543, -135.4741359949112
 1.7052701535159092E9, 399.24180006980896, -137.38896477222443, -5.265779137611389, -122.30968815088272
 1.7052701535159092E9, 477.7497799396515, -68.2157751917839, 59.12033849954605, -56.966156125068665
 1.7052701535161972E9, 473.920122385025, -118.48003059625626, 265.44313925504684, -99.09238922595978
 1.7052701535161972E9, 396.13020330667496, -155.57983815670013, 82.337637424469, -140.50056153535843
 1.705270153529909E9, 440.88932597637177, -80.90151584148407, -1.9148287773132324, -74.91767591238022
 1.705270153529909E9, 495.9406533241272, -79.94410145282745, 236.4813539981842, -72.52413994073868
 1.7052701535612347E9, 422.21974539756775, -145.04827988147736, 185.02033060789108, -135.23478239774704
 1.7052701535612347E9, 419.8262094259262, -104.83687555789948, -33.27015000581741, -96.93820685148239
 1.7052701535619087E9, 444.2402763366699, -141.6973295211792, 231.69428205490112, -125.18193131685257
 1.7052701535619087E9, 394.69408172369003, -143.61215829849243, -1.6754751801490784, -132.8412464261055
 1.7052701535626428E9, 473.4414151906967, -75.39638310670853, 58.8809849023819, -58.40227770805359
 1.7052701535626428E9, 455.250541806221, -134.75607520341873, 245.8161442875862, -121.3522737622261
 1.7052701535749617E9, 396.60891050100327, -146.24504786729813, 88.80018454790115, -144.3302190899849
 1.7052701535749617E9, 448.30928748846054, -76.5931510925293, 5.744486331939697, -67.97642159461975
 1.705270153590509E9, 488.7600454092026, -81.14086943864822, 241.7471331357956, -74.43896871805191
 1.705270153590509E9, 419.10814863443375, -147.4418158531189, 188.37128096818924, -137.38896477222443
 1.7052701535912347E9, 411.4488335251808, -100.5285108089447, -24.89277410507202, -94.54467087984085
 1.7052701535912347E9, 492.8290565609932, -67.49771440029144, 162.0423852801323, -54.33326655626297
 1.7052701536050658E9, 432.5119500756264, -141.2186223268509, 237.91747558116913, -130.92641764879227
 1.7052701536050658E9, 383.4444626569748, -137.38896477222443, 5.744486331939697, -131.88383203744888
 1.7052701536204302E9, 458.362138569355, -68.69448238611221, 61.51387447118759, -62.949996054172516
 1.7052701536204302E9, 464.1066249012947, -114.88972663879395, 267.8366752266884, -103.6401075720787
 1.7052701536212697E9, 395.4121425151825, -157.01595973968506, 85.68858778476715, -143.85151189565659
 1.7052701536212697E9, 448.78799468278885, -74.91767591238022, 4.069011151790619, -67.25836080312729
 1.7052701536348546E9, 479.42525511980057, -91.1937205195427, 228.58268529176712, -85.9279413819313
 1.7052701536348546E9, 423.6558669805527, -144.09086549282074, 187.89257377386093, -128.77223527431488
 1.7052701536504347E9, 411.68818712234497, -101.96463239192963, -32.07338201999664, -97.4169140458107
 1.7052701536504347E9, 483.25491267442703, -73.9602615237236, 156.05854535102844, -67.7370679974556
 1.70527015365116E9, 436.34160763025284, -139.78250074386597, 241.7471331357956, -129.49029606580734
 1.70527015365116E9, 396.60891050100327, -132.3625392317772, 9.574143886566162, -117.7619698047638
 1.7052701536648836E9, 467.9362824559212, -58.40227770805359, 66.06159281730652, -53.61520576477051
 1.7052701536648836E9, 469.8511112332344, -109.62394750118256, 276.2140511274338, -105.07622915506363
 1.7052701536805272E9, 382.72640186548233, -151.27147340774536, 88.80018454790115, -150.31405901908875
 1.7052701536805272E9, 441.3680331707001, -77.78991907835007, -0.23935359716415405, -74.19961512088776
 1.7052701536811576E9, 487.32392382621765, -83.77375900745392, 239.35359716415405, -73.4815543293953
 1.7052701536811576E9, 406.9011151790619, -149.35664463043213, 178.79713708162308, -141.45797592401505
 1.7052701536952572E9, 403.55016481876373, -111.06006908416748, -38.057221949100494, -104.59752196073532
 1.7052701536952572E9, 477.031719148159, -78.50797986984253, 145.2876334786415, -67.97642159461975
 1.705270153710473E9, 437.77772921323776, -140.50056153535843, 237.67812198400497, -127.81482088565826
 1.705270153710473E9, 390.6250705718994, -129.96900326013565, 7.419961512088776, -124.70322412252426
 1.7052701537111404E9, 466.2608072757721, -61.753228068351746, 70.13060396909714, -60.79581367969513
 1.7052701537111404E9, 463.86727130413055, -113.45360505580902, 262.33154249191284, -103.6401075720787
 1.705270153725152E9, 392.53989934921265, -148.87793743610382, 85.9279413819313, -136.67090398073196
 1.705270153725152E9, 442.08609396219254, -78.74733346700668, -4.308364748954773, -72.28478634357452
 1.7052701537405927E9, 492.8290565609932, -80.18345504999161, 238.87488996982574, -67.01900720596313
 1.7052701537405927E9, 415.0391374826431, -149.11729103326797, 179.51519787311554, -136.19219678640366
 1.7052701537413006E9, 413.1243087053299, -98.37432843446732, -21.063116550445557, -98.13497483730316
 1.7052701537413006E9, 488.0419846177101, -59.59904569387436, 163.95721405744553, -56.487448930740356
 1.7052701537548163E9, 435.3841932415962, -143.61215829849243, 235.5239396095276, -134.51672160625458
 1.7052701537548163E9, 388.2315346002579, -135.71348959207535, 11.010265469551086, -131.40512484312057
 1.7052701537706697E9, 480.8613767027855, -56.72680252790451, 73.4815543293953, -48.34942662715912
 1.7052701537706697E9, 472.72335439920425, -110.10265469551086, 274.5385759472847, -99.09238922595978
 1.7052701537712655E9, 397.80567848682404, -148.63858383893967, 86.16729497909546, -135.4741359949112
 1.7052701537712655E9, 448.0699338912964, -74.43896871805191, 13.643155038356781, -67.7370679974556
 1.7052701537849543E9, 494.9832389354706, -79.94410145282745, 248.68838745355606, -72.76349353790283
 1.7052701537849543E9, 416.47525906562805, -146.24504786729813, 188.84998816251755, -141.45797592401505
 1.7052701538169413E9, 413.84236949682236, -101.72527879476547, -26.807602882385254, -96.45949965715408
 1.7052701538169413E9, 475.35624396800995, -73.24220073223114, 152.70759499073029, -72.28478634357452
 1.705270153817567E9, 427.246170938015, -142.1760367155075, 249.40644824504852, -137.38896477222443
 1.705270153817567E9, 382.9657554626465, -132.3625392317772, 18.430226981639862, -127.81482088565826
 1.70527015381828E9, 457.64407777786255, -60.07775288820267, 74.91767591238022, -61.27452087402344
 1.70527015381828E9, 457.8834313750267, -113.21425145864487, 275.017283141613, -105.55493634939194
 1.7052701538190384E9, 374.5883795619011, -152.46824139356613, 94.06596368551254, -148.3992302417755
 1.7052701538190384E9, 422.21974539756775, -81.61957663297653, 4.069011151790619, -87.60341656208038
 1.7052701538300436E9, 472.4840008020401, -84.01311260461807, 242.46519392728806, -89.75759893655777
 1.7052701538300436E9, 403.7895184159279, -143.61215829849243, 190.76481693983078, -141.6973295211792
 1.705270153845208E9, 414.32107669115067, -90.47565972805023, -16.754751801490784, -88.32147735357285
 1.705270153845208E9, 488.7600454092026, -47.3920122385025, 178.55778348445892, -49.06748741865158
 1.705270153860738E9, 437.29902201890945, -122.07033455371857, 250.36386263370514, -121.59162735939026
 1.705270153860738E9, 393.49731373786926, -118.48003059625626, 20.58440935611725, -111.77812987565994
 1.7052701538611937E9, 465.0640392899513, -57.68421691656113, 86.64600217342377, -59.59904569387436
 1.7052701538611937E9, 465.3033928871155, -103.40075397491455, 290.33591336011887, -101.48592519760132
 1.7052701538748968E9, 388.94959539175034, -135.9528431892395, 105.55493634939194, -130.44771045446396
 1.7052701538748968E9, 437.77772921323776, -59.359692096710205, 25.850188493728638, -67.7370679974556
 1.7052701538904605E9, 483.9729734659195, -73.24220073223114, 256.10834896564484, -73.4815543293953
 1.7052701538904605E9, 414.5604302883148, -137.14961117506027, 203.2112039923668, -132.12318563461304
 1.7052701538911755E9, 409.77335834503174, -86.40664857625961, -9.574143886566162, -89.51824533939362
 1.7052701538911755E9, 485.8878022432327, -53.375852167606354, 178.79713708162308, -50.26425540447235
 1.7052701539047973E9, 428.44293892383575, -136.19219678640366, 248.68838745355606, -128.53288167715073
 1.7052701539047973E9, 388.470888197422, -125.66063851118088, 24.653420507907867, -120.39485937356949
 1.7052701539205508E9, 458.8408457636833, -60.31710648536682, 79.46539425849915, -57.92357051372528
 1.7052701539205508E9, 456.9260169863701, -111.77812987565994, 270.70891839265823, -103.87946116924286
 1.7052701539211915E9, 386.0773522257805, -141.45797592401505, 100.76786440610886, -139.5431471467018
 1.7052701539211915E9, 421.5016846060753, -84.25246620178223, -5.505132734775543, -82.09828382730484
 1.705270153935084E9, 464.34597849845886, -93.10854929685593, 230.2581604719162, -92.15113490819931
 1.705270153935084E9, 387.27412021160126, -153.42565578222275, 178.79713708162308, -157.73402053117752
 1.7052701539504771E9, 392.53989934921265, -99.33174282312393, -33.03079640865326, -106.03364354372025
 1.7052701539504771E9, 479.6646087169647, -72.04543274641037, 155.10113096237183, -60.07775288820267
 1.705270153951186E9, 418.15073424577713, -143.13345110416412, 238.15682917833328, -136.19219678640366
 1.705270153951186E9, 359.74845653772354, -154.1437165737152, -14.839923024177551, -155.10113096237183
 1.7052701539650805E9, 445.19769072532654, -78.74733346700668, 60.556460082530975, -76.83250468969345
 1.7052701539650805E9, 452.37829864025116, -116.80455541610718, 259.21994572877884, -115.60778743028641
 1.7052701539970064E9, 377.6999763250351, -152.22888779640198, 78.26862627267838, -146.00569427013397
 1.7052701539970064E9, 428.2035853266716, -80.66216224431992, 3.590303957462311, -81.38022303581238
 1.705270153997564E9, 470.808525621891, -87.36406296491623, 238.87488996982574, -85.449234187603
 1.705270153997564E9, 404.02887201309204, -151.0321198105812, 178.07907629013062, -140.26120793819427
 1.7052701539983997E9, 392.7792529463768, -108.42717951536179, -47.3920122385025, -110.82071548700333
 1.7052701539983997E9, 471.28723281621933, -69.41254317760468, 152.46824139356613, -73.9602615237236
 1.705270153999058E9, 414.799783885479, -146.48440146446228, 224.0349669456482, -146.9631086587906
 1.705270153999058E9, 372.19484359025955, -140.97926872968674, -4.069011151790619, -138.1070255637169
 1.7052701540098264E9, 429.1609997153282, -92.15113490819931, 37.578514754772186, -92.39048850536346
 1.7052701540098264E9, 423.6558669805527, -152.46824139356613, 227.86462450027466, -146.00569427013397
 1.7052701540251083E9, 371.71613639593124, -163.47850686311722, 61.753228068351746, -158.9307885169983
 1.7052701540251083E9, 427.00681734085083, -91.1937205195427, -30.876614034175873, -86.16729497909546
 1.705270154040514E9, 472.9627079963684, -106.99105793237686, 205.36538636684418, -93.82661008834839
 1.705270154040514E9, 413.6030158996582, -174.01006513834, 147.68116945028305, -146.24504786729813
 1.7052701540413215E9, 416.95396625995636, -122.30968815088272, -57.92357051372528, -105.07622915506363
 1.7052701540413215E9, 481.10073029994965, -96.93820685148239, 118.48003059625626, -82.09828382730484
 1.7052701540547917E9, 438.97449719905853, -163.23915326595306, 213.74276226758957, -142.1760367155075
 1.7052701540547917E9, 387.0347666144371, -158.45208132266998, -19.866348564624786, -142.41539031267166
 1.7052701540707607E9, 463.6279177069664, -87.12470936775208, 43.32300108671188, -75.87509030103683
 1.7052701540707607E9, 464.82468569278717, -134.27736800909042, 245.8161442875862, -117.04390901327133
 1.7052701540713737E9, 401.39598244428635, -161.56367808580399, 79.22604066133499, -150.31405901908875
 1.7052701540713737E9, 452.138945043087, -90.95436692237854, -12.685740649700165, -78.26862627267838
 1.7052701540847628E9, 499.5309572815895, -104.35816836357117, 223.07755255699158, -80.18345504999161
 1.7052701540847628E9, 421.26233100891113, -168.50493240356445, 169.94105398654938, -144.8089262843132
 1.7052701541004963E9, 421.9803918004036, -115.84714102745056, -34.466917991638184, -99.81045001745224
 1.7052701541004963E9, 506.71156519651413, -76.83250468969345, 157.01595973968506, -60.07775288820267
 1.7052701541012268E9, 450.4634698629379, -148.15987664461136, 233.3697572350502, -125.66063851118088
 1.7052701541012268E9, 405.2256399989128, -131.40512484312057, 16.51539820432663, -119.67679858207703
 1.705270154114862E9, 482.2974982857704, -66.54030001163483, 75.63573670387268, -56.00874173641205
 1.705270154114862E9, 470.808525621891, -123.74580973386765, 268.3153824210167, -106.2729971408844
 1.7052701541304758E9, 403.3108112215996, -159.8882029056549, 78.98668706417084, -141.93668311834335
 1.7052701541304758E9, 452.6176522374153, -87.60341656208038, -0.9574143886566162, -72.76349353790283
 1.7052701541312397E9, 490.91422778367996, -97.65626764297485, 228.58268529176712, -78.74733346700668
 1.7052701541312397E9, 421.74103820323944, -163.47850686311722, 166.1113964319229, -141.93668311834335
 1.705270154144758E9, 419.3475022315979, -114.65037304162979, -34.94562518596649, -102.92204678058624
 1.705270154144758E9, 486.36650943756104, -85.9279413819313, 140.50056153535843, -71.80607914924622
 1.7052701541606145E9, 435.3841932415962, -163.71786046028137, 219.96595579385757, -143.85151189565659
 1.7052701541606145E9, 387.27412021160126, -152.22888779640198, -18.430226981639862, -139.5431471467018
 1.7052701541612759E9, 484.4516806602478, -78.50797986984253, 56.72680252790451, -62.71064245700836
 1.7052701541612759E9, 466.50016087293625, -132.60189282894135, 255.86899536848068, -110.58136188983917
 1.705270154174813E9, 399.0024464726448, -156.7766061425209, 79.46539425849915, -142.41539031267166
 1.705270154174813E9, 445.67639791965485, -86.88535577058792, -4.308364748954773, -76.5931510925293
 1.7052701541908028E9, 487.5632774233818, -99.81045001745224, 226.42850291728973, -87.36406296491623
 1.7052701541908028E9, 410.4914191365242, -165.39333564043045, 167.786871612072, -149.83535182476044
 1.705270154191317E9, 409.77335834503174, -118.95873779058456, -43.32300108671188, -104.35816836357117
 1.705270154191317E9, 485.16974145174026, -80.18345504999161, 145.52698707580566, -72.76349353790283
 1.705270154205062E9, 432.03324288129807, -159.17014211416245, 223.79561334848404, -136.19219678640366
 1.705270154205062E9, 391.58248496055603, -145.76634067296982, -13.643155038356781, -131.40512484312057
 1.7052701542205036E9, 462.1917961239815, -77.31121188402176, 51.22166979312897, -68.93383598327637
 1.7052701542205036E9, 461.23438173532486, -129.2509424686432, 252.75739860534668, -112.73554426431656
 1.7052701542212882E9, 395.8908497095108, -162.9997996687889, 72.04543274641037, -142.1760367155075
 1.7052701542212882E9, 442.3254475593567, -84.25246620178223, -7.180607914924622, -73.72090792655945
 1.7052701542348697E9, 486.36650943756104, -89.99695253372192, 230.7368676662445, -77.78991907835007
 1.7052701542348697E9, 416.47525906562805, -151.75018060207367, 168.50493240356445, -143.61215829849243
 1.7052701542509189E9, 423.8952205777168, -99.57109642028809, -32.3127356171608, -97.89562124013901
 1.7052701542509189E9, 490.91422778367996, -73.4815543293953, 157.01595973968506, -61.51387447118759
 1.7052701542513456E9, 438.7351436018944, -148.3992302417755, 224.5136741399765, -133.08060002326965
 1.7052701542513456E9, 390.1463633775711, -144.8089262843132, -13.643155038356781, -129.96900326013565
 1.7052701542651823E9, 473.68076878786087, -68.2157751917839, 63.66805684566498, -59.83839929103851
 1.7052701542651823E9, 477.51042634248734, -122.78839534521103, 259.459299325943, -107.70911872386932
 1.70527015428052E9, 402.5927504301071, -153.1863021850586, 74.19961512088776, -132.3625392317772
 1.70527015428052E9, 445.915751516819, -90.47565972805023, -14.839923024177551, -71.56672555208206
 1.7052701542812853E9, 485.4090950489044, -101.48592519760132, 218.52983421087265, -77.55056548118591
 1.7052701542812853E9, 412.88495510816574, -169.94105398654938, 160.36691009998322, -148.63858383893967
 1.705270154294876E9, 415.0391374826431, -109.86330109834671, -40.450757920742035, -99.81045001745224
 1.705270154294876E9, 487.32392382621765, -80.18345504999161, 141.93668311834335, -65.1041784286499
 1.7052701543107946E9, 438.97449719905853, -149.11729103326797, 225.47108852863312, -126.85740649700165
 1.7052701543107946E9, 396.8482640981674, -143.61215829849243, -12.685740649700165, -127.57546728849411
 1.7052701543113172E9, 468.8936968445778, -77.0718582868576, 56.72680252790451, -62.949996054172516
 1.7052701543113172E9, 468.1756360530853, -123.74580973386765, 255.39028817415237, -108.18782591819763
 1.705270154324914E9, 399.4811536669731, -153.6650093793869, 78.26862627267838, -140.97926872968674
 1.705270154324914E9, 443.52221554517746, -81.61957663297653, -9.813497483730316, -72.04543274641037
 1.705270154340626E9, 488.0419846177101, -99.09238922595978, 231.93363565206528, -81.38022303581238
 1.705270154340626E9, 418.8687950372696, -157.01595973968506, 170.41976118087769, -138.34637916088104
 1.7052701543412447E9, 411.4488335251808, -107.46976512670517, -29.44049245119095, -101.72527879476547
 1.7052701543412447E9, 471.5265864133835, -90.71501332521439, 135.23478239774704, -78.98668706417084
 1.7052701543549824E9, 435.6235468387604, -150.31405901908875, 229.30074608325958, -135.71348959207535
 1.7052701543549824E9, 393.7366673350334, -145.76634067296982, -6.462547123432159, -122.54904174804688
 1.705270154370704E9, 474.1594759821892, -73.72090792655945, 56.00874173641205, -60.07775288820267
 1.705270154370704E9, 466.2608072757721, -125.89999210834503, 258.5018849372864, -111.06006908416748
 1.7052701543712757E9, 397.3269712924957, -156.53725254535675, 70.60931116342545, -143.85151189565659
 1.7052701543712757E9, 457.4047241806984, -79.46539425849915, -3.1115967631340027, -61.27452087402344
 1.7052701543851404E9, 498.0948356986046, -84.25246620178223, 235.04523241519928, -75.63573670387268
 1.7052701543851404E9, 416.47525906562805, -155.10113096237183, 165.6326892375946, -141.45797592401505
 1.7052701544009748E9, 427.246170938015, -98.85303562879562, -28.722431659698486, -88.80018454790115
 1.7052701544009748E9, 494.02582454681396, -70.36995756626129, 154.1437165737152, -57.68421691656113
 1.7052701544013438E9, 447.3518730998039, -135.9528431892395, 235.04523241519928, -125.66063851118088
 1.7052701544013438E9, 391.8218385577202, -130.44771045446396, 3.3509503602981567, -119.19809138774872
 1.705270154415094E9, 477.98913353681564, -67.7370679974556, 60.79581367969513, -52.17908418178558
 1.705270154415094E9, 469.8511112332344, -113.69295865297318, 266.6399072408676, -98.13497483730316
 1.7052701544304907E9, 399.4811536669731, -150.31405901908875, 80.18345504999161, -136.67090398073196
 1.7052701544304907E9, 451.6602378487587, -77.0718582868576, 1.4361215829849243, -61.51387447118759
 1.7052701544312036E9, 484.9303878545761, -92.15113490819931, 231.21557486057281, -80.66216224431992
 1.7052701544312036E9, 408.3372367620468, -162.9997996687889, 164.43592125177383, -148.87793743610382
 1.7052701544452496E9, 404.98628640174866, -108.9058867096901, -39.97205072641373, -105.79428994655609
 1.7052701544452496E9, 483.4942662715912, -71.32737195491791, 149.11729103326797, -64.38611763715744
 1.7052701544608147E9, 428.2035853266716, -162.28173887729645, 212.0672870874405, -138.82508635520935
 1.7052701544608147E9, 392.53989934921265, -142.1760367155075, -14.361215829849243, -125.66063851118088
 1.7052701544613116E9, 471.0478792190552, -80.90151584148407, 52.897144973278046, -62.949996054172516
 1.7052701544613116E9, 460.0376137495041, -137.14961117506027, 249.64580184221268, -112.4961906671524
 1.7052701544748E9, 393.7366673350334, -163.95721405744553, 61.753228068351746, -146.24504786729813
 1.7052701544748E9, 446.8731659054756, -93.34790289402008, -12.207033455371857, -72.28478634357452
 1.7052701544904587E9, 489.2387526035309, -105.55493634939194, 217.33306622505188, -84.73117339611053
 1.7052701544904587E9, 412.40624791383743, -167.54751801490784, 153.1863021850586, -146.48440146446228
 1.705270154491178E9, 415.51784467697144, -115.1290802359581, -49.06748741865158, -96.93820685148239
 1.705270154491178E9, 484.9303878545761, -87.84277015924454, 139.5431471467018, -70.8486647605896
 1.7052701545060217E9, 434.9054860472679, -158.9307885169983, 224.27432054281235, -136.91025757789612
 1.7052701545060217E9, 389.42830258607864, -139.78250074386597, -7.65931510925293, -131.16577124595642
 1.7052701545205832E9, 475.35624396800995, -67.7370679974556, 68.93383598327637, -59.359692096710205
 1.7052701545205832E9, 460.5163209438324, -129.49029606580734, 256.8264097571373, -113.21425145864487
 1.7052701545212238E9, 390.6250705718994, -158.69143491983414, 69.89125037193298, -148.3992302417755
 1.7052701545212238E9, 442.3254475593567, -86.16729497909546, -5.265779137611389, -77.78991907835007
 1.705270154534804E9, 480.8613767027855, -104.83687555789948, 220.20530939102173, -87.36406296491623
 1.705270154534804E9, 410.0127119421959, -161.32432448863983, 162.9997996687889, -150.79276621341705
 1.705270154549827E9, 413.36366230249405, -111.53877627849579, -43.08364748954773, -106.2729971408844
 1.705270154549827E9, 476.0743047595024, -85.9279413819313, 146.72375506162643, -77.78991907835007
 1.7052701545655203E9, 387.9921810030937, -142.89409750699997, -10.531558275222778, -135.4741359949112
 1.7052701545655203E9, 465.0640392899513, -70.60931116342545, 58.40227770805359, -67.25836080312729
 1.705270154566203E9, 463.1492105126381, -133.79866081476212, 251.5606306195259, -115.36843383312225
 1.705270154566203E9, 386.0773522257805, -160.84561729431152, 62.71064245700836, -149.83535182476044
 1.7052701545798204E9, 439.45320439338684, -92.62984210252762, -16.51539820432663, -83.77375900745392
 1.7052701545798204E9, 473.68076878786087, -104.11881476640701, 219.96595579385757, -96.22014605998993
 1.705270154595687E9, 410.4914191365242, -158.21272772550583, 161.56367808580399, -142.1760367155075
 1.705270154595687E9, 413.6030158996582, -110.34200829267502, -39.49334353208542, -101.48592519760132
 1.7052701545961642E9, 478.46784073114395, -89.03953814506531, 144.56957268714905, -75.63573670387268
 1.7052701545961642E9, 434.9054860472679, -146.48440146446228, 235.04523241519928, -135.9528431892395
 1.7052701546100442E9, 397.3269712924957, -127.81482088565826, 6.223193526268005, -117.04390901327133
 1.7052701546100442E9, 470.56917202472687, -67.01900720596313, 68.69448238611221, -61.27452087402344
 1.7052701546257377E9, 459.5589065551758, -113.93231225013733, 274.29922235012054, -106.2729971408844
 1.7052701546257377E9, 383.4444626569748, -151.51082700490952, 81.85893023014069, -142.41539031267166
 1.70527015462631E9, 440.41061878204346, -73.72090792655945, 9.334790289402008, -72.04543274641037
 1.70527015462631E9, 476.5530119538307, -96.45949965715408, 234.56652522087097, -87.12470936775208
 1.7052701546400528E9, 396.3695569038391, -151.75018060207367, 174.24941873550415, -149.11729103326797
 1.7052701546400528E9, 389.90700978040695, -108.18782591819763, -33.988210797309875, -109.3845939040184
 1.7052701546554592E9, 463.1492105126381, -85.68858778476715, 148.3992302417755, -76.35379749536514
 1.7052701546554592E9, 407.61917597055435, -156.7766061425209, 227.86462450027466, -150.31405901908875
 1.7052701546562269E9, 363.0994068980217, -149.59599822759628, -15.079276621341705, -145.04827988147736
 1.7052701546562269E9, 435.6235468387604, -92.39048850536346, 47.3920122385025, -83.53440541028976
 1.7052701546699288E9, 425.5706957578659, -148.15987664461136, 241.98648673295975, -136.19219678640366
 1.7052701546699288E9, 361.4239317178726, -168.02622520923615, 68.45512878894806, -160.84561729431152
 1.705270154685649E9, 427.48552453517914, -83.53440541028976, 3.1115967631340027, -88.08212375640869
 1.705270154685649E9, 487.5632774233818, -67.97642159461975, 262.570896089077, -58.8809849023819
 1.7052701546862578E9, 404.98628640174866, -137.86767196655273, 191.2435241341591, -133.55930721759796
 1.7052701546862578E9, 410.25206553936005, -89.75759893655777, -13.643155038356781, -91.43307411670685
 1.7052701546998167E9, 474.87753677368164, -66.06159281730652, 164.43592125177383, -67.01900720596313
 1.7052701546998167E9, 410.4914191365242, -143.61215829849243, 232.8910500407219, -136.91025757789612
 1.705270154715495E9, 373.6309651732445, -128.77223527431488, 3.1115967631340027, -125.42128491401672
 1.705270154715495E9, 455.48989540338516, -58.40227770805359, 75.15702950954437, -61.753228068351746
 1.7052701547162027E9, 452.6176522374153, -110.82071548700333, 272.8631007671356, -109.62394750118256
 1.7052701547162027E9, 379.3754515051842, -146.48440146446228, 82.337637424469, -140.97926872968674
 1.7052701547297883E9, 434.9054860472679, -75.39638310670853, 10.770911872386932, -75.15702950954437
 1.7052701547297883E9, 473.920122385025, -89.51824533939362, 241.98648673295975, -81.61957663297653
 1.7052701547458632E9, 405.2256399989128, -143.61215829849243, 170.18040758371353, -138.5857327580452
 1.7052701547458632E9, 397.3269712924957, -97.89562124013901, -26.328895688056946, -98.61368203163147
 1.7052701547463307E9, 476.0743047595024, -64.86482483148575, 170.65911477804184, -60.31710648536682
 1.7052701547463307E9, 427.96423172950745, -138.34637916088104, 241.02907234430313, -132.3625392317772
 1.7052701547762032E9, 387.0347666144371, -124.22451692819595, 4.787071943283081, -124.70322412252426
 1.7052701547762032E9, 466.02145367860794, -54.81197375059128, 78.50797986984253, -56.00874173641205
 1.7052701547768927E9, 459.5589065551758, -113.45360505580902, 271.66633278131485, -105.07622915506363
 1.7052701547768927E9, 389.42830258607864, -142.41539031267166, 85.68858778476715, -133.79866081476212
 1.7052701547776425E9, 442.804154753685, -66.06159281730652, 6.7019007205963135, -61.9925816655159
 1.7052701547776425E9, 489.47810620069504, -73.24220073223114, 248.4490338563919, -68.45512878894806
 1.7052701547898219E9, 410.73077273368835, -140.02185434103012, 182.62679463624954, -136.19219678640366
 1.7052701547898219E9, 410.73077273368835, -94.54467087984085, -22.49923813343048, -89.27889174222946
 1.7052701548057635E9, 485.16974145174026, -61.753228068351746, 175.44618672132492, -57.44486331939697
 1.7052701548057635E9, 430.357767701149, -140.73991513252258, 246.05549788475037, -129.49029606580734
 1.705270154806249E9, 393.97602093219757, -123.26710253953934, 15.797337412834167, -114.88972663879395
 1.705270154806249E9, 466.2608072757721, -56.966156125068665, 83.05569821596146, -58.64163130521774
 1.705270154820304E9, 462.43114972114563, -111.77812987565994, 278.6075870990753, -103.6401075720787
 1.705270154820304E9, 382.4870482683182, -149.11729103326797, 83.05569821596146, -148.15987664461136
 1.7052701548355715E9, 443.7615691423416, -68.93383598327637, 18.190873384475708, -73.00284713506699
 1.7052701548355715E9, 466.7395144701004, -95.74143886566162, 243.66196191310883, -92.39048850536346
 1.7052701548362377E9, 391.3431313633919, -165.1539820432663, 171.13782197237015, -151.0321198105812
 1.7052701548362377E9, 420.06556302309036, -93.58725649118423, -18.190873384475708, -89.99695253372192
 1.7052701548498657E9, 491.1535813808441, -72.52413994073868, 161.32432448863983, -63.18934965133667
 1.7052701548498657E9, 440.88932597637177, -137.38896477222443, 243.18325471878052, -117.04390901327133
 1.7052701548655555E9, 398.76309287548065, -123.9851633310318, 8.138022303581238, -114.41101944446564
 1.7052701548655555E9, 476.5530119538307, -52.41843777894974, 76.83250468969345, -51.46102339029312
 1.705270154866224E9, 463.1492105126381, -118.48003059625626, 259.9380065202713, -103.87946116924286
 1.705270154866224E9, 391.58248496055603, -152.22888779640198, 75.15702950954437, -140.26120793819427
 1.7052701548798685E9, 447.11251950263977, -77.31121188402176, 6.7019007205963135, -65.34353202581406
 1.7052701548798685E9, 491.39293497800827, -90.23630613088608, 236.0026468038559, -76.83250468969345
 1.70527015489593E9, 410.0127119421959, -155.8191917538643, 165.1539820432663, -148.63858383893967
 1.70527015489593E9, 416.95396625995636, -101.24657160043716, -27.286310076713562, -91.43307411670685
 1.7052701548963747E9, 495.4619461297989, -68.69448238611221, 165.39333564043045, -56.966156125068665
 1.7052701548963747E9, 431.7938892841339, -138.34637916088104, 234.08781802654266, -130.44771045446396
 1.7052701549098444E9, 395.8908497095108, -129.2509424686432, 7.65931510925293, -120.63421297073364
 1.7052701549098444E9, 470.808525621891, -65.34353202581406, 74.19961512088776, -55.53003454208374
 1.7052701549255009E9, 463.1492105126381, -116.56520181894302, 272.14503997564316, -100.5285108089447
 1.7052701549255009E9, 396.13020330667496, -146.00569427013397, 82.337637424469, -131.88383203744888
 1.7052701549262073E9, 442.804154753685, -73.9602615237236, 6.7019007205963135, -72.52413994073868
 1.7052701549262073E9, 478.46784073114395, -90.47565972805023, 237.43876838684082, -78.74733346700668
 1.705270154939822E9, 406.1830543875694, -156.53725254535675, 174.24941873550415, -137.86767196655273
 1.705270154939822E9, 406.9011151790619, -103.40075397491455, -27.286310076713562, -102.68269318342209
 1.7052701549555044E9, 479.9039623141289, -66.54030001163483, 170.41976118087769, -61.9925816655159
 1.7052701549555044E9, 426.5281101465225, -143.13345110416412, 237.19941478967667, -132.60189282894135
 1.705270154956232E9, 389.42830258607864, -130.2083568572998, -4.547718346118927, -122.78839534521103
 1.705270154956232E9, 467.696928858757, -64.38611763715744, 74.43896871805191, -59.359692096710205
 1.7052701549699316E9, 462.1917961239815, -121.11292016506195, 263.76766407489777, -104.83687555789948
 1.7052701549699316E9, 390.1463633775711, -156.2978989481926, 74.67832231521606, -142.1760367155075
 1.7052701549858997E9, 442.08609396219254, -74.91767591238022, 0.7180607914924622, -70.13060396909714
 1.7052701549858997E9, 483.73361986875534, -92.86919569969177, 232.17298924922943, -87.84277015924454
 1.7052701549862547E9, 411.4488335251808, -153.1863021850586, 172.09523636102676, -142.1760367155075
 1.7052701549862547E9, 415.51784467697144, -97.4169140458107, -27.525663673877716, -92.15113490819931
 1.7052701549998646E9, 482.2974982857704, -72.04543274641037, 159.8882029056549, -64.14676403999329
 1.7052701549998646E9, 440.41061878204346, -142.89409750699997, 237.67812198400497, -127.0967600941658
 1.7052701550158255E9, 396.8482640981674, -136.4315503835678, -2.3935359716415405, -118.71938419342041
 1.7052701550158255E9, 468.8936968445778, -73.00284713506699, 62.47128885984421, -54.572620153427124
 1.705270155016344E9, 455.48989540338516, -122.30968815088272, 266.6399072408676, -109.3845939040184
 1.705270155016344E9, 387.75282740592957, -144.56957268714905, 83.29505181312561, -134.27736800909042
 1.7052701550301528E9, 451.89959144592285, -77.0718582868576, 6.7019007205963135, -67.97642159461975
 1.7052701550301528E9, 491.6322885751724, -77.31121188402176, 250.84256982803345, -74.67832231521606
 1.7052701550455036E9, 411.20947992801666, -149.83535182476044, 176.16424751281738, -137.62831836938858
 1.7052701550455036E9, 422.21974539756775, -98.13497483730316, -28.004370868206024, -82.8163446187973
 1.705270155046194E9, 494.9832389354706, -58.162924110889435, 169.22299319505692, -52.17908418178558
 1.705270155046194E9, 438.25643640756607, -133.79866081476212, 234.80587881803513, -124.46387052536011
 1.7052701550601473E9, 393.97602093219757, -125.89999210834503, 11.010265469551086, -116.08649462461472
 1.7052701550601473E9, 471.5265864133835, -54.81197375059128, 83.53440541028976, -53.375852167606354
 1.705270155075634E9, 463.1492105126381, -121.83098095655441, 270.2302111983299, -106.51235073804855
 1.705270155075634E9, 388.2315346002579, -155.57983815670013, 73.00284713506699, -138.1070255637169
 1.7052701550763173E9, 446.63381230831146, -73.72090792655945, 6.9412543177604675, -61.27452087402344
 1.7052701550763173E9, 492.58970296382904, -81.85893023014069, 243.18325471878052, -75.39638310670853
 1.7052701551062138E9, 413.36366230249405, -148.15987664461136, 175.20683312416077, -139.30379354953766
 1.7052701551062138E9, 412.6456015110016, -96.69885325431824, -28.004370868206024, -94.3053172826767
 1.7052701551069655E9, 483.4942662715912, -61.9925816655159, 173.77071154117584, -63.18934965133667
 1.7052701551069655E9, 433.9480716586113, -138.34637916088104, 237.91747558116913, -128.53288167715073
 1.705270155107708E9, 397.80567848682404, -123.50645613670349, 4.787071943283081, -117.04390901327133
 1.705270155107708E9, 473.20206159353256, -59.83839929103851, 74.67832231521606, -55.290680944919586
 1.7052701551197927E9, 468.8936968445778, -111.06006908416748, 277.1714655160904, -96.93820685148239
 1.7052701551197927E9, 395.65149611234665, -141.2186223268509, 84.25246620178223, -136.19219678640366
 1.7052701551360202E9, 445.915751516819, -66.30094641447067, 11.488972663879395, -66.54030001163483
 1.7052701551360202E9, 487.32392382621765, -84.73117339611053, 242.46519392728806, -76.11444389820099
 1.7052701551364691E9, 415.99655187129974, -151.0321198105812, 174.9674795269966, -135.9528431892395
 1.7052701551364691E9, 420.7836238145828, -94.784024477005, -26.08954209089279, -85.68858778476715
 1.7052701551497986E9, 490.1961669921875, -61.753228068351746, 174.24941873550415, -57.20550972223282
 1.7052701551497986E9, 442.804154753685, -134.51672160625458, 237.91747558116913, -118.2406769990921
 1.7052701551655624E9, 400.91727524995804, -122.30968815088272, 5.983839929103851, -112.73554426431656
 1.7052701551655624E9, 473.4414151906967, -55.53003454208374, 80.66216224431992, -51.22166979312897
 1.7052701551663008E9, 470.3298184275627, -112.0174834728241, 280.52241587638855, -98.13497483730316
 1.7052701551663008E9, 398.28438568115234, -138.1070255637169, 84.01311260461807, -130.6870640516281
 1.7052701551798232E9, 448.5486410856247, -65.34353202581406, 12.925094246864319, -59.83839929103851
 1.7052701551798232E9, 498.81289649009705, -76.5931510925293, 258.5018849372864, -65.34353202581406
 1.7052701551958597E9, 416.47525906562805, -147.4418158531189, 182.3874410390854, -129.49029606580734
 1.7052701551958597E9, 424.85263496637344, -91.1937205195427, -19.626994967460632, -84.49181979894638
 1.7052701551962695E9, 494.7438853383064, -56.00874173641205, 182.14808744192123, -49.306841015815735
 1.7052701551962695E9, 432.2725964784622, -133.79866081476212, 240.31101155281067, -123.9851633310318
 1.7052701552098637E9, 388.470888197422, -125.66063851118088, 3.1115967631340027, -118.71938419342041
 1.7052701552098637E9, 470.56917202472687, -61.9925816655159, 74.43896871805191, -56.2480953335762
 1.7052701552257326E9, 459.5589065551758, -122.07033455371857, 264.96443206071854, -108.18782591819763
 1.7052701552257326E9, 387.0347666144371, -151.27147340774536, 70.13060396909714, -139.78250074386597
 1.705270155226322E9, 439.45320439338684, -86.16729497909546, -1.9148287773132324, -68.93383598327637
 1.705270155226322E9, 481.57943749427795, -93.10854929685593, 243.90131551027298, -84.01311260461807
 1.7052701552400112E9, 392.7792529463768, -172.57394355535507, 152.94694858789444, -156.7766061425209
 1.7052701552400112E9, 406.9011151790619, -120.63421297073364, -49.306841015815735, -101.48592519760132
 1.705270155255727E9, 489.95681339502335, -78.98668706417084, 155.57983815670013, -61.51387447118759
 1.705270155255727E9, 437.5383756160736, -149.35664463043213, 220.44466298818588, -128.77223527431488
 1.705270155256295E9, 401.87468963861465, -143.85151189565659, -9.334790289402008, -122.30968815088272
 1.705270155256295E9, 482.53685188293457, -65.1041784286499, 70.36995756626129, -50.26425540447235
 1.705270155269816E9, 467.9362824559212, -132.12318563461304, 256.10834896564484, -110.34200829267502
 1.705270155269816E9, 392.3005457520485, -160.12755650281906, 74.19961512088776, -143.85151189565659
 1.7052701552855935E9, 440.1712651848793, -94.3053172826767, -5.026425540447235, -80.18345504999161
 1.7052701552855935E9, 468.65434324741364, -118.48003059625626, 215.6575910449028, -97.89562124013901
 1.7052701552862413E9, 400.91727524995804, -177.121661901474, 151.51082700490952, -161.56367808580399
 1.7052701552862413E9, 401.6353360414505, -124.46387052536011, -45.95589065551758, -110.82071548700333
 1.7052701552998395E9, 467.9362824559212, -87.12470936775208, 153.6650093793869, -81.61957663297653
 1.7052701552998395E9, 422.21974539756775, -158.45208132266998, 219.2478950023651, -145.52698707580566
 1.7052701553320758E9, 387.0347666144371, -148.87793743610382, -13.164447844028473, -132.8412464261055
 1.7052701553320758E9, 468.8936968445778, -82.57699102163315, 56.966156125068665, -65.1041784286499
 1.7052701553326368E9, 446.3944587111473, -140.97926872968674, 247.4916194677353, -125.66063851118088
 1.7052701553326368E9, 382.247694671154, -171.8558827638626, 64.86482483148575, -156.2978989481926
 1.7052701553334105E9, 430.357767701149, -100.5285108089447, -13.403801441192627, -85.9279413819313
 1.7052701553334105E9, 457.64407777786255, -123.02774894237518, 212.5459942817688, -107.23041152954102
 1.7052701553341172E9, 389.6676561832428, -178.79713708162308, 151.75018060207367, -164.91462844610214
 1.7052701553341172E9, 400.91727524995804, -124.70322412252426, -51.46102339029312, -117.52261620759964
 1.7052701553452349E9, 470.09046483039856, -99.33174282312393, 142.41539031267166, -83.05569821596146
 1.7052701553452349E9, 417.911380648613, -167.30816441774368, 209.67375111579895, -152.22888779640198
 1.705270155359903E9, 378.41803711652756, -152.46824139356613, -20.345055758953094, -138.1070255637169
 1.705270155359903E9, 458.12278497219086, -82.57699102163315, 60.31710648536682, -72.04543274641037
 1.705270155375496E9, 444.71898353099823, -138.82508635520935, 258.2625313401222, -122.54904174804688
 1.705270155375496E9, 374.34902596473694, -164.19656765460968, 64.14676403999329, -155.8191917538643
 1.705270155376198E9, 427.246170938015, -99.81045001745224, -7.419961512088776, -91.43307411670685
 1.705270155376198E9, 465.3033928871155, -113.21425145864487, 223.07755255699158, -98.85303562879562
 1.705270155390211E9, 387.5134738087654, -176.88230830430984, 142.65474390983582, -166.1113964319229
 1.705270155390211E9, 387.5134738087654, -123.9851633310318, -48.34942662715912, -115.1290802359581
 1.7052701554057837E9, 471.5265864133835, -97.17756044864655, 138.1070255637169, -85.20988059043884
 1.7052701554057837E9, 411.20947992801666, -170.65911477804184, 204.1686183810234, -151.51082700490952
 1.7052701554062796E9, 375.30644035339355, -152.70759499073029, -18.669580578804016, -140.73991513252258
 1.7052701554062796E9, 450.7028234601021, -90.95436692237854, 57.20550972223282, -83.53440541028976
 1.7052701554197996E9, 442.3254475593567, -144.56957268714905, 245.57679069042206, -130.2083568572998
 1.7052701554197996E9, 372.912904381752, -180.47261226177216, 53.61520576477051, -159.4094957113266
 1.705270155435831E9, 428.2035853266716, -103.87946116924286, -16.03669100999832, -86.64600217342377
 1.705270155435831E9, 466.02145367860794, -115.1290802359581, 217.8117734193802, -99.57109642028809
 1.7052701554362404E9, 382.247694671154, -179.27584427595139, 149.35664463043213, -166.59010362625122
 1.7052701554362404E9, 389.6676561832428, -123.9851633310318, -48.34942662715912, -119.91615217924118
 1.7052701554499707E9, 463.38856410980225, -104.83687555789948, 139.78250074386597, -89.51824533939362
 1.7052701554499707E9, 404.02887201309204, -183.8235626220703, 204.1686183810234, -162.5210924744606
 1.7052701554655335E9, 360.22716373205185, -173.5313579440117, -33.988210797309875, -163.95721405744553
 1.7052701554655335E9, 429.40035331249237, -106.75170433521271, 40.450757920742035, -101.72527879476547
 1.7052701554662654E9, 428.92164611816406, -167.06881082057953, 222.83819895982742, -149.83535182476044
 1.7052701554662654E9, 357.8336277604103, -195.07318168878555, 39.73269712924957, -179.27584427595139
 1.7052701554800649E9, 410.73077273368835, -117.52261620759964, -28.483078062534332, -106.51235073804855
 1.7052701554800649E9, 446.63381230831146, -131.16577124595642, 216.1362982392311, -114.41101944446564
 1.7052701554963727E9, 370.5193684101105, -201.0570216178894, 126.6180528998375, -186.456452190876
 1.7052701554963727E9, 388.7102417945862, -123.9851633310318, -40.92946511507034, -119.19809138774872
 1.7052701554964254E9, 458.8408457636833, -97.4169140458107, 146.00569427013397, -93.34790289402008
 1.7052701554964254E9, 398.28438568115234, -174.01006513834, 216.85435903072357, -166.1113964319229
 1.705270155510052E9, 365.97165006399155, -154.62242376804352, -23.217298924922943, -147.4418158531189
 1.705270155510052E9, 439.692557990551, -94.54467087984085, 55.53003454208374, -82.337637424469
 1.7052701555254884E9, 425.33134216070175, -147.9205230474472, 249.88515543937683, -143.37280470132828
 1.7052701555254884E9, 360.22716373205185, -173.77071154117584, 62.47128885984421, -171.61652916669846
 1.7052701555261955E9, 411.68818712234497, -95.98079246282578, -5.026425540447235, -101.96463239192963
 1.7052701555261955E9, 456.9260169863701, -118.00132340192795, 224.0349669456482, -108.18782591819763
 1.705270155539878E9, 371.9554899930954, -184.30226981639862, 149.35664463043213, -173.77071154117584
 1.705270155539878E9, 378.41803711652756, -124.70322412252426, -50.98231619596481, -120.63421297073364
 1.7052701555548465E9, 455.48989540338516, -100.0498036146164, 146.24504786729813, -89.51824533939362
 1.7052701555548465E9, 397.3269712924957, -177.121661901474, 211.58857989311218, -161.80303168296814
 1.7052701555707889E9, 434.4267788529396, -103.40075397491455, 47.63136583566666, -94.06596368551254
 1.7052701555707889E9, 418.3900878429413, -153.42565578222275, 240.78971874713898, -148.15987664461136
 1.7052701555713828E9, 354.243323802948, -176.6429547071457, 50.74296259880066, -172.33458995819092
 1.7052701555713828E9, 420.3049166202545, -98.85303562879562, -6.9412543177604675, -90.71501332521439
 1.705270155584906E9, 450.4634698629379, -116.32584822177887, 222.35949176549911, -108.42717951536179
 1.705270155584906E9, 375.0670867562294, -177.36101549863815, 152.22888779640198, -168.98363959789276
 1.7052701556004984E9, 392.3005457520485, -121.11292016506195, -50.0249018073082, -115.84714102745056
 1.7052701556004984E9, 468.1756360530853, -93.10854929685593, 148.87793743610382, -75.87509030103683
 1.7052701556012044E9, 404.50757920742035, -164.675274848938, 213.98211586475372, -153.42565578222275
 1.7052701556012044E9, 362.6206997036934, -155.34048455953598, -17.7121661901474, -148.87793743610382
 1.7052701556148732E9, 441.1286795735359, -88.32147735357285, 61.51387447118759, -81.14086943864822
 1.7052701556148732E9, 430.8364748954773, -149.83535182476044, 246.53420507907867, -140.73991513252258
 1.7052701556304803E9, 366.689710855484, -174.24941873550415, 64.6254712343216, -165.1539820432663
 1.7052701556304803E9, 415.99655187129974, -101.96463239192963, -11.967679858207703, -97.4169140458107
 1.705270155631219E9, 455.01118820905685, -119.67679858207703, 227.86462450027466, -106.2729971408844
 1.705270155631219E9, 390.6250705718994, -177.121661901474, 152.94694858789444, -162.0423852801323
 1.7052701556615384E9, 396.60891050100327, -116.32584822177887, -43.32300108671188, -106.03364354372025
 1.7052701556615384E9, 466.02145367860794, -88.560830950737, 149.35664463043213, -78.50797986984253
 1.7052701556621113E9, 416.2359054684639, -158.69143491983414, 212.78534787893295, -147.20246225595474
 1.7052701556621113E9, 372.67355078458786, -147.4418158531189, -23.217298924922943, -134.75607520341873
 1.7052701556627123E9, 453.0963594317436, -79.7047478556633, 57.68421691656113, -73.00284713506699
 1.7052701556627123E9, 445.915751516819, -128.05417448282242, 254.91158097982407, -118.71938419342041
 1.7052701556749032E9, 387.0347666144371, -152.94694858789444, 71.56672555208206, -143.85151189565659
 1.7052701556749032E9, 433.469364464283, -87.12470936775208, -5.265779137611389, -78.98668706417084
 1.7052701556904967E9, 470.09046483039856, -101.48592519760132, 228.1039780974388, -88.08212375640869
 1.7052701556904967E9, 394.69408172369003, -170.65911477804184, 148.87793743610382, -156.05854535102844
 1.705270155691247E9, 402.5927504301071, -113.93231225013733, -37.578514754772186, -106.51235073804855
 1.705270155691247E9, 477.031719148159, -85.9279413819313, 157.49466693401337, -71.32737195491791
 1.7052701557048392E9, 417.911380648613, -156.05854535102844, 224.5136741399765, -141.45797592401505
 1.7052701557048392E9, 382.72640186548233, -143.61215829849243, -14.361215829849243, -134.27736800909042
 1.705270155720708E9, 461.473735332489, -69.17318958044052, 72.28478634357452, -66.06159281730652
 1.705270155720708E9, 449.027348279953, -128.29352807998657, 265.92184644937515, -116.56520181894302
 1.7052701557213075E9, 383.9231698513031, -157.97337412834167, 73.72090792655945, -150.31405901908875
 1.7052701557213075E9, 434.4267788529396, -81.61957663297653, 5.744486331939697, -77.55056548118591
 1.7052701557351482E9, 461.23438173532486, -100.5285108089447, 236.4813539981842, -97.65626764297485
 1.7052701557351482E9, 385.11993783712387, -173.5313579440117, 155.8191917538643, -157.97337412834167
 1.7052701557506592E9, 409.29465115070343, -110.82071548700333, -33.74885720014572, -96.22014605998993
 1.7052701557506592E9, 488.99939900636673, -68.93383598327637, 173.5313579440117, -60.31710648536682
 1.7052701557512798E9, 425.33134216070175, -156.05854535102844, 226.18914932012558, -142.89409750699997
 1.7052701557512798E9, 392.7792529463768, -126.85740649700165, 5.744486331939697, -120.63421297073364
 1.7052701557652676E9, 467.9362824559212, -61.27452087402344, 81.38022303581238, -54.81197375059128
 1.7052701557652676E9, 455.01118820905685, -124.94257771968842, 263.76766407489777, -118.2406769990921
 1.7052701557804968E9, 385.359291434288, -154.38307017087936, 76.11444389820099, -147.9205230474472
 1.7052701557804968E9, 435.14483964443207, -81.61957663297653, 3.829657554626465, -78.26862627267838
 1.7052701557812395E9, 470.808525621891, -101.48592519760132, 235.04523241519928, -88.80018454790115
 1.7052701557812395E9, 394.4547281265259, -169.70170038938522, 164.675274848938, -156.7766061425209
 1.705270155811443E9, 399.0024464726448, -114.65037304162979, -35.90303957462311, -109.3845939040184
 1.705270155811443E9, 477.98913353681564, -85.68858778476715, 157.2553133368492, -71.56672555208206
 1.7052701558121545E9, 415.7571982741356, -160.36691009998322, 216.1362982392311, -152.70759499073029
 1.7052701558121545E9, 391.8218385577202, -138.34637916088104, -16.03669100999832, -131.64447844028473
 1.705270155812756E9, 478.46784073114395, -76.83250468969345, 70.13060396909714, -62.231935262680054
 1.705270155812756E9, 473.920122385025, -119.19809138774872, 257.06576335430145, -97.65626764297485
 1.7052701558248158E9, 418.15073424577713, -132.3625392317772, 93.34790289402008, -123.74580973386765
 1.7052701558248158E9, 469.61175763607025, -80.90151584148407, 17.233458995819092, -56.966156125068665
 1.705270155840633E9, 525.6204993724823, -91.672427713871, 230.7368676662445, -62.71064245700836
 1.705270155840633E9, 469.8511112332344, -119.91615217924118, 192.91899931430817, -99.81045001745224
 1.7052701558412137E9, 483.9729734659195, -53.85455936193466, 8.616729497909546, -38.5359291434288
 1.7052701558412137E9, 569.6615612506866, -26.807602882385254, 202.73249679803848, 1.6754751801490784
 1.7052701558550453E9, 514.8495875000954, -98.37432843446732, 267.3579680323601, -67.97642159461975
 1.7052701558550453E9, 494.9832389354706, -67.49771440029144, 52.41843777894974, -44.041061878204346
 1.7052701558704555E9, 563.917074918747, -4.069011151790619, 120.63421297073364, 14.361215829849243
 1.7052701558704555E9, 562.0022461414337, -55.05132734775543, 317.1435162425041, -34.70627158880234
 1.7052701558855107E9, 491.1535813808441, -90.95436692237854, 121.3522737622261, -58.64163130521774
 1.7052701558855107E9, 537.8275328278542, -17.472812592983246, 62.47128885984421, 4.547718346118927
 1.705270155886395E9, 571.5763900279999, -32.3127356171608, 293.44751012325287, -4.308364748954773
 1.705270155886395E9, 479.6646087169647, -116.80455541610718, 195.3125352859497, -83.77375900745392
 1.7052701559005294E9, 484.69103425741196, -53.85455936193466, 14.121862232685089, -32.55208921432495
 1.7052701559005294E9, 543.5720191597939, -27.525663673877716, 214.22146946191788, -18.190873384475708
 1.7052701559012444E9, 483.0155590772629, -103.40075397491455, 265.2037856578827, -84.01311260461807
 1.7052701559012444E9, 431.7938892841339, -89.75759893655777, 36.14239317178726, -79.46539425849915
 1.7052701559154751E9, 508.8657475709915, -22.97794532775879, 109.62394750118256, -19.38764137029648
 1.7052701559154751E9, 488.5206918120384, -89.99695253372192, 295.8410460948944, -74.19961512088776
 1.70527015593079E9, 421.022977411747, -109.14524030685425, 122.30968815088272, -103.6401075720787
 1.70527015593079E9, 463.86727130413055, -50.74296259880066, 43.80170828104019, -41.1688187122345
 1.705270155931353E9, 503.360614836216, -46.434597849845886, 300.1494108438492, -50.74296259880066
 1.705270155931353E9, 421.022977411747, -124.46387052536011, 194.11576730012894, -116.08649462461472
 1.705270155944812E9, 439.45320439338684, -62.231935262680054, 9.095436692237854, -48.82813382148743
 1.705270155944812E9, 502.40320044755936, -34.22756439447403, 211.10987269878387, -33.988210797309875
 1.7052701559605281E9, 444.4796299338341, -115.60778743028641, 267.59732162952423, -106.03364354372025
 1.7052701559605281E9, 400.91727524995804, -103.1614003777504, 30.876614034175873, -97.4169140458107
 1.7052701559611948E9, 476.5530119538307, -45.237829864025116, 105.79428994655609, -38.5359291434288
 1.7052701559611948E9, 463.6279177069664, -100.76786440610886, 291.7720349431038, -89.27889174222946
 1.7052701559749086E9, 394.69408172369003, -133.3199536204338, 97.65626764297485, -124.46387052536011
 1.7052701559749086E9, 438.0170828104019, -68.69448238611221, 22.97794532775879, -64.14676403999329
 1.7052701559907727E9, 475.1168903708458, -88.80018454790115, 261.3741281032562, -79.94410145282745
 1.7052701559907727E9, 397.3269712924957, -145.76634067296982, 181.43002665042877, -138.34637916088104
 1.705270155991352E9, 397.80567848682404, -103.1614003777504, -21.30247014760971, -101.96463239192963
 1.705270155991352E9, 476.5530119538307, -66.30094641447067, 176.40360110998154, -55.769388139247894
 1.7052701560048268E9, 407.3798223733902, -150.79276621341705, 233.3697572350502, -141.2186223268509
 1.7052701560048268E9, 373.87031877040863, -129.7296496629715, 6.223193526268005, -126.85740649700165
 1.7052701560205612E9, 449.9847626686096, -69.41254317760468, 86.16729497909546, -67.25836080312729
 1.7052701560205612E9, 431.55453568696976, -136.67090398073196, 262.81024968624115, -127.81482088565826
 1.7052701560212824E9, 365.49294286966324, -162.28173887729645, 68.69448238611221, -160.84561729431152
 1.7052701560212824E9, 425.33134216070175, -83.77375900745392, 4.787071943283081, -79.94410145282745
 1.705270156034832E9, 451.6602378487587, -107.23041152954102, 230.01880687475204, -92.39048850536346
 1.705270156034832E9, 383.68381625413895, -164.43592125177383, 162.5210924744606, -149.11729103326797
 1.705270156050544E9, 404.50757920742035, -108.9058867096901, -25.37148129940033, -96.45949965715408
 1.705270156050544E9, 478.2284871339798, -77.55056548118591, 173.77071154117584, -61.9925816655159
 1.7052701560512404E9, 428.6822925209999, -156.05854535102844, 234.56652522087097, -132.8412464261055
 1.7052701560512404E9, 395.17278891801834, -127.57546728849411, -1.1967679858207703, -120.39485937356949
 1.7052701560651655E9, 482.53685188293457, -49.78554821014404, 94.54467087984085, -37.578514754772186
 1.7052701560651655E9, 486.6058630347252, -112.4961906671524, 288.89979177713394, -94.3053172826767
 1.705270156080917E9, 420.3049166202545, -127.33611369132996, 106.2729971408844, -114.65037304162979
 1.705270156080917E9, 498.81289649009705, -29.919199645519257, 48.34942662715912, -20.58440935611725
 1.7052701560813732E9, 533.5191680788994, -49.306841015815735, 278.128879904747, -34.94562518596649
 1.7052701560813732E9, 481.3400838971138, -95.02337807416916, 216.85435903072357, -75.39638310670853
 1.7052701560948405E9, 506.71156519651413, -33.03079640865326, 28.96178525686264, -11.010265469551086
 1.7052701560948405E9, 597.6659321188927, 15.31863021850586, 244.3800227046013, 35.4243323802948
 1.7052701561105175E9, 550.5132734775543, -46.913305044174194, 316.90416264533997, -26.807602882385254
 1.7052701561105175E9, 515.3282946944237, -32.55208921432495, 80.66216224431992, -7.419961512088776
 1.705270156111253E9, 579.2357051372528, 22.259884536266327, 163.23915326595306, 36.62110036611557
 1.705270156111253E9, 559.1300029754639, -36.860453963279724, 339.6427543759346, -23.69600611925125
 1.705270156124986E9, 474.1594759821892, -87.60341656208038, 130.6870640516281, -67.49771440029144
 1.705270156124986E9, 509.82316195964813, -26.5682492852211, 39.97205072641373, -15.31863021850586
 1.7052701561407576E9, 541.1784831881523, -43.56235468387604, 288.1817309856415, -26.328895688056946
 1.7052701561407576E9, 454.05377382040024, -108.66653311252594, 208.71633672714233, -94.06596368551254
 1.705270156141336E9, 453.57506662607193, -62.71064245700836, 15.797337412834167, -54.81197375059128
 1.705270156141336E9, 511.0199299454689, -52.65779137611389, 192.2009385228157, -40.450757920742035
 1.7052701561550825E9, 447.5912266969681, -130.44771045446396, 245.3374370932579, -114.41101944446564
 1.7052701561550825E9, 395.8908497095108, -121.83098095655441, 7.419961512088776, -108.9058867096901
 1.7052701561707034E9, 462.1917961239815, -67.25836080312729, 76.11444389820099, -61.753228068351746
 1.7052701561707034E9, 451.1815306544304, -129.7296496629715, 263.76766407489777, -118.48003059625626
 1.7052701561713002E9, 372.912904381752, -156.7766061425209, 66.30094641447067, -146.00569427013397
 1.7052701561713002E9, 424.85263496637344, -100.0498036146164, -6.9412543177604675, -84.49181979894638
 1.7052701561851585E9, 455.01118820905685, -120.39485937356949, 221.16272377967834, -103.87946116924286
 1.7052701561851585E9, 371.9554899930954, -183.344855427742, 140.73991513252258, -168.02622520923615
 1.7052701562170007E9, 381.52963387966156, -132.8412464261055, -56.00874173641205, -121.3522737622261
 1.7052701562170007E9, 456.2079561948776, -98.37432843446732, 145.04827988147736, -83.53440541028976
 1.705270156217666E9, 395.8908497095108, -179.27584427595139, 200.33896082639694, -159.8882029056549
 1.705270156217666E9, 350.1743126511574, -170.898468375206, -39.49334353208542, -155.8191917538643
 1.7052701562184725E9, 425.5706957578659, -100.28915721178055, 50.98231619596481, -93.10854929685593
 1.7052701562184725E9, 408.3372367620468, -159.17014211416245, 234.56652522087097, -145.2876334786415
 1.7052701562192442E9, 344.908533513546, -182.62679463624954, 39.253989934921265, -176.16424751281738
 1.7052701562192442E9, 396.3695569038391, -105.55493634939194, -21.78117734193802, -107.23041152954102
 1.7052701562298555E9, 433.9480716586113, -131.40512484312057, 217.09371262788773, -118.71938419342041
 1.7052701562298555E9, 351.37108063697815, -204.64732557535172, 129.01158887147903, -189.80740255117416
 1.7052701562451074E9, 357.11556696891785, -150.0747054219246, -73.24220073223114, -139.5431471467018
 1.7052701562451074E9, 422.69845259189606, -119.43744498491287, 121.83098095655441, -109.62394750118256
 1.7052701562608016E9, 362.86005330085754, -197.22736406326294, 186.456452190876, -188.6106345653534
 1.7052701562608016E9, 327.43572092056274, -182.3874410390854, -49.78554821014404, -172.57394355535507
 1.7052701562614095E9, 412.1668943166733, -112.4961906671524, 36.860453963279724, -107.94847232103348
 1.7052701562614095E9, 402.1140432357788, -167.54751801490784, 227.38591730594635, -157.73402053117752
 1.7052701562748797E9, 346.3446550965309, -183.10550183057785, 45.716537058353424, -174.24941873550415
 1.7052701562748797E9, 398.28438568115234, -112.4961906671524, -19.38764137029648, -106.2729971408844
 1.7052701562909815E9, 433.9480716586113, -128.29352807998657, 210.63116550445557, -123.50645613670349
 1.7052701562909815E9, 364.29617488384247, -184.30226981639862, 139.78250074386597, -180.47261226177216
 1.7052701562913637E9, 373.3916115760803, -133.55930721759796, -55.53003454208374, -128.53288167715073
 1.7052701562913637E9, 442.56480115652084, -97.4169140458107, 148.3992302417755, -94.784024477005
 1.7052701563050451E9, 394.4547281265259, -163.71786046028137, 213.0247014760971, -159.17014211416245
 1.7052701563050451E9, 360.70587092638016, -150.31405901908875, -21.30247014760971, -145.52698707580566
 1.705270156336887E9, 430.8364748954773, -96.22014605998993, 54.33326655626297, -94.06596368551254
 1.705270156336887E9, 410.73077273368835, -160.60626369714737, 234.08781802654266, -148.3992302417755
 1.7052701563376095E9, 345.8659479022026, -180.95131945610046, 40.69011151790619, -178.07907629013062
 1.7052701563376095E9, 407.3798223733902, -95.50208526849747, -12.207033455371857, -101.72527879476547
 1.7052701563384E9, 444.9583371281624, -117.7619698047638, 219.00854140520096, -111.06006908416748
 1.7052701563384E9, 367.40777164697647, -177.36101549863815, 144.3302190899849, -171.61652916669846
 1.705270156339148E9, 381.2902802824974, -124.46387052536011, -46.67395144701004, -122.54904174804688
 1.705270156339148E9, 449.9847626686096, -96.69885325431824, 151.0321198105812, -95.50208526849747
 1.7052701563499165E9, 398.76309287548065, -167.54751801490784, 215.6575910449028, -162.28173887729645
 1.7052701563499165E9, 364.5355284810066, -157.2553133368492, -37.09980756044388, -156.05854535102844
 1.7052701563654177E9, 441.6073867678642, -90.47565972805023, 58.40227770805359, -83.53440541028976
 1.7052701563654177E9, 428.92164611816406, -153.90436297655106, 236.4813539981842, -138.34637916088104
 1.7052701563805327E9, 348.73819106817245, -179.27584427595139, 38.057221949100494, -173.05265074968338
 1.7052701563805327E9, 399.0024464726448, -109.3845939040184, -19.866348564624786, -112.0174834728241
 1.7052701563812296E9, 436.34160763025284, -130.92641764879227, 206.8015079498291, -124.46387052536011
 1.7052701563812296E9, 363.81746768951416, -190.04675614833832, 124.46387052536011, -180.95131945610046
 1.7052701563950615E9, 373.15225797891617, -136.4315503835678, -55.769388139247894, -141.6973295211792
 1.7052701563950615E9, 444.4796299338341, -105.31558275222778, 149.59599822759628, -102.68269318342209
 1.705270156410742E9, 388.470888197422, -181.43002665042877, 203.92926478385925, -168.7442860007286
 1.705270156410742E9, 364.0568212866783, -155.8191917538643, -25.610834896564484, -151.51082700490952
 1.7052701564112751E9, 440.6499723792076, -91.672427713871, 60.31710648536682, -88.08212375640869
 1.7052701564112751E9, 420.06556302309036, -152.70759499073029, 246.29485148191452, -144.3302190899849
 1.705270156441275E9, 360.22716373205185, -177.36101549863815, 53.85455936193466, -162.76044607162476
 1.705270156441275E9, 417.43267345428467, -102.20398598909378, -7.65931510925293, -95.26273167133331
 1.705270156441998E9, 457.64407777786255, -122.07033455371857, 222.12013816833496, -108.66653311252594
 1.705270156441998E9, 376.26385474205017, -176.88230830430984, 143.85151189565659, -169.22299319505692
 1.7052701564426868E9, 382.4870482683182, -121.11292016506195, -43.80170828104019, -117.7619698047638
 1.7052701564426868E9, 448.30928748846054, -101.48592519760132, 148.87793743610382, -105.55493634939194
 1.7052701564550467E9, 392.3005457520485, -179.7545514702797, 193.63706010580063, -167.06881082057953
 1.7052701564550467E9, 378.6573907136917, -143.37280470132828, -15.079276621341705, -138.1070255637169
 1.7052701564706535E9, 468.8936968445778, -83.53440541028976, 64.6254712343216, -69.65189677476883
 1.7052701564706535E9, 458.362138569355, -132.12318563461304, 256.10834896564484, -116.56520181894302
 1.7052701564714587E9, 391.1037777662277, -167.786871612072, 45.47718346118927, -151.98953419923782
