 Timestamp, EXG Channel 0, EXG Channel 1, EXG Channel 2, EXG Channel 3
 1.706388049076652E9, -607.479429602623, -632.372203707695, -464.585332095623, -331.02602487802505
 1.706388049076652E9, -552.6674558520317, -640.7495796084404, -476.5530119538307, -332.70150005817413
 1.7063880490912113E9, -467.696928858757, -631.8934965133667, -502.88190764188766, -232.41234284639359
 1.7063880490912113E9, -571.3370364308357, -627.5851317644119, -470.56917202472687, -286.5062558054924
 1.706388049105687E9, -597.6659321188927, -651.2811378836632, -467.2182216644287, -352.5678486227989
 1.706388049105687E9, -478.7071943283081, -638.1166900396347, -495.70129972696304, -264.2463712692261
 1.7063880491065042E9, -534.476582467556, -641.2282868027687, -481.3400838971138, -253.236105799675
 1.7063880491065042E9, -619.2077558636665, -645.0579443573952, -468.65434324741364, -358.3123349547386
 1.7063880491200123E9, -508.3870403766632, -644.3398835659027, -494.7438853383064, -304.2184219956398
 1.7063880491200123E9, -476.7923655509949, -626.3883637785912, -485.4090950489044, -228.1039780974388
 1.7063880491356978E9, -591.921445786953, -623.9948278069496, -455.01118820905685, -319.53705221414566
 1.7063880491356978E9, -544.0507263541222, -635.7231540679932, -468.4149896502495, -327.91442811489105
 1.7063880491364284E9, -446.8731659054756, -620.8832310438156, -488.5206918120384, -236.0026468038559
 1.7063880491364284E9, -542.3752511739731, -605.8039544224739, -448.30928748846054, -268.794089615345
 1.706388049150395E9, -562.480953335762, -621.3619382381439, -457.4047241806984, -348.73819106817245
 1.706388049150395E9, -449.74540907144547, -623.2767670154572, -488.28133821487427, -255.62964177131653
 1.7063880491657035E9, -520.1153666377068, -632.1328501105309, -479.9039623141289, -258.2625313401222
 1.7063880491657035E9, -599.82011449337, -632.1328501105309, -454.05377382040024, -347.78077667951584
 1.7063880491664405E9, -489.7174597978592, -639.3134580254555, -480.62202310562134, -294.64427810907364
 1.7063880491664405E9, -464.82468569278717, -617.5322806835175, -486.1271558403969, -229.7794532775879
 1.7063880491803343E9, -596.4691641330719, -628.5425461530685, -461.71308892965317, -337.72792559862137
 1.7063880491803343E9, -535.1946432590485, -633.0902644991875, -468.1756360530853, -328.1537817120552
 1.7063880491959217E9, -473.20206159353256, -647.2121267318726, -506.71156519651413, -248.92774105072021
 1.7063880491959217E9, -573.0125116109848, -642.1857011914253, -489.7174597978592, -312.1170907020569
 1.706388049196509E9, -545.9655551314354, -602.4530040621758, -441.3680331707001, -335.573743224144
 1.706388049196509E9, -423.6558669805527, -607.9581367969513, -469.8511112332344, -244.8587298989296
 1.7063880492100468E9, -470.808525621891, -593.8362745642662, -450.94217705726624, -242.2258403301239
 1.7063880492100468E9, -545.0081407427788, -592.6395065784454, -428.6822925209999, -340.83952236175537
 1.7063880492257168E9, -422.9378061890602, -588.0917882323265, -447.11251950263977, -277.88952630758286
 1.7063880492257168E9, -395.65149611234665, -569.6615612506866, -446.8731659054756, -216.85435903072357
 1.7063880492264135E9, -521.3121346235275, -575.6454011797905, -420.54427021741867, -315.2286874651909
 1.7063880492264135E9, -454.05377382040024, -573.7305724024773, -431.3151820898056, -320.4944666028023
 1.7063880492400632E9, -373.3916115760803, -576.1241083741188, -464.585332095623, -230.49751406908035
 1.7063880492400632E9, -477.98913353681564, -564.6351357102394, -432.2725964784622, -287.463670194149
 1.7063880492557456E9, -498.33418929576874, -582.586655497551, -430.59712129831314, -353.0465558171272
 1.7063880492557456E9, -374.5883795619011, -581.8685947060585, -461.71308892965317, -256.10834896564484
 1.7063880492564614E9, -431.07582849264145, -570.6189756393433, -450.2241162657738, -252.03933781385422
 1.7063880492564614E9, -517.4824770689011, -577.5602299571037, -427.246170938015, -348.9775446653366
 1.706388049270007E9, -407.61917597055435, -583.3047162890434, -458.8408457636833, -302.7823004126549
 1.706388049270007E9, -398.28438568115234, -578.038937151432, -464.34597849845886, -239.5929507613182
 1.7063880492858908E9, -509.82316195964813, -576.363461971283, -428.2035853266716, -324.80283135175705
 1.7063880492858908E9, -462.6705033183098, -593.8362745642662, -452.138945043087, -339.6427543759346
 1.7063880492865124E9, -385.11993783712387, -588.5704954266548, -478.2284871339798, -240.55036514997482
 1.7063880492865124E9, -493.3077637553215, -585.698252260685, -453.8144202232361, -305.1758363842964
 1.706388049300096E9, -516.0463554859161, -600.0594680905342, -455.96860259771347, -366.689710855484
 1.706388049300096E9, -402.1140432357788, -604.367832839489, -491.8716421723366, -277.1714655160904
 1.7063880493157523E9, -473.20206159353256, -605.5646008253098, -478.94654792547226, -276.2140511274338
 1.7063880493157523E9, -548.8377982974052, -600.7775288820267, -451.6602378487587, -364.29617488384247
 1.7063880493164203E9, -433.70871806144714, -600.0594680905342, -466.50016087293625, -303.7397148013115
 1.7063880493164203E9, -419.3475022315979, -588.5704954266548, -464.34597849845886, -234.08781802654266
 1.706388049330982E9, -541.1784831881523, -593.596920967102, -443.7615691423416, -335.3343896269798
 1.706388049330982E9, -482.7762054800987, -601.9742968678474, -455.96860259771347, -336.0524504184723
 1.7063880493460665E9, -399.72050726413727, -599.82011449337, -483.25491267442703, -242.46519392728806
 1.7063880493460665E9, -515.807001888752, -607.9581367969513, -461.23438173532486, -307.09066516160965
 1.7063880493469377E9, -534.476582467556, -612.5058551430702, -450.4634698629379, -357.354920566082
 1.7063880493469377E9, -412.1668943166733, -605.3252472281456, -484.69103425741196, -269.2727968096733
 1.7063880493602226E9, -475.35624396800995, -597.4265785217285, -470.808525621891, -261.13477450609207
 1.7063880493602226E9, -563.1990141272545, -619.4471094608307, -450.7028234601021, -365.01423567533493
 1.7063880493757527E9, -446.8731659054756, -613.4632695317268, -473.20206159353256, -302.5429468154907
 1.7063880493757527E9, -428.92164611816406, -600.0594680905342, -480.62202310562134, -243.66196191310883
 1.7063880493765025E9, -552.9068094491959, -603.6497720479965, -450.94217705726624, -336.5311576128006
 1.7063880493765025E9, -496.8980677127838, -615.1387447118759, -465.3033928871155, -339.1640471816063
 1.706388049389984E9, -408.8159439563751, -604.367832839489, -483.4942662715912, -239.83230435848236
 1.706388049389984E9, -504.07867562770844, -589.5279098153114, -449.26670187711716, -287.70302379131317
 1.7063880494057643E9, -509.583808362484, -595.2723961472511, -439.692557990551, -346.3446550965309
 1.7063880494057643E9, -400.91727524995804, -602.4530040621758, -482.2974982857704, -265.92184644937515
 1.7063880494064307E9, -475.83495116233826, -596.708517730236, -467.2182216644287, -255.39028817415237
 1.7063880494064307E9, -559.8480637669563, -614.8993911147118, -454.7718346118927, -365.01423567533493
 1.706388049420248E9, -450.94217705726624, -613.702623128891, -479.6646087169647, -306.8513115644455
 1.706388049420248E9, -436.580961227417, -599.1020537018776, -482.05814468860626, -240.07165795564651
 1.7063880494359856E9, -556.0184062123299, -607.0007224082947, -460.9950281381607, -348.02013027668
 1.7063880494359856E9, -505.2754436135292, -627.1064245700836, -483.25491267442703, -348.25948387384415
 1.7063880494365563E9, -422.69845259189606, -616.5748662948608, -502.40320044755936, -257.7838241457939
 1.7063880494365563E9, -524.6630849838257, -603.4104184508324, -466.50016087293625, -299.6707036495209
 1.7063880494503984E9, -530.6469249129295, -601.7349432706833, -449.26670187711716, -349.21689826250076
 1.7063880494503984E9, -423.4165133833885, -608.1974903941154, -483.73361986875534, -255.62964177131653
 1.70638804946576E9, -477.2710727453232, -596.708517730236, -470.56917202472687, -257.06576335430145
 1.70638804946576E9, -567.2680252790451, -611.3090871572495, -452.85700583457947, -357.59427416324615
 1.7063880494665203E9, -463.6279177069664, -621.6012918353081, -483.73361986875534, -306.3726043701172
 1.7063880494665203E9, -447.5912266969681, -602.9317112565041, -480.62202310562134, -236.72070759534836
 1.7063880494803753E9, -566.0712572932243, -607.2400760054588, -457.16537058353424, -342.51499754190445
 1.7063880494803753E9, -511.9773443341255, -623.9948278069496, -476.5530119538307, -336.0524504184723
 1.7063880495122871E9, -434.9054860472679, -618.4896950721741, -498.5735428929329, -244.61937630176544
 1.7063880495122871E9, -538.7849472165108, -610.8303799629211, -470.09046483039856, -301.5855324268341
 1.7063880495129185E9, -552.9068094491959, -618.4896950721741, -453.0963594317436, -355.2007381916046
 1.7063880495129185E9, -434.9054860472679, -620.4045238494873, -490.91422778367996, -265.92184644937515
 1.7063880495137749E9, -481.57943749427795, -598.8627001047134, -465.7821000814438, -251.5606306195259
 1.7063880495137749E9, -563.4383677244186, -608.6761975884438, -451.1815306544304, -354.48267740011215
 1.706388049514462E9, -455.96860259771347, -615.3780983090401, -481.3400838971138, -295.8410460948944
 1.706388049514462E9, -457.8834313750267, -618.9684022665024, -495.4619461297989, -253.7148129940033
 1.70638804952508E9, -573.9699259996414, -622.0799990296364, -460.0376137495041, -342.2756439447403
 1.70638804952508E9, -505.03609001636505, -620.4045238494873, -469.3724040389061, -341.0788759589195
 1.706388049540286E9, -419.8262094259262, -614.8993911147118, -490.1961669921875, -241.98648673295975
 1.706388049540286E9, -536.1520576477051, -616.5748662948608, -470.808525621891, -308.5267867445946
 1.7063880495560086E9, -552.1887486577034, -633.8083252906799, -474.87753677368164, -379.3754515051842
 1.7063880495560086E9, -434.4267788529396, -633.3296180963516, -508.3870403766632, -287.22431659698486
 1.7063880495565052E9, -488.7600454092026, -617.5322806835175, -490.6748741865158, -279.8043550848961
 1.7063880495565052E9, -574.6879867911339, -627.8244853615761, -474.6381831765175, -385.11993783712387
 1.70638804957047E9, -467.696928858757, -638.595397233963, -493.3077637553215, -319.2976986169815
 1.70638804957047E9, -453.3357130289078, -620.8832310438156, -500.0096644759178, -257.7838241457939
 1.706388049586193E9, -567.5073788762093, -619.2077558636665, -466.7395144701004, -354.48267740011215
 1.706388049586193E9, -511.25928354263306, -631.8934965133667, -481.8187910914421, -353.0465558171272
 1.7063880495866344E9, -438.7351436018944, -628.7818997502327, -510.0625155568123, -263.76766407489777
 1.7063880495866344E9, -554.3429310321808, -629.7393141388893, -485.4090950489044, -321.4518809914589
 1.7063880496000662E9, -566.3106108903885, -638.595397233963, -489.2387526035309, -380.8115730881691
 1.7063880496000662E9, -446.63381230831146, -639.7921652197838, -509.82316195964813, -279.56500148773193
 1.7063880496154869E9, -501.6851396560669, -625.4309493899345, -480.3826695084572, -265.92184644937515
 1.7063880496154869E9, -591.921445786953, -647.2121267318726, -476.5530119538307, -373.3916115760803
 1.706388049630927E9, -472.72335439920425, -640.5102260112762, -502.6425540447235, -313.0745050907135
 1.706388049630927E9, -463.6279177069664, -631.6541429162025, -496.18000692129135, -245.09808349609375
 1.7063880496314716E9, -580.9111803174019, -631.1754357218742, -472.9627079963684, -343.2330583333969
 1.7063880496314716E9, -523.7056705951691, -637.6379828453064, -484.4516806602478, -343.7117655277252
 1.7063880496456845E9, -435.3841932415962, -622.0799990296364, -495.22259253263474, -239.1142435669899
 1.7063880496456845E9, -545.9655551314354, -619.2077558636665, -480.8613767027855, -304.45777559280396
 1.7063880496463833E9, -551.4706878662109, -631.8934965133667, -467.45757526159286, -358.07298135757446
 1.7063880496463833E9, -437.0596684217453, -629.260606944561, -502.40320044755936, -260.65606731176376
 1.7063880496604085E9, -502.1638468503952, -618.9684022665024, -487.5632774233818, -264.4857248663902
 1.7063880496604085E9, -577.0815227627754, -623.9948278069496, -469.3724040389061, -361.18457812070847
 1.706388049676128E9, -468.8936968445778, -630.4573749303818, -494.5045317411423, -301.34617882966995
 1.706388049676128E9, -475.35624396800995, -637.6379828453064, -504.3180292248726, -250.84256982803345
 1.7063880496765091E9, -586.6556666493416, -632.6115573048592, -482.7762054800987, -349.9349590539932
 1.7063880496765091E9, -516.0463554859161, -643.8611763715744, -495.9406533241272, -353.2859094142914
 1.7063880496900315E9, -448.5486410856247, -634.2870324850082, -509.583808362484, -250.84256982803345
 1.7063880496900315E9, -556.257759809494, -626.8670709729195, -476.31365835666656, -304.93648278713226
 1.7063880497057056E9, -566.7893180847168, -634.7657396793365, -471.5265864133835, -360.22716373205185
 1.7063880497057056E9, -432.7513036727905, -621.3619382381439, -482.7762054800987, -243.90131551027298
 1.7063880497064068E9, -494.7438853383064, -610.8303799629211, -467.696928858757, -248.20968025922775
 1.7063880497064068E9, -575.4060475826263, -620.4045238494873, -449.9847626686096, -343.7117655277252
 1.7063880497203603E9, -468.4149896502495, -629.9786677360535, -484.4516806602478, -293.2081565260887
 1.7063880497203603E9, -464.34597849845886, -623.9948278069496, -488.5206918120384, -229.54009968042374
 1.7063880497360485E9, -586.8950202465057, -627.3457781672478, -462.6705033183098, -330.7866712808609
 1.7063880497360485E9, -529.9288641214371, -641.2282868027687, -483.73361986875534, -337.24921840429306
 1.706388049736544E9, -445.19769072532654, -629.0212533473969, -496.65871411561966, -231.93363565206528
 1.706388049736544E9, -545.4868479371071, -615.1387447118759, -467.45757526159286, -291.2933277487755
 1.7063880497500668E9, -566.5499644875526, -630.9360821247101, -468.65434324741364, -354.00397020578384
 1.7063880497500668E9, -454.53248101472855, -638.595397233963, -500.4883716702461, -263.76766407489777
 1.7063880497657669E9, -511.4986371397972, -625.9096565842628, -485.6484486460686, -261.85283529758453
 1.7063880497657669E9, -578.7569979429245, -619.2077558636665, -449.74540907144547, -349.69560545682907
 1.7063880497664776E9, -470.808525621891, -628.7818997502327, -484.69103425741196, -290.8146205544472
 1.7063880497664776E9, -445.915751516819, -606.0433080196381, -477.2710727453232, -226.42850291728973
 1.706388049780008E9, -565.8319036960602, -607.0007224082947, -445.915751516819, -320.01575940847397
 1.706388049780008E9, -505.51479721069336, -623.037413418293, -466.02145367860794, -322.8880025744438
 1.706388049795794E9, -449.74540907144547, -624.4735350012779, -491.39293497800827, -235.04523241519928
 1.706388049795794E9, -550.7526270747185, -617.7716342806816, -465.3033928871155, -293.44751012325287
 1.706388049796533E9, -554.1035774350166, -627.8244853615761, -460.27696734666824, -343.7117655277252
 1.706388049796533E9, -436.82031482458115, -626.149010181427, -498.81289649009705, -258.9805921316147
 1.706388049810042E9, -498.0948356986046, -614.4206839203835, -476.7923655509949, -261.3741281032562
 1.706388049810042E9, -568.4647932648659, -617.7716342806816, -455.48989540338516, -349.4562518596649
 1.7063880498258953E9, -470.56917202472687, -624.9522421956062, -481.10073029994965, -288.89979177713394
 1.7063880498258953E9, -457.64407777786255, -607.0007224082947, -476.5530119538307, -226.42850291728973
 1.7063880498264463E9, -573.4912188053131, -612.2665015459061, -441.3680331707001, -318.8189914226532
 1.7063880498264463E9, -504.3180292248726, -620.4045238494873, -462.6705033183098, -318.57963782548904
 1.7063880498400629E9, -440.1712651848793, -616.0961591005325, -492.58970296382904, -232.17298924922943
 1.7063880498400629E9, -538.3062400221825, -603.4104184508324, -454.05377382040024, -287.463670194149
 1.7063880498557396E9, -551.9493950605392, -622.7980598211288, -459.3195529580116, -349.4562518596649
 1.7063880498557396E9, -445.915751516819, -625.9096565842628, -485.8878022432327, -249.88515543937683
 1.7063880498564644E9, -502.6425540447235, -612.9845623373985, -472.4840008020401, -252.75739860534668
 1.7063880498564644E9, -580.9111803174019, -618.0109878778458, -453.3357130289078, -353.2859094142914
 1.7063880498700583E9, -478.2284871339798, -633.3296180963516, -487.80263102054596, -292.01138854026794
 1.7063880498700583E9, -462.90985691547394, -613.702623128891, -478.46784073114395, -232.17298924922943
 1.70638804988586E9, -583.5440698862076, -620.4045238494873, -451.89959144592285, -330.06861048936844
 1.70638804988586E9, -517.2431234717369, -625.4309493899345, -468.65434324741364, -326.95701372623444
 1.706388049886525E9, -450.94217705726624, -622.7980598211288, -494.5045317411423, -238.39618277549744
 1.706388049886525E9, -560.5661245584488, -617.7716342806816, -465.7821000814438, -295.8410460948944
 1.7063880499003444E9, -556.0184062123299, -620.6438774466515, -462.6705033183098, -358.07298135757446
 1.7063880499003444E9, -450.2241162657738, -632.372203707695, -502.40320044755936, -264.7250784635544
 1.7063880499161732E9, -520.8334274291992, -624.4735350012779, -487.5632774233818, -269.2727968096733
 1.7063880499161732E9, -595.7511033415794, -629.260606944561, -460.27696734666824, -368.12583243846893
 1.7063880499165664E9, -468.65434324741364, -629.260606944561, -487.0845702290535, -294.16557091474533
 1.7063880499165664E9, -472.4840008020401, -622.3193526268005, -484.9303878545761, -236.4813539981842
 1.7063880499302998E9, -592.4001529812813, -627.1064245700836, -459.0801993608475, -342.7543511390686
 1.7063880499302998E9, -517.9611842632294, -632.8509109020233, -478.7071943283081, -337.24921840429306
 1.7063880499459493E9, -452.37829864025116, -632.372203707695, -500.7277252674103, -243.66196191310883
 1.7063880499459493E9, -564.3957821130753, -626.149010181427, -474.39882957935333, -303.97906839847565
 1.7063880499464784E9, -559.8480637669563, -624.9522421956062, -463.6279177069664, -357.8336277604103
 1.7063880499464784E9, -439.692557990551, -621.1225846409798, -488.0419846177101, -251.5606306195259
 1.7063880499600282E9, -497.6161285042763, -598.8627001047134, -471.5265864133835, -252.51804500818253
 1.7063880499600282E9, -576.6028155684471, -613.702623128891, -449.027348279953, -348.73819106817245
 1.706388049975744E9, -468.8936968445778, -622.5587062239647, -480.3826695084572, -291.2933277487755
 1.706388049975744E9, -466.2608072757721, -616.814219892025, -480.14331591129303, -234.08781802654266
 1.7063880499764907E9, -587.373727440834, -619.2077558636665, -458.12278497219086, -336.0524504184723
 1.7063880499764907E9, -517.2431234717369, -626.3883637785912, -470.808525621891, -332.70150005817413
 1.706388049990112E9, -442.56480115652084, -617.5322806835175, -490.91422778367996, -234.56652522087097
 1.706388049990112E9, -563.1990141272545, -625.4309493899345, -470.56917202472687, -313.0745050907135
 1.706388050005805E9, -564.1564285159111, -630.2180213332176, -465.7821000814438, -353.0465558171272
 1.706388050005805E9, -451.6602378487587, -627.8244853615761, -501.92449325323105, -255.86899536848068
 1.706388050006488E9, -512.695405125618, -613.702623128891, -478.46784073114395, -260.65606731176376
 1.706388050006488E9, -581.3898875117302, -617.0535734891891, -459.5589065551758, -353.0465558171272
 1.7063880500205631E9, -482.53685188293457, -629.7393141388893, -488.7600454092026, -297.0378140807152
 1.7063880500205631E9, -463.1492105126381, -609.8729655742645, -489.95681339502335, -234.32717162370682
 1.7063880500358596E9, -582.3473019003868, -614.8993911147118, -453.57506662607193, -335.573743224144
 1.7063880500358596E9, -516.2857090830803, -628.7818997502327, -470.09046483039856, -321.4518809914589
 1.7063880500366263E9, -454.2931274175644, -625.9096565842628, -499.0522500872612, -241.50777953863144
 1.7063880500366263E9, -557.9332349896431, -616.5748662948608, -469.61175763607025, -297.75587487220764
 1.7063880500657413E9, -553.14616304636, -619.925816655159, -469.13305044174194, -352.5678486227989
 1.7063880500657413E9, -437.77772921323776, -620.8832310438156, -486.1271558403969, -248.68838745355606
 1.706388050066476E9, -508.8657475709915, -609.6336119771004, -473.4414151906967, -253.95416659116745
 1.706388050066476E9, -586.4163130521774, -621.6012918353081, -458.12278497219086, -351.6104342341423
 1.7063880500810735E9, -459.79826015233994, -604.367832839489, -485.16974145174026, -232.17298924922943
 1.7063880500810735E9, -594.5543353557587, -616.814219892025, -461.23438173532486, -334.13762164115906
 1.706388050081575E9, -521.3121346235275, -628.0638389587402, -482.7762054800987, -332.9408536553383
 1.706388050081575E9, -447.3518730998039, -621.8406454324722, -497.85548210144043, -237.19941478967667
 1.706388050095096E9, -557.4545277953148, -613.9419767260551, -460.75567454099655, -295.60169249773026
 1.706388050095096E9, -562.0022461414337, -628.7818997502327, -471.5265864133835, -356.15815258026123
 1.7063880501107364E9, -447.3518730998039, -626.6277173757553, -500.0096644759178, -259.69865292310715
 1.7063880501107364E9, -511.9773443341255, -617.0535734891891, -477.51042634248734, -261.6134817004204
 1.7063880501115036E9, -593.3575673699379, -623.9948278069496, -460.9950281381607, -360.9452245235443
 1.7063880501115036E9, -482.53685188293457, -634.5263860821724, -495.22259253263474, -296.55910688638687
 1.70638805012512E9, -478.94654792547226, -617.0535734891891, -495.70129972696304, -242.7045475244522
 1.70638805012512E9, -589.7672634124756, -622.7980598211288, -456.9260169863701, -335.3343896269798
 1.7063880501412265E9, -522.7482562065125, -634.0476788878441, -478.94654792547226, -331.02602487802505
 1.7063880501412265E9, -454.53248101472855, -626.3883637785912, -497.13742130994797, -237.67812198400497
 1.7063880501416092E9, -565.3531965017319, -619.2077558636665, -468.4149896502495, -301.5855324268341
 1.7063880501416092E9, -554.8216382265091, -617.0535734891891, -461.473735332489, -345.14788711071014
 1.7063880501550653E9, -438.97449719905853, -619.4471094608307, -489.7174597978592, -249.88515543937683
 1.7063880501550653E9, -521.3121346235275, -619.4471094608307, -472.4840008020401, -265.44313925504684
 1.7063880501711168E9, -596.2298105359077, -633.8083252906799, -461.9524425268173, -354.96138459444046
 1.7063880501711168E9, -481.57943749427795, -630.6967285275459, -494.7438853383064, -295.8410460948944
 1.7063880501857927E9, -474.39882957935333, -618.0109878778458, -489.7174597978592, -241.98648673295975
 1.7063880501857927E9, -596.708517730236, -627.1064245700836, -462.6705033183098, -340.36081516742706
 1.7063880501864848E9, -521.3121346235275, -626.8670709729195, -476.31365835666656, -328.87184250354767
 1.7063880501864848E9, -459.0801993608475, -624.4735350012779, -500.7277252674103, -236.72070759534836
 1.7063880502010753E9, -563.1990141272545, -619.4471094608307, -455.96860259771347, -292.2507421374321
 1.7063880502010753E9, -557.2151741981506, -622.3193526268005, -462.1917961239815, -344.908533513546
 1.7063880502015927E9, -449.9847626686096, -626.149010181427, -489.7174597978592, -252.99675220251083
 1.7063880502015927E9, -510.5412227511406, -609.6336119771004, -471.0478792190552, -253.7148129940033
 1.70638805021526E9, -574.6879867911339, -617.2929270863533, -450.94217705726624, -347.78077667951584
 1.70638805021526E9, -472.9627079963684, -624.4735350012779, -491.1535813808441, -288.42108458280563
 1.7063880502307415E9, -470.56917202472687, -609.6336119771004, -479.6646087169647, -230.01880687475204
 1.7063880502307415E9, -579.2357051372528, -612.2665015459061, -453.3357130289078, -334.3769752383232
 1.7063880502314608E9, -511.25928354263306, -622.3193526268005, -474.87753677368164, -326.7176601290703
 1.7063880502314608E9, -444.9583371281624, -613.9419767260551, -491.1535813808441, -230.2581604719162
 1.7063880502452295E9, -563.4383677244186, -618.7290486693382, -468.8936968445778, -305.1758363842964
 1.7063880502452295E9, -553.6248702406883, -620.1651702523232, -465.0640392899513, -349.9349590539932
 1.706388050260831E9, -446.63381230831146, -629.9786677360535, -493.54711735248566, -252.27869141101837
 1.706388050260831E9, -516.2857090830803, -614.4206839203835, -469.8511112332344, -262.570896089077
 1.7063880502616622E9, -581.3898875117302, -620.6438774466515, -452.6176522374153, -354.96138459444046
 1.7063880502616622E9, -464.82468569278717, -629.0212533473969, -484.4516806602478, -287.70302379131317
 1.7063880502754223E9, -479.42525511980057, -623.2767670154572, -489.2387526035309, -241.50777953863144
 1.7063880502754223E9, -582.8260090947151, -611.5484407544136, -453.0963594317436, -333.8982680439949
 1.706388050290969E9, -510.78057634830475, -623.7554742097855, -471.76594001054764, -318.3402842283249
 1.706388050290969E9, -434.4267788529396, -604.1284792423248, -483.25491267442703, -225.94979572296143
 1.7063880502915392E9, -549.0771518945694, -607.9581367969513, -453.8144202232361, -297.75587487220764
 1.7063880502915392E9, -546.6836159229279, -616.0961591005325, -451.42088425159454, -338.92469358444214
 1.7063880503054357E9, -436.580961227417, -612.9845623373985, -488.99939900636673, -243.90131551027298
 1.7063880503054357E9, -513.4134659171104, -614.4206839203835, -476.7923655509949, -263.28895688056946
 1.7063880503209493E9, -584.0227770805359, -625.1915957927704, -452.37829864025116, -353.2859094142914
 1.7063880503209493E9, -470.56917202472687, -626.149010181427, -489.7174597978592, -289.6178525686264
 1.7063880503216348E9, -477.51042634248734, -623.9948278069496, -489.47810620069504, -241.26842594146729
 1.7063880503216348E9, -577.3208763599396, -617.0535734891891, -451.89959144592285, -336.5311576128006
 1.7063880503353477E9, -507.19027239084244, -622.3193526268005, -474.87753677368164, -321.9305881857872
 1.7063880503353477E9, -443.04350835084915, -615.8568055033684, -498.0948356986046, -240.78971874713898
 1.7063880503509789E9, -563.4383677244186, -619.6864630579948, -470.56917202472687, -309.24484753608704
 1.7063880503509789E9, -568.70414686203, -634.2870324850082, -475.1168903708458, -361.4239317178726
 1.7063880503516266E9, -442.804154753685, -631.1754357218742, -503.8393220305443, -268.55473601818085
 1.7063880503516266E9, -507.66897958517075, -607.9581367969513, -470.09046483039856, -261.85283529758453
 1.7063880503650415E9, -583.5440698862076, -624.9522421956062, -451.1815306544304, -362.1419925093651
 1.7063880503650415E9, -462.6705033183098, -626.149010181427, -489.47810620069504, -295.3623389005661
 1.7063880503807418E9, -458.8408457636833, -610.591026365757, -481.3400838971138, -235.5239396095276
 1.7063880503807418E9, -579.9537659287453, -616.814219892025, -459.3195529580116, -347.0627158880234
 1.7063880503813913E9, -511.4986371397972, -634.0476788878441, -482.05814468860626, -334.8556824326515
 1.7063880503813913E9, -442.56480115652084, -623.037413418293, -496.4193605184555, -239.5929507613182
 1.7063880503952289E9, -551.4706878662109, -613.9419767260551, -465.0640392899513, -307.56937235593796
 1.7063880503952289E9, -547.1623231172562, -614.4206839203835, -451.6602378487587, -341.796936750412
 1.7063880504107616E9, -426.0494029521942, -605.3252472281456, -477.98913353681564, -240.55036514997482
 1.7063880504107616E9, -499.77031087875366, -603.6497720479965, -473.4414151906967, -262.0921888947487
 1.7063880504115188E9, -579.2357051372528, -621.8406454324722, -455.48989540338516, -358.7910421490669
 1.7063880504115188E9, -461.71308892965317, -629.7393141388893, -493.06841015815735, -295.60169249773026
 1.706388050425102E9, -470.09046483039856, -613.702623128891, -490.91422778367996, -249.88515543937683
 1.706388050425102E9, -584.2621306777, -615.3780983090401, -454.53248101472855, -341.55758315324783
 1.7063880504409287E9, -510.0625155568123, -629.7393141388893, -473.920122385025, -328.6324889063835
 1.7063880504409287E9, -441.8467403650284, -615.6174519062042, -492.11099576950073, -236.24200040102005
 1.706388050441524E9, -555.3003454208374, -615.1387447118759, -457.16537058353424, -295.3623389005661
 1.706388050441524E9, -540.699775993824, -619.4471094608307, -463.86727130413055, -351.37108063697815
 1.7063880504550784E9, -428.92164611816406, -618.9684022665024, -494.7438853383064, -252.03933781385422
 1.7063880504550784E9, -514.6102339029312, -614.6600375175476, -476.0743047595024, -268.794089615345
 1.7063880504708793E9, -585.2195450663567, -629.7393141388893, -463.38856410980225, -365.7322964668274
 1.7063880504708793E9, -470.3298184275627, -635.7231540679932, -491.6322885751724, -298.9526428580284
 1.706388050471491E9, -471.0478792190552, -621.8406454324722, -490.1961669921875, -247.25226587057114
 1.706388050471491E9, -583.3047162890434, -618.4896950721741, -462.1917961239815, -343.2330583333969
 1.7063880504853704E9, -502.1638468503952, -623.2767670154572, -479.9039623141289, -325.76024574041367
 1.7063880504853704E9, -448.0699338912964, -622.7980598211288, -492.58970296382904, -238.87488996982574
 1.706388050500955E9, -563.4383677244186, -618.4896950721741, -461.71308892965317, -300.38876444101334
 1.706388050500955E9, -550.034566283226, -630.6967285275459, -469.13305044174194, -352.32849502563477
 1.7063880505017292E9, -440.41061878204346, -631.6541429162025, -500.7277252674103, -257.54447054862976
 1.7063880505017292E9, -510.78057634830475, -614.1813303232193, -475.5955975651741, -263.0496032834053
 1.7063880505152652E9, -573.7305724024773, -622.7980598211288, -456.2079561948776, -356.15815258026123
 1.7063880505152652E9, -463.6279177069664, -625.6703029870987, -488.28133821487427, -289.6178525686264
 1.7063880505307896E9, -475.83495116233826, -620.6438774466515, -495.4619461297989, -250.12450903654099
 1.7063880505307896E9, -590.0066170096397, -622.0799990296364, -460.5163209438324, -350.41366624832153
 1.706388050531565E9, -509.583808362484, -633.5689716935158, -484.69103425741196, -332.9408536553383
 1.706388050531565E9, -443.7615691423416, -620.6438774466515, -497.6161285042763, -239.83230435848236
 1.7063880505451746E9, -550.034566283226, -608.4368439912796, -461.9524425268173, -306.8513115644455
 1.7063880505451746E9, -546.6836159229279, -618.9684022665024, -460.9950281381607, -346.58400869369507
 1.706388050560879E9, -429.1609997153282, -617.7716342806816, -494.9832389354706, -254.91158097982407
 1.706388050560879E9, -508.3870403766632, -610.591026365757, -479.42525511980057, -267.1186144351959
 1.7063880505615096E9, -582.8260090947151, -632.1328501105309, -466.02145367860794, -363.81746768951416
 1.7063880505615096E9, -468.4149896502495, -636.6805684566498, -495.4619461297989, -297.75587487220764
 1.7063880505751076E9, -467.2182216644287, -621.6012918353081, -492.8290565609932, -245.09808349609375
 1.7063880505751076E9, -578.2782907485962, -613.2239159345627, -453.0963594317436, -337.9672791957855
 1.7063880505907736E9, -501.6851396560669, -621.3619382381439, -475.35624396800995, -327.6750745177269
 1.7063880505907736E9, -444.9583371281624, -616.3355126976967, -495.4619461297989, -236.72070759534836
 1.7063880505914805E9, -546.4442623257637, -610.3516727685928, -460.9950281381607, -308.04807955026627
 1.7063880505914805E9, -544.7687871456146, -624.9522421956062, -460.5163209438324, -347.78077667951584
 1.7063880506220148E9, -440.1712651848793, -629.7393141388893, -498.33418929576874, -255.62964177131653
 1.7063880506220148E9, -511.9773443341255, -612.5058551430702, -472.24464720487595, -266.1612000465393
 1.706388050622272E9, -584.5014842748642, -629.9786677360535, -461.473735332489, -365.97165006399155
 1.706388050622272E9, -454.53248101472855, -623.5161206126213, -482.05814468860626, -282.1978910565376
 1.7063880506230419E9, -464.1066249012947, -606.5220152139664, -478.7071943283081, -234.80587881803513
 1.7063880506230419E9, -571.0976828336716, -614.1813303232193, -455.01118820905685, -339.1640471816063
 1.706388050635398E9, -498.33418929576874, -629.260606944561, -474.39882957935333, -321.69123458862305
 1.706388050635398E9, -445.915751516819, -625.9096565842628, -492.3503493666649, -238.39618277549744
 1.7063880506512885E9, -566.0712572932243, -619.4471094608307, -464.1066249012947, -307.8087259531021
 1.7063880506512885E9, -546.2049087285995, -624.9522421956062, -463.86727130413055, -347.0627158880234
 1.7063880506659367E9, -435.14483964443207, -630.2180213332176, -497.13742130994797, -251.5606306195259
 1.7063880506659367E9, -516.2857090830803, -616.814219892025, -482.7762054800987, -272.3843935728073
 1.7063880506665192E9, -563.917074918747, -616.3355126976967, -455.48989540338516, -354.7220309972763
 1.7063880506665192E9, -458.60149216651917, -622.7980598211288, -488.0419846177101, -286.26690220832825
 1.7063880506807961E9, -469.8511112332344, -615.1387447118759, -483.25491267442703, -237.43876838684082
 1.7063880506807961E9, -583.7834234833717, -616.814219892025, -449.74540907144547, -336.77051120996475
 1.7063880506814275E9, -503.8393220305443, -623.2767670154572, -470.56917202472687, -320.01575940847397
 1.7063880506814275E9, -451.42088425159454, -622.5587062239647, -496.65871411561966, -234.80587881803513
 1.7063880506954937E9, -544.7687871456146, -606.2826616168022, -453.3357130289078, -297.75587487220764
 1.7063880506954937E9, -539.7423616051674, -616.3355126976967, -461.473735332489, -353.7646166086197
 1.7063880507108903E9, -440.1712651848793, -625.6703029870987, -494.7438853383064, -247.9703266620636
 1.7063880507108903E9, -518.2005378603935, -622.5587062239647, -479.1859015226364, -266.87926083803177
 1.7063880507115037E9, -576.363461971283, -622.7980598211288, -453.57506662607193, -350.41366624832153
 1.7063880507115037E9, -469.13305044174194, -639.5528116226196, -490.91422778367996, -286.74560940265656
 1.7063880507251427E9, -481.10073029994965, -624.7128885984421, -483.4942662715912, -232.65169644355774
 1.7063880507251427E9, -590.7246778011322, -624.9522421956062, -461.9524425268173, -344.4298263192177
 1.706388050740768E9, -513.6528195142746, -630.9360821247101, -480.8613767027855, -325.5208921432495
 1.706388050740768E9, -446.63381230831146, -624.4735350012779, -500.4883716702461, -231.93363565206528
 1.7063880507414505E9, -565.1138429045677, -623.037413418293, -470.09046483039856, -309.24484753608704
 1.7063880507414505E9, -544.2900799512863, -622.3193526268005, -459.0801993608475, -346.8233622908592
 1.7063880507554824E9, -432.9906572699547, -627.8244853615761, -494.7438853383064, -249.88515543937683
 1.7063880507554824E9, -520.3547202348709, -622.7980598211288, -477.51042634248734, -264.96443206071854
 1.706388050770687E9, -578.7569979429245, -628.7818997502327, -451.42088425159454, -348.9775446653366
 1.706388050770687E9, -468.1756360530853, -632.6115573048592, -488.28133821487427, -280.04370868206024
 1.7063880507714448E9, -482.7762054800987, -622.5587062239647, -493.7864709496498, -240.31101155281067
 1.7063880507714448E9, -583.7834234833717, -615.6174519062042, -455.48989540338516, -332.46214646101
 1.706388050785158E9, -495.70129972696304, -623.9948278069496, -469.61175763607025, -314.27127307653427
 1.706388050785158E9, -434.18742525577545, -610.3516727685928, -488.0419846177101, -227.1465637087822
 1.706388050801007E9, -564.3957821130753, -623.9948278069496, -466.2608072757721, -306.61195796728134
 1.706388050801007E9, -557.9332349896431, -633.0902644991875, -466.50016087293625, -345.62659430503845
 1.7063880508015292E9, -438.0170828104019, -624.2341814041138, -488.5206918120384, -237.43876838684082
 1.7063880508015292E9, -509.82316195964813, -602.6923576593399, -467.45757526159286, -257.54447054862976
 1.7063880508152168E9, -574.927340388298, -627.8244853615761, -458.362138569355, -354.00397020578384
 1.7063880508152168E9, -469.3724040389061, -638.8347508311272, -496.18000692129135, -282.4372446537018
 1.7063880508307295E9, -475.1168903708458, -619.2077558636665, -488.0419846177101, -239.35359716415405
 1.7063880508307295E9, -575.8847547769547, -616.5748662948608, -450.4634698629379, -334.13762164115906
 1.7063880508314571E9, -499.29160368442535, -626.149010181427, -474.1594759821892, -315.46804106235504
 1.7063880508314571E9, -435.3841932415962, -612.0271479487419, -495.70129972696304, -232.17298924922943
 1.7063880508450215E9, -545.7262015342712, -605.8039544224739, -461.71308892965317, -301.82488602399826
 1.7063880508450215E9, -546.2049087285995, -626.6277173757553, -474.1594759821892, -352.5678486227989
 1.706388050860765E9, -441.1286795735359, -631.1754357218742, -505.2754436135292, -248.20968025922775
 1.706388050860765E9, -522.03019541502, -622.7980598211288, -485.6484486460686, -274.5385759472847
 1.7063880508615096E9, -576.6028155684471, -623.2767670154572, -459.3195529580116, -355.9187989830971
 1.7063880508615096E9, -460.9950281381607, -628.5425461530685, -496.65871411561966, -287.70302379131317
 1.7063880508753393E9, -476.31365835666656, -624.2341814041138, -495.22259253263474, -242.46519392728806
 1.7063880508753393E9, -590.0066170096397, -625.9096565842628, -457.16537058353424, -340.36081516742706
 1.7063880508908825E9, -505.51479721069336, -635.7231540679932, -487.32392382621765, -324.5634777545929
 1.7063880508908825E9, -446.3944587111473, -615.6174519062042, -499.0522500872612, -231.21557486057281
 1.7063880508914905E9, -556.0184062123299, -610.1123191714287, -463.1492105126381, -302.30359321832657
 1.7063880508914905E9, -535.4339968562126, -613.4632695317268, -456.2079561948776, -342.03629034757614
 1.7063880509050484E9, -440.1712651848793, -621.6012918353081, -495.9406533241272, -243.42260831594467
 1.7063880509050484E9, -517.9611842632294, -616.0961591005325, -478.2284871339798, -263.28895688056946
 1.7063880509207878E9, -585.9376058578491, -627.5851317644119, -457.4047241806984, -354.48267740011215
 1.7063880509207878E9, -460.9950281381607, -629.0212533473969, -494.02582454681396, -281.00112307071686
 1.70638805092149E9, -468.8936968445778, -615.6174519062042, -475.83495116233826, -227.86462450027466
 1.70638805092149E9, -582.8260090947151, -617.2929270863533, -444.71898353099823, -329.8292568922043
 1.7063880509353037E9, -495.9406533241272, -612.5058551430702, -464.34597849845886, -303.7397148013115
 1.7063880509353037E9, -444.9583371281624, -614.6600375175476, -485.4090950489044, -224.75302773714066
 1.7063880509509988E9, -576.1241083741188, -625.4309493899345, -465.0640392899513, -305.1758363842964
 1.7063880509509988E9, -552.9068094491959, -629.0212533473969, -463.6279177069664, -345.62659430503845
 1.7063880509515095E9, -440.6499723792076, -637.6379828453064, -504.7967364192009, -249.64580184221268
 1.7063880509515095E9, -526.0992065668106, -619.925816655159, -480.62202310562134, -269.2727968096733
 1.706388050965142E9, -587.373727440834, -631.1754357218742, -462.90985691547394, -356.3975061774254
 1.706388050965142E9, -455.250541806221, -622.0799990296364, -487.80263102054596, -279.3256478905678
 1.7063880509973464E9, -462.43114972114563, -602.6923576593399, -475.5955975651741, -237.91747558116913
 1.7063880509973464E9, -585.2195450663567, -619.2077558636665, -450.4634698629379, -341.3182295560837
 1.7063880509984236E9, -505.99350440502167, -631.1754357218742, -483.0155590772629, -324.80283135175705
 1.7063880509984236E9, -441.8467403650284, -616.0961591005325, -497.3767749071121, -235.5239396095276
 1.706388050998665E9, -556.257759809494, -612.5058551430702, -454.2931274175644, -297.27716767787933
 1.706388050998665E9, -538.0668864250183, -614.8993911147118, -455.01118820905685, -341.0788759589195
 1.7063880509994767E9, -430.357767701149, -618.7290486693382, -483.4942662715912, -235.04523241519928
 1.7063880509994767E9, -524.1843777894974, -622.0799990296364, -473.920122385025, -265.92184644937515
 1.7063880510101144E9, -581.3898875117302, -630.2180213332176, -464.585332095623, -363.57811409235
 1.7063880510101144E9, -460.75567454099655, -630.2180213332176, -494.2651781439781, -286.9849629998207
 1.706388051025436E9, -465.54274648427963, -615.1387447118759, -483.0155590772629, -238.6355363726616
 1.706388051025436E9, -589.7672634124756, -623.9948278069496, -460.27696734666824, -348.02013027668
 1.7063880510411901E9, -491.6322885751724, -618.2503414750099, -473.920122385025, -318.57963782548904
 1.7063880510411901E9, -445.4370443224907, -618.7290486693382, -492.8290565609932, -233.8484644293785
 1.7063880510416095E9, -569.1828540563583, -625.6703029870987, -465.0640392899513, -309.24484753608704
 1.7063880510416095E9, -547.4016767144203, -629.4999605417252, -470.56917202472687, -351.131727039814
 1.7063880510553625E9, -432.5119500756264, -619.6864630579948, -496.18000692129135, -246.05549788475037
 1.7063880510553625E9, -523.4663169980049, -624.4735350012779, -475.83495116233826, -267.59732162952423
 1.7063880510701196E9, -587.1343738436699, -631.4147893190384, -461.473735332489, -361.6632853150368
 1.7063880510701196E9, -468.8936968445778, -633.0902644991875, -489.2387526035309, -281.240476667881
 1.7063880510860248E9, -604.8465400338173, -632.8509109020233, -463.6279177069664, -350.1743126511574
 1.7063880510860248E9, -503.360614836216, -628.0638389587402, -474.1594759821892, -319.05834501981735
 1.706388051086514E9, -441.6073867678642, -616.0961591005325, -481.3400838971138, -224.9923813343048
 1.706388051086514E9, -566.5499644875526, -620.4045238494873, -459.3195529580116, -303.2610076069832
 1.706388051100166E9, -539.9817152023315, -621.6012918353081, -463.86727130413055, -345.3872407078743
 1.706388051100166E9, -434.18742525577545, -625.1915957927704, -496.18000692129135, -244.3800227046013
 1.7063880511160347E9, -517.4824770689011, -613.9419767260551, -475.35624396800995, -266.40055364370346
 1.7063880511160347E9, -578.038937151432, -624.2341814041138, -462.6705033183098, -366.45035725831985
 1.7063880511164496E9, -456.68666338920593, -630.4573749303818, -488.28133821487427, -286.0275486111641
 1.7063880511164496E9, -478.2284871339798, -621.3619382381439, -491.8716421723366, -249.40644824504852
 1.706388051130123E9, -582.3473019003868, -609.3942583799362, -455.7292490005493, -342.99370473623276
 1.706388051130123E9, -500.0096644759178, -626.3883637785912, -472.4840008020401, -316.1861018538475
 1.70638805114603E9, -438.25643640756607, -609.1549047827721, -489.2387526035309, -229.06139248609543
 1.70638805114603E9, -543.5720191597939, -595.033042550087, -452.37829864025116, -301.82488602399826
 1.706388051146598E9, -538.5455936193466, -621.6012918353081, -463.38856410980225, -341.0788759589195
 1.706388051146598E9, -439.2138507962227, -628.3031925559044, -500.24901807308197, -244.61937630176544
 1.7063880511767807E9, -528.253388941288, -615.8568055033684, -477.51042634248734, -275.73534393310547
 1.7063880511767807E9, -564.1564285159111, -615.6174519062042, -456.68666338920593, -352.5678486227989
 1.7063880511773667E9, -454.53248101472855, -625.9096565842628, -487.0845702290535, -279.3256478905678
 1.7063880511773667E9, -475.35624396800995, -619.2077558636665, -489.47810620069504, -241.26842594146729
 1.7063880511782935E9, -591.6820921897888, -620.6438774466515, -469.3724040389061, -345.3872407078743
 1.7063880511782935E9, -504.55738282203674, -638.595397233963, -491.6322885751724, -330.3079640865326
 1.706388051190036E9, -456.68666338920593, -629.0212533473969, -504.07867562770844, -241.02907234430313
 1.706388051190036E9, -571.0976828336716, -623.037413418293, -465.7821000814438, -306.3726043701172
 1.706388051205751E9, -548.1197375059128, -623.5161206126213, -470.3298184275627, -342.99370473623276
 1.706388051205751E9, -447.5912266969681, -628.0638389587402, -503.1212612390518, -242.94390112161636
 1.7063880512064345E9, -536.3914112448692, -630.9360821247101, -484.9303878545761, -278.36823350191116
 1.7063880512064345E9, -591.4427385926247, -637.6379828453064, -464.34597849845886, -363.81746768951416
 1.7063880512203796E9, -473.68076878786087, -642.1857011914253, -505.99350440502167, -289.37849897146225
 1.7063880512203796E9, -492.8290565609932, -624.9522421956062, -492.11099576950073, -247.9703266620636
 1.7063880512361925E9, -601.256236076355, -633.8083252906799, -461.9524425268173, -346.10530149936676
 1.7063880512361925E9, -502.6425540447235, -632.8509109020233, -479.42525511980057, -318.10093063116074
 1.7063880512367108E9, -448.78799468278885, -620.6438774466515, -497.3767749071121, -231.93363565206528
 1.7063880512367108E9, -572.7731580138206, -618.4896950721741, -462.1917961239815, -303.2610076069832
 1.7063880512500503E9, -553.8642238378525, -638.595397233963, -469.8511112332344, -339.1640471816063
 1.7063880512500503E9, -439.45320439338684, -629.4999605417252, -499.0522500872612, -241.50777953863144
 1.7063880512658885E9, -528.0140353441238, -623.5161206126213, -480.62202310562134, -275.017283141613
 1.7063880512658885E9, -574.2092795968056, -623.7554742097855, -456.68666338920593, -355.9187989830971
 1.706388051266485E9, -457.64407777786255, -633.0902644991875, -501.6851396560669, -285.78819501399994
 1.706388051266485E9, -471.76594001054764, -607.9581367969513, -484.21232706308365, -239.83230435848236
 1.7063880512800868E9, -586.8950202465057, -621.8406454324722, -463.86727130413055, -350.6530198454857
 1.7063880512800868E9, -494.9832389354706, -627.5851317644119, -486.36650943756104, -321.4518809914589
 1.706388051296003E9, -455.250541806221, -628.7818997502327, -503.360614836216, -239.5929507613182
 1.706388051296003E9, -573.9699259996414, -626.149010181427, -474.39882957935333, -317.8615770339966
 1.7063880512965777E9, -555.0609918236732, -639.3134580254555, -481.3400838971138, -359.26974934339523
 1.7063880512965777E9, -457.64407777786255, -643.6218227744102, -511.25928354263306, -261.13477450609207
 1.706388051310047E9, -534.7159360647202, -625.9096565842628, -482.53685188293457, -280.2830622792244
 1.706388051310047E9, -583.0653626918793, -632.6115573048592, -471.5265864133835, -364.7748820781708
 1.7063880513257916E9, -463.6279177069664, -633.3296180963516, -501.6851396560669, -286.0275486111641
 1.7063880513257916E9, -486.84521663188934, -624.2341814041138, -497.13742130994797, -247.01291227340698
 1.706388051326496E9, -595.5117497444153, -628.5425461530685, -466.97886806726456, -353.0465558171272
 1.706388051326496E9, -508.3870403766632, -635.9625076651573, -486.84521663188934, -324.32412415742874
 1.7063880513400743E9, -460.9950281381607, -629.0212533473969, -499.29160368442535, -233.13040363788605
 1.7063880513400743E9, -571.5763900279999, -628.3031925559044, -467.696928858757, -309.72355473041534
 1.7063880513561406E9, -554.5822846293449, -635.0050932765007, -471.5265864133835, -356.15815258026123
 1.7063880513561406E9, -441.3680331707001, -626.3883637785912, -501.92449325323105, -252.51804500818253
 1.7063880513566427E9, -528.9714497327805, -620.6438774466515, -477.98913353681564, -272.62374716997147
 1.7063880513566427E9, -577.0815227627754, -628.5425461530685, -458.12278497219086, -359.74845653772354
 1.706388051370592E9, -450.94217705726624, -623.5161206126213, -477.51042634248734, -270.2302111983299
 1.706388051370592E9, -483.73361986875534, -623.037413418293, -485.4090950489044, -243.42260831594467
 1.7063880513861492E9, -586.8950202465057, -620.1651702523232, -451.42088425159454, -334.8556824326515
 1.7063880513861492E9, -495.4619461297989, -628.0638389587402, -476.0743047595024, -317.6222234368324
 1.7063880513865955E9, -446.8731659054756, -618.7290486693382, -495.70129972696304, -233.8484644293785
 1.7063880513865955E9, -556.9758206009865, -620.8832310438156, -465.0640392899513, -309.24484753608704
 1.7063880514000854E9, -540.9391295909882, -634.0476788878441, -466.7395144701004, -344.4298263192177
 1.7063880514000854E9, -435.6235468387604, -625.6703029870987, -497.6161285042763, -245.3374370932579
 1.7063880514158084E9, -522.2695490121841, -613.2239159345627, -477.7497799396515, -272.14503997564316
 1.7063880514158084E9, -574.4486331939697, -623.9948278069496, -457.64407777786255, -350.89237344264984
 1.7063880514164808E9, -450.4634698629379, -622.3193526268005, -488.28133821487427, -273.3418079614639
 1.7063880514164808E9, -472.72335439920425, -611.7877943515778, -486.1271558403969, -248.20968025922775
 1.7063880514299924E9, -583.5440698862076, -620.4045238494873, -450.94217705726624, -338.2066327929497
 1.7063880514299924E9, -499.29160368442535, -632.8509109020233, -478.46784073114395, -316.6648090481758
 1.706388051446149E9, -451.6602378487587, -622.3193526268005, -498.5735428929329, -240.55036514997482
 1.706388051446149E9, -573.7305724024773, -620.6438774466515, -463.1492105126381, -308.5267867445946
 1.70638805144651E9, -553.3855166435242, -636.6805684566498, -472.72335439920425, -350.1743126511574
 1.70638805144651E9, -444.2402763366699, -628.7818997502327, -501.92449325323105, -250.6032162308693
 1.706388051460333E9, -530.8862785100937, -618.0109878778458, -476.7923655509949, -274.5385759472847
 1.706388051460333E9, -579.9537659287453, -625.6703029870987, -453.57506662607193, -350.6530198454857
 1.7063880514761052E9, -469.8511112332344, -634.7657396793365, -488.99939900636673, -274.29922235012054
 1.7063880514761052E9, -487.5632774233818, -626.149010181427, -480.8613767027855, -238.6355363726616
 1.7063880514766774E9, -591.2033849954605, -622.7980598211288, -449.9847626686096, -340.83952236175537
 1.7063880514766774E9, -506.2328580021858, -633.3296180963516, -478.46784073114395, -318.10093063116074
 1.7063880514901571E9, -453.3357130289078, -618.7290486693382, -495.4619461297989, -229.7794532775879
 1.7063880514901571E9, -575.4060475826263, -623.5161206126213, -467.45757526159286, -308.2874331474304
 1.7063880515058587E9, -547.8803839087486, -631.6541429162025, -469.61175763607025, -344.908533513546
 1.7063880515058587E9, -447.3518730998039, -628.5425461530685, -493.7864709496498, -239.35359716415405
 1.7063880515065684E9, -534.2372288703918, -619.2077558636665, -468.65434324741364, -263.76766407489777
 1.7063880515065684E9, -580.4324731230736, -622.7980598211288, -446.63381230831146, -341.55758315324783
 1.7063880515200589E9, -451.6602378487587, -612.7452087402344, -481.3400838971138, -265.44313925504684
 1.7063880515200589E9, -478.7071943283081, -607.2400760054588, -476.7923655509949, -232.17298924922943
 1.7063880515357852E9, -590.0066170096397, -616.5748662948608, -443.7615691423416, -333.18020725250244
 1.7063880515357852E9, -500.0096644759178, -621.8406454324722, -473.68076878786087, -307.09066516160965
 1.706388051536494E9, -456.2079561948776, -617.0535734891891, -483.4942662715912, -221.4020773768425
 1.706388051536494E9, -571.5763900279999, -616.814219892025, -451.89959144592285, -301.1068252325058
 1.706388051550279E9, -545.2474943399429, -627.5851317644119, -452.85700583457947, -328.87184250354767
 1.706388051550279E9, -447.11251950263977, -621.8406454324722, -490.91422778367996, -236.72070759534836
 1.706388051566115E9, -535.6733504533768, -617.7716342806816, -468.1756360530853, -262.81024968624115
 1.706388051566115E9, -574.6879867911339, -623.7554742097855, -452.6176522374153, -351.84978783130646
 1.7063880515665495E9, -465.54274648427963, -634.7657396793365, -491.6322885751724, -274.29922235012054
 1.7063880515665495E9, -490.1961669921875, -622.5587062239647, -481.10073029994965, -241.7471331357956
 1.7063880515802617E9, -590.9640313982964, -618.0109878778458, -448.0699338912964, -341.0788759589195
 1.7063880515802617E9, -488.5206918120384, -618.4896950721741, -464.585332095623, -299.4313500523567
 1.706388051596236E9, -450.2241162657738, -618.2503414750099, -483.73361986875534, -229.06139248609543
 1.706388051596236E9, -570.140268445015, -614.8993911147118, -452.85700583457947, -301.5855324268341
 1.7063880515966876E9, -553.14616304636, -622.7980598211288, -461.9524425268173, -336.0524504184723
 1.7063880515966876E9, -444.4796299338341, -622.5587062239647, -483.9729734659195, -230.97622126340866
 1.7063880516103077E9, -522.5089026093483, -608.4368439912796, -455.01118820905685, -258.74123853445053
 1.7063880516103077E9, -568.4647932648659, -614.1813303232193, -441.1286795735359, -338.92469358444214
 1.7063880516258292E9, -448.30928748846054, -616.0961591005325, -477.98913353681564, -260.65606731176376
 1.7063880516258292E9, -481.3400838971138, -612.0271479487419, -468.65434324741364, -230.7368676662445
 1.706388051626496E9, -593.3575673699379, -623.9948278069496, -447.11251950263977, -340.36081516742706
 1.706388051626496E9, -502.40320044755936, -628.5425461530685, -474.39882957935333, -307.56937235593796
 1.7063880516401198E9, -452.37829864025116, -612.7452087402344, -482.2974982857704, -221.8807845711708
 1.7063880516401198E9, -573.7305724024773, -614.6600375175476, -459.3195529580116, -306.8513115644455
 1.706388051655772E9, -546.922969520092, -624.4735350012779, -460.5163209438324, -336.29180401563644
 1.706388051655772E9, -438.25643640756607, -623.7554742097855, -492.3503493666649, -231.45492845773697
 1.706388051656522E9, -527.5353281497955, -609.3942583799362, -466.2608072757721, -261.6134817004204
 1.706388051656522E9, -573.9699259996414, -621.8406454324722, -453.57506662607193, -344.66917991638184
 1.7063880516703646E9, -464.34597849845886, -634.0476788878441, -486.84521663188934, -267.3579680323601
 1.7063880516703646E9, -481.10073029994965, -610.3516727685928, -478.2284871339798, -234.32717162370682
 1.70638805168605E9, -584.0227770805359, -611.3090871572495, -446.8731659054756, -333.4195608496666
 1.70638805168605E9, -484.9303878545761, -613.702623128891, -467.2182216644287, -298.71328926086426
 1.7063880516865587E9, -455.48989540338516, -616.0961591005325, -486.36650943756104, -224.5136741399765
 1.7063880516865587E9, -571.0976828336716, -620.1651702523232, -456.4473097920418, -305.41518998146057
 1.7063880517003343E9, -552.9068094491959, -637.8773364424706, -472.72335439920425, -347.30206948518753
 1.7063880517003343E9, -454.7718346118927, -636.2018612623215, -505.51479721069336, -254.6722273826599
 1.7063880517322378E9, -541.1784831881523, -624.7128885984421, -477.031719148159, -280.7617694735527
 1.7063880517322378E9, -583.0653626918793, -629.7393141388893, -460.5163209438324, -359.26974934339523
 1.706388051732942E9, -459.3195529580116, -632.8509109020233, -496.65871411561966, -284.8307806253433
 1.706388051732942E9, -489.2387526035309, -617.7716342806816, -484.21232706308365, -244.14066910743713
 1.7063880517338204E9, -594.7936889529228, -622.7980598211288, -462.90985691547394, -348.4988374710083
 1.7063880517338204E9, -495.4619461297989, -624.2341814041138, -475.5955975651741, -312.35644429922104
 1.706388051734429E9, -450.7028234601021, -614.4206839203835, -488.0419846177101, -228.1039780974388
 1.706388051734429E9, -569.9009148478508, -613.2239159345627, -457.4047241806984, -306.3726043701172
 1.706388051745082E9, -550.9919806718826, -638.8347508311272, -474.87753677368164, -353.2859094142914
 1.706388051745082E9, -451.42088425159454, -632.8509109020233, -508.3870403766632, -251.32127702236176
 1.7063880517604249E9, -539.5030080080032, -623.7554742097855, -481.8187910914421, -280.04370868206024
 1.7063880517604249E9, -585.4588986635208, -636.9199220538139, -471.5265864133835, -364.5355284810066
 1.706388051775898E9, -468.65434324741364, -637.3986292481422, -496.8980677127838, -278.6075870990753
 1.706388051775898E9, -491.6322885751724, -625.1915957927704, -498.0948356986046, -254.43287378549576
 1.706388051776585E9, -586.8950202465057, -619.6864630579948, -461.71308892965317, -347.0627158880234
 1.706388051776585E9, -503.5999684333801, -636.2018612623215, -483.73361986875534, -311.87773710489273
 1.70638805179025E9, -454.53248101472855, -618.9684022665024, -493.06841015815735, -233.60911083221436
 1.70638805179025E9, -582.8260090947151, -626.149010181427, -467.2182216644287, -320.2551130056381
 1.7063880518059072E9, -560.805478155613, -639.3134580254555, -477.7497799396515, -352.5678486227989
 1.7063880518059072E9, -457.8834313750267, -633.3296180963516, -501.92449325323105, -244.3800227046013
 1.7063880518068168E9, -550.9919806718826, -628.0638389587402, -486.84521663188934, -282.67659825086594
 1.7063880518068168E9, -593.1182137727737, -637.8773364424706, -475.35624396800995, -370.04066121578217
 1.7063880518203783E9, -474.87753677368164, -640.0315188169479, -498.81289649009705, -281.7191838622093
 1.7063880518203783E9, -486.6058630347252, -613.4632695317268, -483.73361986875534, -238.15682917833328
 1.7063880518357973E9, -593.3575673699379, -624.9522421956062, -459.3195529580116, -342.03629034757614
 1.7063880518357973E9, -499.29160368442535, -624.7128885984421, -477.51042634248734, -305.41518998146057
 1.70638805183652E9, -462.1917961239815, -622.0799990296364, -494.2651781439781, -231.93363565206528
 1.70638805183652E9, -567.7467324733734, -607.0007224082947, -462.1917961239815, -312.83515149354935
 1.7063880518500488E9, -539.0243008136749, -628.7818997502327, -467.9362824559212, -342.99370473623276
 1.7063880518500488E9, -437.5383756160736, -615.8568055033684, -496.8980677127838, -242.2258403301239
 1.7063880518662286E9, -544.5294335484505, -620.8832310438156, -484.69103425741196, -286.9849629998207
 1.7063880518662286E9, -592.8788601756096, -639.0741044282913, -481.10073029994965, -381.2902802824974
 1.706388051866675E9, -467.2182216644287, -637.6379828453064, -505.51479721069336, -287.463670194149
 1.706388051866675E9, -497.6161285042763, -625.1915957927704, -495.9406533241272, -248.68838745355606
 1.7063880518800435E9, -597.1872249245644, -623.5161206126213, -458.362138569355, -345.14788711071014
 1.7063880518800435E9, -498.0948356986046, -624.7128885984421, -477.98913353681564, -300.1494108438492
 1.706388051895792E9, -457.16537058353424, -616.3355126976967, -489.95681339502335, -227.38591730594635
 1.706388051895792E9, -577.7995835542679, -621.1225846409798, -456.2079561948776, -309.9629083275795
 1.7063880518965073E9, -545.0081407427788, -630.4573749303818, -469.13305044174194, -339.1640471816063
 1.7063880518965073E9, -440.6499723792076, -622.7980598211288, -501.2064324617386, -238.6355363726616
 1.7063880519104354E9, -536.3914112448692, -612.9845623373985, -467.45757526159286, -271.18762558698654
 1.7063880519104354E9, -584.9801914691925, -626.3883637785912, -462.1917961239815, -358.7910421490669
 1.7063880519258277E9, -462.6705033183098, -630.2180213332176, -488.28133821487427, -271.66633278131485
 1.7063880519258277E9, -485.8878022432327, -613.702623128891, -480.14331591129303, -241.02907234430313
 1.7063880519264803E9, -599.1020537018776, -628.7818997502327, -459.5589065551758, -345.3872407078743
 1.7063880519264803E9, -511.4986371397972, -641.706993997097, -483.4942662715912, -313.0745050907135
 1.7063880519401827E9, -467.9362824559212, -625.9096565842628, -500.0096644759178, -232.17298924922943
 1.7063880519401827E9, -578.7569979429245, -616.5748662948608, -467.9362824559212, -323.12735617160797
 1.7063880519561057E9, -543.3326655626297, -622.7980598211288, -464.1066249012947, -340.6001687645912
 1.7063880519561057E9, -453.8144202232361, -627.3457781672478, -505.7541508078575, -248.20968025922775
 1.7063880519566693E9, -547.1623231172562, -624.4735350012779, -473.68076878786087, -280.04370868206024
 1.7063880519566693E9, -588.5704954266548, -631.8934965133667, -461.9524425268173, -362.38134610652924
 1.7063880519700353E9, -469.3724040389061, -636.2018612623215, -498.33418929576874, -272.3843935728073
 1.7063880519700353E9, -501.2064324617386, -626.8670709729195, -499.29160368442535, -256.8264097571373
 1.7063880519857545E9, -603.1710648536682, -626.8670709729195, -461.473735332489, -353.0465558171272
 1.7063880519857545E9, -500.7277252674103, -628.0638389587402, -482.05814468860626, -312.1170907020569
 1.7063880519864688E9, -491.1535813808441, -639.7921652197838, -500.7277252674103, -236.9600611925125
 1.7063880519864688E9, -601.9742968678474, -631.4147893190384, -464.585332095623, -314.98933386802673
 1.7063880520000727E9, -562.2415997385979, -641.706993997097, -475.5955975651741, -350.1743126511574
 1.7063880520000727E9, -471.28723281621933, -643.1431155800819, -509.10510116815567, -247.73097306489944
 1.706388052016082E9, -533.2798144817352, -605.3252472281456, -460.5163209438324, -261.6134817004204
 1.706388052016082E9, -594.0756281614304, -632.372203707695, -462.43114972114563, -352.5678486227989
 1.706388052016565E9, -478.7071943283081, -636.9199220538139, -487.5632774233818, -263.76766407489777
 1.706388052016565E9, -514.3708803057671, -632.1328501105309, -497.85548210144043, -252.75739860534668
 1.70638805203016E9, -618.4896950721741, -640.2708724141121, -468.8936968445778, -354.00397020578384
 1.70638805203016E9, -517.2431234717369, -638.8347508311272, -489.47810620069504, -315.94674825668335
 1.7063880520465088E9, -470.3298184275627, -631.8934965133667, -500.96707886457443, -240.55036514997482
 1.7063880520465088E9, -603.6497720479965, -636.6805684566498, -469.8511112332344, -323.84541696310043
 1.7063880520608008E9, -566.3106108903885, -642.1857011914253, -484.9303878545761, -355.2007381916046
 1.7063880520608008E9, -465.54274648427963, -633.8083252906799, -504.7967364192009, -247.9703266620636
 1.7063880520615444E9, -542.1358975768089, -611.3090871572495, -461.9524425268173, -269.03344321250916
 1.7063880520615444E9, -574.4486331939697, -616.0961591005325, -453.0963594317436, -345.8659479022026
 1.7063880520750513E9, -466.50016087293625, -625.6703029870987, -489.7174597978592, -268.55473601818085
 1.7063880520750513E9, -506.9509187936783, -620.8832310438156, -488.0419846177101, -249.64580184221268
 1.7063880520908368E9, -505.7541508078575, -631.8934965133667, -485.16974145174026, -308.2874331474304
 1.7063880520908368E9, -471.0478792190552, -624.7128885984421, -495.9406533241272, -233.8484644293785
 1.7063880520914884E9, -580.9111803174019, -618.2503414750099, -460.5163209438324, -319.7764058113098
 1.7063880520914884E9, -550.034566283226, -633.5689716935158, -471.5265864133835, -343.2330583333969
 1.706388052105102E9, -458.60149216651917, -623.2767670154572, -496.65871411561966, -240.78971874713898
 1.706388052105102E9, -549.7952126860619, -622.7980598211288, -475.35624396800995, -271.905686378479
 1.7063880521211915E9, -588.3311418294907, -636.9199220538139, -458.60149216651917, -345.8659479022026
 1.7063880521211915E9, -476.5530119538307, -638.595397233963, -500.4883716702461, -271.4269791841507
 1.7063880521216068E9, -502.40320044755936, -619.925816655159, -480.8613767027855, -240.07165795564651
 1.7063880521216068E9, -611.3090871572495, -636.2018612623215, -466.97886806726456, -356.8762133717537
 1.7063880521354117E9, -505.03609001636505, -628.7818997502327, -480.14331591129303, -305.6545435786247
 1.7063880521354117E9, -475.1168903708458, -626.149010181427, -500.24901807308197, -237.91747558116913
 1.706388052150782E9, -586.6556666493416, -618.0109878778458, -459.0801993608475, -312.1170907020569
 1.706388052150782E9, -561.0448317527771, -631.4147893190384, -472.4840008020401, -339.40340077877045
 1.7063880521516974E9, -448.0699338912964, -627.5851317644119, -500.0096644759178, -244.8587298989296
 1.7063880521516974E9, -548.8377982974052, -618.2503414750099, -468.8936968445778, -277.1714655160904
 1.706388052165126E9, -584.7408378720284, -627.8244853615761, -454.7718346118927, -346.8233622908592
 1.706388052165126E9, -463.1492105126381, -622.3193526268005, -482.2974982857704, -257.54447054862976
 1.7063880521808288E9, -502.1638468503952, -618.2503414750099, -483.9729734659195, -243.18325471878052
 1.7063880521808288E9, -605.5646008253098, -628.7818997502327, -458.12278497219086, -346.8233622908592
 1.7063880521815116E9, -501.2064324617386, -633.8083252906799, -484.21232706308365, -303.02165400981903
 1.7063880521815116E9, -466.7395144701004, -620.4045238494873, -497.85548210144043, -232.41234284639359
 1.706388052195112E9, -587.1343738436699, -613.702623128891, -455.96860259771347, -314.7499802708626
 1.706388052195112E9, -543.5720191597939, -620.6438774466515, -470.09046483039856, -337.4885720014572
 1.7063880522107563E9, -451.42088425159454, -620.8832310438156, -491.1535813808441, -243.66196191310883
 1.7063880522107563E9, -543.0933119654655, -609.3942583799362, -468.1756360530853, -274.5385759472847
 1.7063880522114444E9, -581.150533914566, -627.5851317644119, -449.027348279953, -347.78077667951584
 1.7063880522114444E9, -459.5589065551758, -621.3619382381439, -488.5206918120384, -264.7250784635544
 1.7063880522251432E9, -484.4516806602478, -600.0594680905342, -475.1168903708458, -234.56652522087097
 1.7063880522251432E9, -584.0227770805359, -611.0697335600853, -444.4796299338341, -341.55758315324783
 1.7063880522410975E9, -486.84521663188934, -613.2239159345627, -473.20206159353256, -300.38876444101334
 1.7063880522410975E9, -443.52221554517746, -601.9742968678474, -477.98913353681564, -223.07755255699158
 1.706388052241648E9, -573.7305724024773, -607.9581367969513, -446.63381230831146, -311.15967631340027
 1.706388052241648E9, -537.58817923069, -614.8993911147118, -460.0376137495041, -336.0524504184723
 1.7063880522560189E9, -447.83058029413223, -619.925816655159, -494.2651781439781, -240.31101155281067
 1.7063880522560189E9, -541.1784831881523, -607.9581367969513, -467.2182216644287, -273.82051515579224
 1.706388052287438E9, -578.7569979429245, -618.2503414750099, -453.0963594317436, -346.8233622908592
 1.706388052287438E9, -458.362138569355, -618.0109878778458, -483.9729734659195, -262.0921888947487
 1.706388052287851E9, -502.1638468503952, -619.6864630579948, -483.25491267442703, -248.20968025922775
 1.706388052287851E9, -592.6395065784454, -610.3516727685928, -444.9583371281624, -346.58400869369507
 1.706388052288628E9, -493.06841015815735, -625.1915957927704, -478.7071943283081, -308.04807955026627
 1.706388052288628E9, -462.1917961239815, -617.2929270863533, -487.5632774233818, -227.38591730594635
 1.7063880522893312E9, -582.3473019003868, -609.8729655742645, -449.26670187711716, -312.83515149354935
 1.7063880522893312E9, -537.58817923069, -620.8832310438156, -459.0801993608475, -327.91442811489105
 1.7063880523001113E9, -445.915751516819, -623.2767670154572, -493.06841015815735, -237.43876838684082
 1.7063880523001113E9, -540.9391295909882, -610.1123191714287, -469.13305044174194, -273.82051515579224
 1.7063880523152885E9, -577.3208763599396, -624.9522421956062, -454.05377382040024, -349.69560545682907
 1.7063880523152885E9, -454.05377382040024, -623.037413418293, -488.0419846177101, -261.6134817004204
 1.7063880523313425E9, -483.25491267442703, -610.8303799629211, -473.4414151906967, -240.31101155281067
 1.7063880523313425E9, -589.2885562181473, -616.5748662948608, -443.2828619480133, -344.1904727220535
 1.7063880523316796E9, -493.06841015815735, -622.7980598211288, -482.05814468860626, -302.0642396211624
 1.7063880523316796E9, -455.250541806221, -611.3090871572495, -488.0419846177101, -229.54009968042374
 1.7063880523452256E9, -573.4912188053131, -611.3090871572495, -454.2931274175644, -315.2286874651909
 1.7063880523452256E9, -534.9552896618843, -625.1915957927704, -463.86727130413055, -332.9408536553383
 1.7063880523607397E9, -443.7615691423416, -623.9948278069496, -500.4883716702461, -237.67812198400497
 1.7063880523607397E9, -542.1358975768089, -616.814219892025, -468.8936968445778, -278.128879904747
 1.7063880523614872E9, -585.2195450663567, -631.1754357218742, -456.4473097920418, -350.41366624832153
 1.7063880523614872E9, -456.9260169863701, -621.1225846409798, -481.10073029994965, -255.15093457698822
 1.7063880523750603E9, -489.2387526035309, -606.7613688111305, -468.4149896502495, -232.41234284639359
 1.7063880523750603E9, -589.0492026209831, -615.1387447118759, -446.15510511398315, -336.5311576128006
 1.706388052391011E9, -488.99939900636673, -622.5587062239647, -471.5265864133835, -300.38876444101334
 1.706388052391011E9, -463.6279177069664, -617.2929270863533, -484.4516806602478, -229.54009968042374
 1.7063880524059317E9, -580.4324731230736, -614.1813303232193, -452.37829864025116, -311.15967631340027
 1.7063880524059317E9, -550.9919806718826, -632.6115573048592, -466.2608072757721, -333.18020725250244
 1.706388052406652E9, -457.4047241806984, -635.9625076651573, -493.7864709496498, -238.15682917833328
 1.706388052406652E9, -548.8377982974052, -612.5058551430702, -465.54274648427963, -278.6075870990753
 1.7063880524207568E9, -583.5440698862076, -629.260606944561, -464.34597849845886, -358.07298135757446
 1.7063880524207568E9, -468.8936968445778, -633.3296180963516, -500.7277252674103, -274.77792954444885
 1.7063880524214644E9, -510.0625155568123, -631.6541429162025, -497.85548210144043, -260.65606731176376
 1.7063880524214644E9, -600.5381752848625, -634.0476788878441, -462.90985691547394, -354.96138459444046
 1.7063880524351678E9, -492.11099576950073, -621.8406454324722, -475.35624396800995, -296.798460483551
 1.7063880524351678E9, -460.0376137495041, -616.0961591005325, -494.7438853383064, -229.30074608325958
 1.706388052451334E9, -577.7995835542679, -611.7877943515778, -452.85700583457947, -311.87773710489273
 1.706388052451334E9, -539.5030080080032, -627.1064245700836, -465.7821000814438, -337.9672791957855
 1.7063880524516547E9, -452.138945043087, -625.4309493899345, -493.7864709496498, -237.19941478967667
 1.7063880524516547E9, -542.3752511739731, -614.4206839203835, -461.473735332489, -275.25663673877716
 1.7063880524652417E9, -575.4060475826263, -624.9522421956062, -458.362138569355, -356.15815258026123
 1.7063880524652417E9, -475.35624396800995, -631.6541429162025, -494.9832389354706, -265.2037856578827
 1.7063880524808018E9, -518.6792450547218, -636.6805684566498, -497.3767749071121, -258.9805921316147
 1.7063880524808018E9, -605.3252472281456, -630.6967285275459, -457.16537058353424, -349.69560545682907
 1.7063880524815104E9, -501.44578605890274, -638.1166900396347, -489.95681339502335, -306.8513115644455
 1.7063880524815104E9, -468.4149896502495, -620.6438774466515, -492.11099576950073, -229.06139248609543
 1.7063880524950936E9, -575.6454011797905, -615.6174519062042, -450.2241162657738, -310.4416155219078
 1.7063880524950936E9, -544.2900799512863, -626.3883637785912, -469.8511112332344, -333.18020725250244
 1.7063880525111156E9, -449.74540907144547, -627.8244853615761, -495.22259253263474, -234.56652522087097
 1.7063880525111156E9, -547.6410303115845, -616.814219892025, -470.56917202472687, -281.9585374593735
 1.7063880525116773E9, -575.8847547769547, -628.3031925559044, -465.3033928871155, -359.26974934339523
 1.7063880525116773E9, -458.12278497219086, -628.7818997502327, -490.91422778367996, -263.5283104777336
 1.706388052525541E9, -510.30186915397644, -624.7128885984421, -488.28133821487427, -262.33154249191284
 1.706388052525541E9, -602.6923576593399, -628.0638389587402, -461.473735332489, -358.3123349547386
 1.7063880525408113E9, -509.3444547653198, -638.8347508311272, -488.5206918120384, -312.83515149354935
 1.7063880525408113E9, -475.5955975651741, -622.5587062239647, -496.65871411561966, -240.78971874713898
 1.706388052541567E9, -588.0917882323265, -625.9096565842628, -464.585332095623, -323.6060633659363
 1.706388052541567E9, -539.5030080080032, -629.9786677360535, -467.45757526159286, -338.685339987278
 1.7063880525553465E9, -435.3841932415962, -610.8303799629211, -478.2284871339798, -225.71044212579727
 1.7063880525553465E9, -560.3267709612846, -628.3031925559044, -482.53685188293457, -298.4739356637001
 1.70638805257109E9, -600.5381752848625, -649.8450163006783, -475.1168903708458, -369.56195402145386
 1.70638805257109E9, -461.473735332489, -623.7554742097855, -485.8878022432327, -257.54447054862976
 1.7063880525715797E9, -520.8334274291992, -623.9948278069496, -478.46784073114395, -241.02907234430313
 1.7063880525715797E9, -621.3619382381439, -629.9786677360535, -458.362138569355, -340.1214615702629
 1.7063880525851765E9, -524.9024385809898, -638.595397233963, -477.98913353681564, -285.30948781967163
 1.7063880525851765E9, -518.4398914575577, -644.5792371630669, -491.39293497800827, -216.1362982392311
 1.7063880526008604E9, -649.8450163006783, -649.1269555091858, -468.4149896502495, -303.7397148013115
 1.7063880526008604E9, -610.8303799629211, -660.1372209787369, -476.0743047595024, -317.3828698396683
 1.7063880526015165E9, -517.0037698745728, -650.8024306893349, -501.92449325323105, -209.4343975186348
 1.7063880526015165E9, -622.7980598211288, -647.6908339262009, -485.8878022432327, -263.76766407489777
 1.7063880526153576E9, -658.9404529929161, -667.0784752964973, -477.031719148159, -339.88210797309875
 1.7063880526153576E9, -542.6146047711372, -669.4720112681389, -507.19027239084244, -248.20968025922775
 1.7063880526310303E9, -581.3898875117302, -657.264977812767, -489.7174597978592, -228.82203888893127
 1.7063880526310303E9, -674.4984368085861, -661.0946353673935, -469.61175763607025, -330.7866712808609
 1.7063880526316094E9, -566.5499644875526, -659.6585137844086, -489.47810620069504, -282.1978910565376
 1.7063880526316094E9, -530.1682177186012, -646.0153587460518, -499.77031087875366, -210.3918119072914
 1.7063880526451888E9, -636.6805684566498, -635.0050932765007, -456.9260169863701, -289.37849897146225
 1.7063880526451888E9, -595.9904569387436, -643.6218227744102, -469.8511112332344, -313.0745050907135
 1.7063880526608522E9, -503.1212612390518, -642.9037619829178, -506.9509187936783, -219.2478950023651
 1.7063880526608522E9, -598.8627001047134, -637.3986292481422, -479.6646087169647, -270.4695647954941
 1.7063880526617053E9, -631.1754357218742, -649.6056627035141, -466.50016087293625, -339.6427543759346
 1.7063880526617053E9, -510.5412227511406, -651.041784286499, -498.81289649009705, -245.8161442875862
 1.7063880526751757E9, -548.5984447002411, -635.7231540679932, -478.94654792547226, -228.82203888893127
 1.7063880526751757E9, -653.9140274524689, -647.4514803290367, -461.9524425268173, -332.46214646101
 1.7063880526912668E9, -538.3062400221825, -641.4676403999329, -482.7762054800987, -276.93211191892624
 1.7063880526912668E9, -514.6102339029312, -642.9037619829178, -493.7864709496498, -209.4343975186348
 1.7063880526917472E9, -646.7334195375443, -650.8024306893349, -470.56917202472687, -309.72355473041534
 1.7063880526917472E9, -592.6395065784454, -652.2385522723198, -474.87753677368164, -323.6060633659363
 1.706388052705142E9, -497.13742130994797, -644.1005299687386, -497.3767749071121, -216.85435903072357
 1.706388052705142E9, -595.9904569387436, -631.8934965133667, -467.45757526159286, -259.459299325943
 1.706388052720764E9, -630.4573749303818, -649.36630910635, -467.2182216644287, -337.72792559862137
 1.706388052720764E9, -514.1315267086029, -660.1372209787369, -510.30186915397644, -258.5018849372864
 1.7063880527215145E9, -564.6351357102394, -652.477905869484, -501.92449325323105, -246.05549788475037
 1.7063880527215145E9, -661.3339889645576, -661.812696158886, -471.76594001054764, -344.908533513546
 1.7063880527353735E9, -544.5294335484505, -656.5469170212746, -489.7174597978592, -288.89979177713394
 1.7063880527353735E9, -514.6102339029312, -644.3398835659027, -495.22259253263474, -213.0247014760971
 1.7063880527507796E9, -641.4676403999329, -651.041784286499, -471.28723281621933, -314.5106266736984
 1.7063880527507796E9, -594.7936889529228, -665.6423537135124, -489.95681339502335, -338.92469358444214
 1.7063880527515435E9, -507.19027239084244, -660.6159281730652, -515.807001888752, -239.5929507613182
 1.7063880527515435E9, -596.2298105359077, -642.9037619829178, -482.53685188293457, -280.04370868206024
 1.706388052765274E9, -604.8465400338173, -636.9199220538139, -464.585332095623, -339.40340077877045
 1.706388052765274E9, -498.0948356986046, -655.8288562297821, -506.71156519651413, -262.33154249191284
 1.7063880527808874E9, -541.1784831881523, -634.2870324850082, -481.10073029994965, -236.72070759534836
 1.7063880527808874E9, -629.4999605417252, -639.3134580254555, -468.1756360530853, -337.4885720014572
 1.7063880527815785E9, -535.9127040505409, -655.1107954382896, -494.9832389354706, -297.27716767787933
 1.7063880527815785E9, -508.14768677949905, -646.0153587460518, -508.14768677949905, -238.87488996982574
 1.7063880527953534E9, -630.9360821247101, -648.8876019120216, -469.13305044174194, -318.3402842283249
 1.7063880527953534E9, -574.2092795968056, -650.5630770921707, -481.10073029994965, -325.76024574041367
 1.706388052810832E9, -498.81289649009705, -656.3075634241104, -517.9611842632294, -239.35359716415405
 1.706388052810832E9, -614.1813303232193, -658.4617457985878, -489.95681339502335, -289.85720616579056
 1.706388052811776E9, -627.1064245700836, -662.0520497560501, -483.0155590772629, -354.7220309972763
 1.706388052811776E9, -496.65871411561966, -653.4353202581406, -510.30186915397644, -259.9380065202713
 1.7063880528253763E9, -544.0507263541222, -641.2282868027687, -495.22259253263474, -249.64580184221268
 1.7063880528253763E9, -642.4250547885895, -651.9991986751556, -469.61175763607025, -346.58400869369507
 1.7063880528409083E9, -532.5617536902428, -655.3501490354538, -499.0522500872612, -302.5429468154907
 1.7063880528409083E9, -501.6851396560669, -640.7495796084404, -492.8290565609932, -222.12013816833496
 1.7063880528414779E9, -629.7393141388893, -651.5204914808273, -468.65434324741364, -321.69123458862305
 1.7063880528414779E9, -586.6556666493416, -662.0520497560501, -489.47810620069504, -340.83952236175537
 1.7063880528551347E9, -508.62639397382736, -663.2488177418709, -518.918598651886, -247.25226587057114
 1.7063880528551347E9, -593.3575673699379, -637.3986292481422, -484.69103425741196, -284.8307806253433
 1.7063880528875527E9, -602.2136504650116, -639.0741044282913, -466.7395144701004, -344.4298263192177
 1.7063880528875527E9, -479.42525511980057, -633.0902644991875, -497.85548210144043, -254.43287378549576
 1.7063880528879893E9, -529.9288641214371, -628.3031925559044, -482.7762054800987, -244.61937630176544
 1.7063880528879893E9, -625.4309493899345, -638.1166900396347, -456.68666338920593, -339.88210797309875
 1.7063880528887413E9, -510.5412227511406, -641.2282868027687, -488.28133821487427, -290.8146205544472
 1.7063880528887413E9, -499.77031087875366, -643.3824691772461, -497.6161285042763, -229.30074608325958
 1.7063880528894374E9, -613.4632695317268, -628.3031925559044, -457.4047241806984, -312.1170907020569
 1.7063880528894374E9, -557.4545277953148, -631.6541429162025, -468.65434324741364, -318.8189914226532
 1.7063880529001012E9, -474.6381831765175, -634.2870324850082, -496.4193605184555, -222.35949176549911
 1.7063880529001012E9, -576.1241083741188, -628.0638389587402, -463.86727130413055, -272.14503997564316
 1.7063880529157197E9, -597.6659321188927, -640.2708724141121, -460.0376137495041, -341.55758315324783
 1.7063880529157197E9, -476.0743047595024, -638.595397233963, -488.0419846177101, -252.27869141101837
 1.706388052930842E9, -523.7056705951691, -629.260606944561, -483.25491267442703, -245.09808349609375
 1.706388052930842E9, -616.3355126976967, -638.8347508311272, -459.5589065551758, -345.3872407078743
 1.7063880529315524E9, -507.4296259880066, -636.2018612623215, -480.62202310562134, -287.463670194149
 1.7063880529315524E9, -484.4516806602478, -628.3031925559044, -486.84521663188934, -221.16272377967834
 1.7063880529455822E9, -600.0594680905342, -627.3457781672478, -456.2079561948776, -318.3402842283249
 1.7063880529455822E9, -550.034566283226, -636.6805684566498, -470.56917202472687, -322.64864897727966
 1.70638805296082E9, -462.1917961239815, -629.7393141388893, -489.2387526035309, -219.72660219669342
 1.70638805296082E9, -555.5396990180016, -613.9419767260551, -457.64407777786255, -270.9482719898224
 1.706388052961596E9, -585.4588986635208, -631.4147893190384, -457.8834313750267, -344.908533513546
 1.706388052961596E9, -468.8936968445778, -632.372203707695, -490.1961669921875, -249.88515543937683
 1.7063880529751616E9, -525.8598529696465, -622.3193526268005, -470.808525621891, -236.72070759534836
 1.7063880529751616E9, -593.1182137727737, -620.6438774466515, -448.30928748846054, -334.3769752383232
 1.7063880529908266E9, -503.5999684333801, -633.3296180963516, -484.21232706308365, -290.33591336011887
 1.7063880529908266E9, -476.31365835666656, -619.925816655159, -486.6058630347252, -218.2904806137085
 1.7063880529915211E9, -600.5381752848625, -625.1915957927704, -453.0963594317436, -309.9629083275795
 1.7063880529915211E9, -546.4442623257637, -637.1592756509781, -467.2182216644287, -321.69123458862305
 1.7063880530052364E9, -486.1271558403969, -651.041784286499, -502.40320044755936, -234.32717162370682
 1.7063880530052364E9, -578.9963515400887, -638.1166900396347, -482.05814468860626, -291.0539741516113
 1.7063880530208614E9, -566.7893180847168, -617.0535734891891, -445.67639791965485, -334.3769752383232
 1.7063880530208614E9, -432.5119500756264, -607.7187831997871, -472.24464720487595, -238.39618277549744
 1.706388053021614E9, -499.0522500872612, -611.7877943515778, -477.51042634248734, -242.94390112161636
 1.706388053021614E9, -551.7100414633751, -586.8950202465057, -425.33134216070175, -327.1963673233986
 1.706388053035114E9, -448.78799468278885, -603.8891256451607, -466.97886806726456, -286.5062558054924
 1.706388053035114E9, -415.2784910798073, -576.1241083741188, -443.7615691423416, -199.62090003490448
 1.7063880530671215E9, -534.2372288703918, -583.0653626918793, -419.58685582876205, -303.7397148013115
 1.7063880530671215E9, -469.13305044174194, -577.0815227627754, -430.8364748954773, -301.5855324268341
 1.7063880530678613E9, -372.4341971874237, -563.917074918747, -450.4634698629379, -209.67375111579895
 1.7063880530678613E9, -469.13305044174194, -552.1887486577034, -413.6030158996582, -258.5018849372864
 1.706388053068607E9, -495.70129972696304, -563.917074918747, -410.4914191365242, -325.0421849489212
 1.706388053068607E9, -396.3695569038391, -587.6130810379982, -462.43114972114563, -249.88515543937683
 1.7063880530694375E9, -425.33134216070175, -558.8906493782997, -441.8467403650284, -229.7794532775879
 1.7063880530694375E9, -517.4824770689011, -572.2944508194923, -415.7571982741356, -333.8982680439949
 1.7063880530958369E9, -387.9921810030937, -563.917074918747, -449.9847626686096, -213.50340867042542
 1.7063880530958369E9, -512.4560515284538, -567.9860860705376, -423.8952205777168, -313.5532122850418
 1.7063880530965052E9, -464.1066249012947, -587.6130810379982, -441.6073867678642, -336.5311576128006
 1.7063880530965052E9, -366.45035725831985, -566.7893180847168, -449.74540907144547, -224.5136741399765
 1.7063880531101627E9, -479.42525511980057, -571.815743625164, -432.9906572699547, -278.84694069623947
 1.7063880531101627E9, -514.6102339029312, -591.4427385926247, -433.9480716586113, -355.2007381916046
 1.7063880531261268E9, -387.9921810030937, -585.2195450663567, -465.54274648427963, -258.2625313401222
 1.7063880531261268E9, -441.1286795735359, -580.9111803174019, -454.7718346118927, -252.03933781385422
 1.7063880531266637E9, -539.9817152023315, -594.7936889529228, -435.3841932415962, -362.86005330085754
 1.7063880531266637E9, -428.92164611816406, -594.5543353557587, -463.6279177069664, -301.82488602399826
 1.7063880531400945E9, -415.2784910798073, -592.1607993841171, -478.94654792547226, -247.25226587057114
 1.7063880531400945E9, -536.8701184391975, -598.8627001047134, -445.67639791965485, -342.2756439447403
 1.7063880531557739E9, -488.28133821487427, -610.591026365757, -458.12278497219086, -344.1904727220535
 1.7063880531557739E9, -407.61917597055435, -606.2826616168022, -485.6484486460686, -248.4490338563919
 1.7063880531564925E9, -511.73799073696136, -605.5646008253098, -461.9524425268173, -301.82488602399826
 1.7063880531564925E9, -538.0668864250183, -614.1813303232193, -455.48989540338516, -369.08324682712555
 1.7063880531704617E9, -429.40035331249237, -623.5161206126213, -494.7438853383064, -285.5488414168358
 1.7063880531704617E9, -486.6058630347252, -620.8832310438156, -491.8716421723366, -283.63401263952255
 1.706388053186174E9, -548.5984447002411, -604.6071864366531, -437.29902201890945, -357.8336277604103
 1.706388053186174E9, -433.9480716586113, -600.2988216876984, -466.02145367860794, -302.5429468154907
 1.7063880531865518E9, -413.6030158996582, -587.8524346351624, -466.02145367860794, -229.54009968042374
 1.7063880531865518E9, -543.0933119654655, -594.5543353557587, -438.97449719905853, -328.1537817120552
 1.706388053200137E9, -488.5206918120384, -603.4104184508324, -462.43114972114563, -342.03629034757614
 1.706388053200137E9, -411.9275407195091, -606.2826616168022, -488.7600454092026, -243.42260831594467
 1.706388053216156E9, -513.8921731114388, -601.4955896735191, -458.60149216651917, -303.50036120414734
 1.706388053216156E9, -530.4075713157654, -610.591026365757, -451.1815306544304, -364.29617488384247
 1.7063880532165716E9, -419.8262094259262, -615.6174519062042, -489.7174597978592, -273.1024543642998
 1.7063880532165716E9, -480.3826695084572, -612.2665015459061, -481.8187910914421, -270.4695647954941
 1.7063880532303123E9, -560.805478155613, -613.9419767260551, -457.4047241806984, -363.33876049518585
 1.7063880532303123E9, -451.6602378487587, -616.0961591005325, -482.53685188293457, -312.1170907020569
 1.7063880532460332E9, -432.5119500756264, -602.9317112565041, -487.32392382621765, -249.64580184221268
 1.7063880532460332E9, -555.0609918236732, -605.3252472281456, -450.94217705726624, -332.2227928638458
 1.7063880532466416E9, -503.5999684333801, -615.8568055033684, -471.28723281621933, -347.5414230823517
 1.7063880532466416E9, -423.8952205777168, -617.5322806835175, -500.0096644759178, -254.1935201883316
 1.7063880532603211E9, -529.2108033299446, -612.9845623373985, -466.97886806726456, -302.0642396211624
 1.7063880532603211E9, -551.9493950605392, -622.7980598211288, -455.7292490005493, -359.5091029405594
 1.7063880532762E9, -427.7248781323433, -621.1225846409798, -491.39293497800827, -271.18762558698654
 1.7063880532762E9, -496.18000692129135, -614.6600375175476, -480.3826695084572, -262.81024968624115
 1.7063880532765768E9, -565.592550098896, -614.8993911147118, -456.2079561948776, -360.70587092638016
 1.7063880532765768E9, -468.8936968445778, -629.0212533473969, -488.5206918120384, -311.3990299105644
 1.7063880532902093E9, -451.89959144592285, -620.8832310438156, -494.02582454681396, -248.20968025922775
 1.7063880532902093E9, -573.7305724024773, -616.0961591005325, -459.3195529580116, -341.55758315324783
 1.7063880533059683E9, -515.3282946944237, -627.1064245700836, -476.31365835666656, -348.25948387384415
 1.7063880533059683E9, -444.2402763366699, -631.8934965133667, -509.82316195964813, -255.15093457698822
 1.706388053306483E9, -544.2900799512863, -625.9096565842628, -482.05814468860626, -311.87773710489273
 1.706388053306483E9, -544.5294335484505, -615.8568055033684, -454.2931274175644, -356.15815258026123
 1.7063880533206496E9, -415.7571982741356, -615.6174519062042, -492.58970296382904, -264.2463712692261
 1.7063880533206496E9, -482.05814468860626, -608.1974903941154, -477.98913353681564, -259.9380065202713
 1.706388053335862E9, -572.2944508194923, -612.7452087402344, -448.5486410856247, -359.26974934339523
 1.706388053335862E9, -475.83495116233826, -635.7231540679932, -488.7600454092026, -313.31385868787766
 1.7063880533365786E9, -460.27696734666824, -624.7128885984421, -497.13742130994797, -250.84256982803345
 1.7063880533365786E9, -580.1931195259094, -621.8406454324722, -466.97886806726456, -346.10530149936676
 1.7063880533502617E9, -521.5514882206917, -631.6541429162025, -482.7762054800987, -347.5414230823517
 1.7063880533502617E9, -446.15510511398315, -637.6379828453064, -506.9509187936783, -263.0496032834053
 1.7063880533658292E9, -545.2474943399429, -619.2077558636665, -475.35624396800995, -311.15967631340027
 1.7063880533658292E9, -565.8319036960602, -631.1754357218742, -471.0478792190552, -371.9554899930954
 1.70638805336661E9, -434.66613245010376, -622.0799990296364, -495.70129972696304, -269.99085760116577
 1.70638805336661E9, -490.1961669921875, -609.8729655742645, -476.0743047595024, -266.87926083803177
 1.7063880533805802E9, -571.815743625164, -615.6174519062042, -445.915751516819, -357.354920566082
 1.7063880533805802E9, -469.3724040389061, -626.8670709729195, -485.8878022432327, -306.13325077295303
 1.7063880533958695E9, -480.14331591129303, -636.6805684566498, -505.03609001636505, -257.3051169514656
 1.7063880533958695E9, -577.0815227627754, -623.9948278069496, -467.696928858757, -348.9775446653366
 1.7063880533965356E9, -509.82316195964813, -627.1064245700836, -467.696928858757, -338.92469358444214
 1.7063880533965356E9, -432.03324288129807, -623.2767670154572, -495.22259253263474, -244.3800227046013
 1.7063880534102087E9, -525.141792178154, -600.5381752848625, -463.6279177069664, -301.82488602399826
 1.7063880534102087E9, -544.2900799512863, -624.4735350012779, -460.9950281381607, -369.801307618618
 1.70638805342616E9, -418.62944144010544, -612.9845623373985, -487.0845702290535, -267.59732162952423
 1.70638805342616E9, -478.7071943283081, -610.3516727685928, -467.9362824559212, -256.58705615997314
 1.7063880534267876E9, -569.6615612506866, -613.702623128891, -450.7028234601021, -359.74845653772354
 1.7063880534267876E9, -466.02145367860794, -620.6438774466515, -481.10073029994965, -308.04807955026627
 1.7063880534401016E9, -449.027348279953, -609.8729655742645, -484.9303878545761, -239.5929507613182
 1.7063880534401016E9, -568.9435004591942, -609.3942583799362, -447.3518730998039, -334.8556824326515
 1.7063880534558043E9, -505.2754436135292, -616.5748662948608, -472.4840008020401, -342.7543511390686
 1.7063880534558043E9, -430.11841410398483, -618.7290486693382, -492.8290565609932, -245.57679069042206
 1.7063880534564784E9, -530.8862785100937, -600.7775288820267, -461.473735332489, -294.4049245119095
 1.7063880534564784E9, -559.8480637669563, -633.5689716935158, -467.2182216644287, -366.2110036611557
 1.706388053470296E9, -439.692557990551, -621.3619382381439, -480.14331591129303, -264.2463712692261
 1.706388053470296E9, -500.24901807308197, -619.4471094608307, -479.6646087169647, -266.87926083803177
 1.7063880534863954E9, -576.8421691656113, -628.3031925559044, -465.0640392899513, -370.5193684101105
 1.7063880534863954E9, -470.3298184275627, -631.1754357218742, -491.1535813808441, -307.56937235593796
 1.706388053500785E9, -458.362138569355, -621.3619382381439, -490.6748741865158, -249.64580184221268
 1.706388053500785E9, -568.9435004591942, -617.0535734891891, -455.01118820905685, -341.3182295560837
 1.7063880535014808E9, -504.55738282203674, -620.6438774466515, -467.696928858757, -335.573743224144
 1.7063880535014808E9, -433.23001086711884, -615.1387447118759, -490.1961669921875, -237.67812198400497
 1.7063880535159872E9, -543.3326655626297, -616.814219892025, -468.1756360530853, -297.0378140807152
 1.7063880535159872E9, -555.3003454208374, -626.149010181427, -463.38856410980225, -359.26974934339523
 1.7063880535165424E9, -438.4957900047302, -630.9360821247101, -494.7438853383064, -265.44313925504684
 1.7063880535165424E9, -500.7277252674103, -623.9948278069496, -483.73361986875534, -266.40055364370346
 1.7063880535304787E9, -582.586655497551, -630.2180213332176, -460.5163209438324, -363.57811409235
 1.7063880535304787E9, -477.51042634248734, -633.8083252906799, -491.8716421723366, -309.24484753608704
 1.7063880535460813E9, -466.50016087293625, -621.6012918353081, -490.91422778367996, -245.57679069042206
 1.7063880535460813E9, -593.596920967102, -626.3883637785912, -463.1492105126381, -344.4298263192177
 1.7063880535467007E9, -524.1843777894974, -635.0050932765007, -480.62202310562134, -344.4298263192177
 1.7063880535467007E9, -436.82031482458115, -624.7128885984421, -494.5045317411423, -238.87488996982574
 1.7063880535604725E9, -542.1358975768089, -614.8993911147118, -466.97886806726456, -298.9526428580284
 1.7063880535604725E9, -557.4545277953148, -625.9096565842628, -461.9524425268173, -359.5091029405594
 1.7063880535758283E9, -442.56480115652084, -624.4735350012779, -493.3077637553215, -262.81024968624115
 1.7063880535758283E9, -499.77031087875366, -612.9845623373985, -467.9362824559212, -255.86899536848068
 1.7063880535765278E9, -581.3898875117302, -618.0109878778458, -449.9847626686096, -354.96138459444046
 1.7063880535765278E9, -473.20206159353256, -628.3031925559044, -478.2284871339798, -296.798460483551
 1.7063880535901043E9, -455.48989540338516, -617.2929270863533, -484.69103425741196, -237.67812198400497
 1.7063880535901043E9, -570.8583292365074, -608.9155511856079, -446.3944587111473, -332.46214646101
 1.7063880536057873E9, -511.4986371397972, -616.3355126976967, -463.38856410980225, -326.238952934742
 1.7063880536057873E9, -434.66613245010376, -612.7452087402344, -489.95681339502335, -237.43876838684082
 1.7063880536064885E9, -544.0507263541222, -614.1813303232193, -464.585332095623, -298.4739356637001
 1.7063880536064885E9, -564.6351357102394, -631.1754357218742, -467.2182216644287, -365.7322964668274
 1.7063880536201475E9, -451.1815306544304, -630.6967285275459, -493.7864709496498, -263.5283104777336
 1.7063880536201475E9, -498.5735428929329, -614.1813303232193, -477.7497799396515, -263.28895688056946
 1.7063880536358502E9, -588.3311418294907, -624.7128885984421, -456.9260169863701, -358.7910421490669
 1.7063880536358502E9, -463.1492105126381, -615.8568055033684, -477.7497799396515, -290.0965597629547
 1.706388053636541E9, -460.5163209438324, -612.5058551430702, -486.36650943756104, -239.1142435669899
 1.706388053636541E9, -570.140268445015, -608.4368439912796, -449.5060554742813, -329.350549697876
 1.7063880536501129E9, -517.2431234717369, -623.037413418293, -468.1756360530853, -332.9408536553383
 1.7063880536501129E9, -445.4370443224907, -623.2767670154572, -489.95681339502335, -234.32717162370682
 1.7063880536658087E9, -553.14616304636, -622.3193526268005, -470.56917202472687, -297.75587487220764
 1.7063880536658087E9, -560.0874173641205, -627.8244853615761, -463.86727130413055, -360.466517329216
 1.7063880536665704E9, -449.74540907144547, -628.7818997502327, -498.81289649009705, -268.55473601818085
 1.7063880536665704E9, -508.3870403766632, -616.5748662948608, -477.7497799396515, -259.9380065202713
 1.7063880536804986E9, -579.7144123315811, -619.2077558636665, -455.48989540338516, -356.3975061774254
 1.7063880536804986E9, -482.2974982857704, -634.0476788878441, -490.91422778367996, -307.56937235593796
 1.706388053696309E9, -483.0155590772629, -634.2870324850082, -493.06841015815735, -241.98648673295975
 1.706388053696309E9, -595.033042550087, -632.1328501105309, -465.7821000814438, -337.4885720014572
 1.7063880536967027E9, -537.8275328278542, -639.3134580254555, -476.31365835666656, -334.8556824326515
 1.7063880536967027E9, -459.79826015233994, -635.2444468736649, -504.55738282203674, -242.7045475244522
 1.7063880537102766E9, -548.5984447002411, -612.9845623373985, -463.38856410980225, -299.19199645519257
 1.7063880537102766E9, -555.7790526151657, -625.9096565842628, -461.23438173532486, -357.354920566082
 1.7063880537257993E9, -431.3151820898056, -615.8568055033684, -488.28133821487427, -252.27869141101837
 1.7063880537257993E9, -492.58970296382904, -598.6233465075493, -466.7395144701004, -251.32127702236176
 1.7063880537264807E9, -569.6615612506866, -616.5748662948608, -450.7028234601021, -348.9775446653366
 1.7063880537264807E9, -465.7821000814438, -624.9522421956062, -483.73361986875534, -288.42108458280563
 1.706388053740322E9, -461.473735332489, -611.7877943515778, -488.28133821487427, -236.9600611925125
 1.706388053740322E9, -584.9801914691925, -611.7877943515778, -451.6602378487587, -326.7176601290703
 1.7063880537561662E9, -507.4296259880066, -620.6438774466515, -471.28723281621933, -332.46214646101
 1.7063880537561662E9, -433.9480716586113, -608.1974903941154, -494.7438853383064, -233.13040363788605
 1.7063880537567368E9, -546.2049087285995, -612.5058551430702, -463.1492105126381, -297.5165212750435
 1.7063880537567368E9, -557.6938813924789, -616.3355126976967, -458.8408457636833, -349.9349590539932
 1.7063880537704203E9, -433.469364464283, -615.3780983090401, -490.6748741865158, -250.12450903654099
 1.7063880537704203E9, -504.07867562770844, -612.7452087402344, -474.1594759821892, -255.62964177131653
 1.7063880537857888E9, -590.0066170096397, -624.7128885984421, -466.02145367860794, -358.7910421490669
 1.7063880537857888E9, -463.1492105126381, -612.5058551430702, -486.6058630347252, -290.0965597629547
 1.7063880537865057E9, -448.0699338912964, -603.8891256451607, -480.3826695084572, -226.18914932012558
 1.7063880537865057E9, -567.9860860705376, -602.9317112565041, -437.77772921323776, -318.3402842283249
 1.7063880538004339E9, -512.9347587227821, -621.3619382381439, -463.1492105126381, -318.57963782548904
 1.7063880538004339E9, -437.5383756160736, -614.4206839203835, -482.05814468860626, -224.0349669456482
 1.7063880538160093E9, -542.6146047711372, -600.7775288820267, -449.74540907144547, -279.8043550848961
 1.7063880538160093E9, -552.4281022548676, -614.4206839203835, -454.53248101472855, -344.4298263192177
 1.7063880538165011E9, -447.11251950263977, -628.5425461530685, -496.18000692129135, -253.47545939683914
 1.7063880538165011E9, -512.9347587227821, -624.4735350012779, -476.5530119538307, -258.5018849372864
 1.7063880538302348E9, -585.4588986635208, -622.7980598211288, -452.85700583457947, -350.41366624832153
 1.7063880538302348E9, -472.0052936077118, -625.4309493899345, -480.3826695084572, -287.70302379131317
 1.7063880538458831E9, -474.39882957935333, -626.149010181427, -494.7438853383064, -242.2258403301239
 1.7063880538458831E9, -579.475058734417, -611.5484407544136, -447.11251950263977, -325.0421849489212
 1.7063880538465319E9, -513.1741123199463, -628.5425461530685, -474.1594759821892, -328.87184250354767
 1.7063880538465319E9, -438.97449719905853, -614.1813303232193, -487.0845702290535, -229.54009968042374
 1.7063880538603303E9, -549.5558590888977, -618.7290486693382, -470.09046483039856, -297.0378140807152
 1.7063880538603303E9, -561.5235389471054, -630.6967285275459, -463.1492105126381, -353.2859094142914
 1.7063880538758247E9, -450.94217705726624, -626.6277173757553, -496.8980677127838, -256.8264097571373
 1.7063880538758247E9, -508.14768677949905, -614.1813303232193, -474.87753677368164, -253.236105799675
 1.7063880538764951E9, -578.038937151432, -617.5322806835175, -447.11251950263977, -341.3182295560837
 1.7063880538764951E9, -464.1066249012947, -616.5748662948608, -475.1168903708458, -279.8043550848961
 1.706388053890672E9, -460.9950281381607, -607.0007224082947, -484.69103425741196, -230.7368676662445
 1.706388053890672E9, -589.0492026209831, -619.2077558636665, -462.90985691547394, -340.6001687645912
 1.706388053906222E9, -517.2431234717369, -628.3031925559044, -476.7923655509949, -333.4195608496666
 1.706388053906222E9, -455.48989540338516, -629.4999605417252, -500.4883716702461, -237.67812198400497
 1.7063880539066143E9, -564.3957821130753, -619.925816655159, -464.1066249012947, -292.7294493317604
 1.7063880539066143E9, -569.6615612506866, -635.483800470829, -468.1756360530853, -355.9187989830971
 1.7063880539200897E9, -452.85700583457947, -628.5425461530685, -503.1212612390518, -261.6134817004204
 1.7063880539200897E9, -518.2005378603935, -615.6174519062042, -476.0743047595024, -257.7838241457939
 1.7063880539522142E9, -581.3898875117302, -614.6600375175476, -448.78799468278885, -341.796936750412
 1.7063880539522142E9, -462.90985691547394, -615.3780983090401, -482.05814468860626, -285.78819501399994
 1.7063880539529228E9, -479.6646087169647, -623.9948278069496, -492.3503493666649, -241.7471331357956
 1.7063880539529228E9, -603.6497720479965, -632.8509109020233, -465.54274648427963, -347.30206948518753
 1.7063880539538364E9, -546.4442623257637, -656.3075634241104, -503.5999684333801, -353.0465558171272
 1.7063880539538364E9, -461.71308892965317, -638.3560436367989, -507.66897958517075, -247.9703266620636
 1.7063880539543624E9, -560.0874173641205, -616.3355126976967, -472.24464720487595, -297.9952284693718
 1.7063880539543624E9, -538.3062400221825, -601.9742968678474, -438.0170828104019, -328.87184250354767
 1.7063880539651237E9, -428.6822925209999, -613.4632695317268, -481.8187910914421, -242.94390112161636
 1.7063880539651237E9, -492.58970296382904, -594.7936889529228, -457.64407777786255, -244.8587298989296
 1.7063880539800813E9, -579.7144123315811, -618.2503414750099, -446.63381230831146, -343.9511191248894
 1.7063880539800813E9, -468.1756360530853, -623.5161206126213, -473.4414151906967, -280.7617694735527
 1.7063880539958265E9, -469.3724040389061, -614.6600375175476, -483.25491267442703, -227.6252709031105
 1.7063880539958265E9, -590.2459706068039, -615.3780983090401, -449.26670187711716, -332.9408536553383
 1.706388053996621E9, -509.82316195964813, -613.9419767260551, -461.473735332489, -318.10093063116074
 1.706388053996621E9, -436.34160763025284, -607.479429602623, -484.9303878545761, -226.18914932012558
 1.7063880540103805E9, -550.7526270747185, -607.7187831997871, -459.5589065551758, -288.6604381799698
 1.7063880540103805E9, -559.1300029754639, -626.3883637785912, -455.48989540338516, -346.8233622908592
 1.7063880540260117E9, -439.93191158771515, -624.4735350012779, -493.06841015815735, -250.6032162308693
 1.7063880540260117E9, -513.4134659171104, -618.7290486693382, -478.7071943283081, -266.6399072408676
 1.7063880540265853E9, -587.373727440834, -620.8832310438156, -455.01118820905685, -350.1743126511574
 1.7063880540265853E9, -464.82468569278717, -620.8832310438156, -481.3400838971138, -285.78819501399994
 1.7063880540401154E9, -483.0155590772629, -629.260606944561, -504.07867562770844, -252.75739860534668
 1.7063880540401154E9, -601.7349432706833, -628.7818997502327, -462.6705033183098, -336.5311576128006
 1.706388054055845E9, -530.1682177186012, -632.1328501105309, -472.4840008020401, -322.16994178295135
 1.706388054055845E9, -457.4047241806984, -620.8832310438156, -488.5206918120384, -215.41823744773865
 1.7063880540566204E9, -555.5396990180016, -599.3414072990417, -448.0699338912964, -269.2727968096733
 1.7063880540566204E9, -575.4060475826263, -620.6438774466515, -448.78799468278885, -325.76024574041367
 1.7063880540703468E9, -453.3357130289078, -612.5058551430702, -473.20206159353256, -215.89694464206696
 1.7063880540703468E9, -523.9450241923332, -601.4955896735191, -458.12278497219086, -224.27432054281235
 1.7063880541014545E9, -586.8950202465057, -603.8891256451607, -431.07582849264145, -318.57963782548904
 1.7063880541014545E9, -472.72335439920425, -608.1974903941154, -461.9524425268173, -255.39028817415237
 1.7063880541021552E9, -604.1284792423248, -617.5322806835175, -443.2828619480133, -309.24484753608704
 1.7063880541021552E9, -533.2798144817352, -627.1064245700836, -461.71308892965317, -308.7661403417587
 1.7063880541029668E9, -463.6279177069664, -620.4045238494873, -488.5206918120384, -216.85435903072357
 1.7063880541029668E9, -579.2357051372528, -612.9845623373985, -458.362138569355, -280.04370868206024
 1.7063880541154008E9, -578.9963515400887, -622.7980598211288, -453.57506662607193, -328.1537817120552
 1.7063880541154008E9, -464.82468569278717, -627.3457781672478, -485.8878022432327, -232.8910500407219
 1.7063880541308868E9, -524.4237313866615, -604.1284792423248, -456.4473097920418, -228.58268529176712
 1.7063880541308868E9, -594.5543353557587, -609.8729655742645, -435.6235468387604, -323.12735617160797
 1.7063880541315749E9, -471.5265864133835, -606.5220152139664, -464.34597849845886, -263.76766407489777
 1.7063880541315749E9, -482.7762054800987, -607.2400760054588, -469.3724040389061, -209.9131047129631
 1.7063880541453733E9, -599.1020537018776, -609.8729655742645, -440.6499723792076, -309.4842011332512
 1.7063880541453733E9, -533.2798144817352, -620.4045238494873, -459.5589065551758, -306.3726043701172
 1.706388054177405E9, -466.7395144701004, -613.4632695317268, -485.6484486460686, -214.46082305908203
 1.706388054177405E9, -583.3047162890434, -621.1225846409798, -463.86727130413055, -287.9423773884773
 1.706388054177944E9, -583.3047162890434, -633.3296180963516, -459.79826015233994, -338.2066327929497
 1.706388054177944E9, -480.3826695084572, -638.595397233963, -499.77031087875366, -248.68838745355606
 1.706388054178798E9, -542.8539583683014, -619.6864630579948, -480.3826695084572, -254.1935201883316
 1.706388054178798E9, -601.9742968678474, -620.1651702523232, -457.64407777786255, -345.8659479022026
 1.7063880541795056E9, -453.57506662607193, -595.7511033415794, -463.38856410980225, -257.7838241457939
 1.7063880541795056E9, -465.0640392899513, -587.8524346351624, -453.0963594317436, -194.8338280916214
 1.706388054190088E9, -584.9801914691925, -600.0594680905342, -435.3841932415962, -311.6383835077286
 1.706388054190088E9, -531.8436928987503, -622.5587062239647, -472.0052936077118, -319.7764058113098
 1.7063880542054625E9, -492.8290565609932, -647.2121267318726, -514.1315267086029, -250.84256982803345
 1.7063880542054625E9, -603.6497720479965, -644.5792371630669, -494.02582454681396, -324.5634777545929
 1.706388054221172E9, -579.475058734417, -629.9786677360535, -464.82468569278717, -345.8659479022026
 1.706388054221172E9, -431.7938892841339, -596.2298105359077, -466.97886806726456, -218.52983421087265
 1.7063880542217903E9, -494.02582454681396, -582.3473019003868, -443.2828619480133, -219.96595579385757
 1.7063880542217903E9, -583.7834234833717, -604.367832839489, -437.5383756160736, -333.65891444683075
 1.7063880542352934E9, -483.9729734659195, -623.5161206126213, -481.10073029994965, -280.2830622792244
 1.7063880542352934E9, -488.99939900636673, -616.814219892025, -487.5632774233818, -230.01880687475204
 1.70638805425086E9, -603.1710648536682, -620.4045238494873, -458.60149216651917, -331.2653784751892
 1.70638805425086E9, -528.9714497327805, -629.9786677360535, -475.5955975651741, -319.53705221414566
 1.7063880542516456E9, -453.57506662607193, -613.702623128891, -489.2387526035309, -220.44466298818588
 1.7063880542516456E9, -568.4647932648659, -609.8729655742645, -450.94217705726624, -285.78819501399994
 1.706388054265094E9, -579.475058734417, -639.7921652197838, -480.8613767027855, -355.2007381916046
 1.706388054265094E9, -459.3195529580116, -635.2444468736649, -499.5309572815895, -248.92774105072021
 1.7063880542808375E9, -520.3547202348709, -614.4206839203835, -468.1756360530853, -256.58705615997314
 1.7063880542808375E9, -596.4691641330719, -635.7231540679932, -478.2284871339798, -382.72640186548233
 1.70638805428167E9, -460.75567454099655, -620.4045238494873, -487.80263102054596, -293.2081565260887
 1.70638805428167E9, -447.5912266969681, -595.7511033415794, -479.42525511980057, -235.28458601236343
 1.7063880542951171E9, -557.6938813924789, -593.8362745642662, -433.9480716586113, -322.64864897727966
 1.7063880542951171E9, -481.3400838971138, -595.033042550087, -452.85700583457947, -314.0319194793701
 1.7063880543108687E9, -420.3049166202545, -606.5220152139664, -491.6322885751724, -236.9600611925125
 1.7063880543108687E9, -542.1358975768089, -608.4368439912796, -461.9524425268173, -304.6971291899681
 1.7063880543116195E9, -545.9655551314354, -615.3780983090401, -460.27696734666824, -358.07298135757446
 1.7063880543116195E9, -428.44293892383575, -611.0697335600853, -493.3077637553215, -256.58705615997314
 1.7063880543255692E9, -506.9509187936783, -608.4368439912796, -481.8187910914421, -277.6501727104187
 1.7063880543255692E9, -581.150533914566, -626.149010181427, -460.75567454099655, -370.2800148129463
 1.7063880543408132E9, -474.1594759821892, -636.6805684566498, -497.13742130994797, -305.41518998146057
 1.7063880543408132E9, -474.1594759821892, -618.0109878778458, -491.6322885751724, -250.36386263370514
 1.7063880543415167E9, -576.1241083741188, -612.2665015459061, -457.16537058353424, -341.3182295560837
 1.7063880543415167E9, -507.9083331823349, -628.7818997502327, -474.1594759821892, -334.3769752383232
 1.706388054355108E9, -448.30928748846054, -619.925816655159, -498.5735428929329, -242.2258403301239
 1.706388054355108E9, -550.034566283226, -601.9742968678474, -460.0376137495041, -303.50036120414734
 1.7063880543714125E9, -528.7320961356163, -604.1284792423248, -448.5486410856247, -342.7543511390686
 1.7063880543714125E9, -429.6397069096565, -610.8303799629211, -489.47810620069504, -250.12450903654099
 1.706388054371944E9, -511.25928354263306, -613.702623128891, -474.6381831765175, -269.2727968096733
 1.706388054371944E9, -576.1241083741188, -622.7980598211288, -458.362138569355, -367.1684180498123
 1.7063880543852327E9, -460.75567454099655, -618.2503414750099, -482.05814468860626, -289.85720616579056
 1.7063880543852327E9, -468.8936968445778, -613.2239159345627, -487.80263102054596, -246.53420507907867
 1.7063880544008477E9, -589.0492026209831, -624.4735350012779, -463.38856410980225, -347.5414230823517
 1.7063880544008477E9, -514.8495875000954, -633.3296180963516, -481.10073029994965, -330.7866712808609
 1.7063880544016325E9, -451.6602378487587, -626.149010181427, -510.78057634830475, -249.64580184221268
 1.7063880544016325E9, -552.4281022548676, -608.6761975884438, -460.0376137495041, -298.9526428580284
 1.7063880544154637E9, -549.0771518945694, -623.9948278069496, -456.2079561948776, -343.47241193056107
 1.7063880544154637E9, -435.14483964443207, -620.6438774466515, -485.4090950489044, -249.16709464788437
 1.7063880544308596E9, -514.3708803057671, -609.3942583799362, -475.1168903708458, -256.8264097571373
 1.7063880544308596E9, -570.140268445015, -612.0271479487419, -449.26670187711716, -350.41366624832153
 1.7063880544316523E9, -455.96860259771347, -620.8832310438156, -480.3826695084572, -280.2830622792244
 1.7063880544316523E9, -459.3195529580116, -601.7349432706833, -478.2284871339798, -229.7794532775879
 1.7063880544451745E9, -574.4486331939697, -612.0271479487419, -450.2241162657738, -333.65891444683075
 1.7063880544451745E9, -495.9406533241272, -619.6864630579948, -464.82468569278717, -314.7499802708626
 1.706388054461315E9, -437.29902201890945, -606.7613688111305, -482.2974982857704, -225.47108852863312
 1.706388054461315E9, -560.0874173641205, -611.7877943515778, -456.2079561948776, -298.23458206653595
 1.7063880544617388E9, -562.0022461414337, -632.1328501105309, -473.68076878786087, -363.0994068980217
 1.7063880544617388E9, -458.362138569355, -643.1431155800819, -508.8657475709915, -265.682492852211
 1.7063880544756403E9, -532.3224000930786, -633.5689716935158, -493.7864709496498, -281.47983026504517
 1.7063880544756403E9, -587.1343738436699, -628.5425461530685, -467.696928858757, -368.12583243846893
 1.7063880545072207E9, -486.1271558403969, -648.4088947176933, -499.29160368442535, -301.82488602399826
 1.7063880545072207E9, -484.69103425741196, -625.1915957927704, -487.5632774233818, -244.3800227046013
 1.706388054508028E9, -582.8260090947151, -613.2239159345627, -447.5912266969681, -326.95701372623444
 1.706388054508028E9, -500.0096644759178, -610.8303799629211, -465.7821000814438, -312.1170907020569
 1.7063880545086646E9, -441.1286795735359, -605.3252472281456, -482.7762054800987, -222.83819895982742
 1.7063880545086646E9, -557.9332349896431, -607.9581367969513, -460.5163209438324, -296.3197532892227
 1.706388054509398E9, -553.6248702406883, -630.4573749303818, -466.02145367860794, -352.32849502563477
 1.706388054509398E9, -449.74540907144547, -627.8244853615761, -497.3767749071121, -258.9805921316147
 1.7063880545202217E9, -533.7585216760635, -625.4309493899345, -490.91422778367996, -275.73534393310547
 1.7063880545202217E9, -596.4691641330719, -633.5689716935158, -467.696928858757, -363.33876049518585
 1.7063880545353184E9, -474.1594759821892, -632.1328501105309, -498.81289649009705, -288.89979177713394
 1.7063880545353184E9, -480.14331591129303, -619.6864630579948, -488.28133821487427, -238.6355363726616
 1.706388054550996E9, -600.5381752848625, -630.4573749303818, -470.808525621891, -352.5678486227989
 1.706388054550996E9, -528.253388941288, -639.3134580254555, -490.91422778367996, -333.8982680439949
 1.7063880545515857E9, -468.65434324741364, -632.6115573048592, -505.51479721069336, -243.66196191310883
 1.7063880545515857E9, -576.363461971283, -622.7980598211288, -467.696928858757, -306.8513115644455
 1.7063880545651405E9, -567.9860860705376, -633.8083252906799, -473.920122385025, -357.11556696891785
 1.7063880545651405E9, -457.4047241806984, -640.0315188169479, -502.1638468503952, -259.21994572877884
 1.7063880545810573E9, -538.0668864250183, -632.8509109020233, -490.43552058935165, -276.2140511274338
 1.7063880545810573E9, -598.8627001047134, -636.2018612623215, -475.35624396800995, -369.56195402145386
 1.7063880545815468E9, -484.69103425741196, -646.0153587460518, -503.360614836216, -301.5855324268341
 1.7063880545815468E9, -494.7438853383064, -631.8934965133667, -501.6851396560669, -248.92774105072021
 1.7063880545951014E9, -616.5748662948608, -638.8347508311272, -478.7071943283081, -355.6794453859329
 1.7063880545951014E9, -526.0992065668106, -636.2018612623215, -486.36650943756104, -329.350549697876
 1.7063880546108148E9, -450.7028234601021, -619.4471094608307, -488.28133821487427, -222.83819895982742
 1.7063880546108148E9, -560.0874173641205, -612.2665015459061, -456.9260169863701, -294.8836317062378
 1.706388054611484E9, -557.4545277953148, -626.8670709729195, -465.3033928871155, -350.89237344264984
 1.706388054611484E9, -445.4370443224907, -632.1328501105309, -498.0948356986046, -255.86899536848068
 1.7063880546253893E9, -527.2959745526314, -621.1225846409798, -478.2284871339798, -267.3579680323601
 1.7063880546253893E9, -593.1182137727737, -634.0476788878441, -460.0376137495041, -361.18457812070847
 1.7063880546408527E9, -474.39882957935333, -630.4573749303818, -492.8290565609932, -289.6178525686264
 1.7063880546408527E9, -483.73361986875534, -617.2929270863533, -484.4516806602478, -240.31101155281067
 1.7063880546417007E9, -593.8362745642662, -625.9096565842628, -455.48989540338516, -337.24921840429306
 1.7063880546417007E9, -525.6204993724823, -633.8083252906799, -484.4516806602478, -327.6750745177269
 1.7063880546551597E9, -460.5163209438324, -631.1754357218742, -501.2064324617386, -239.1142435669899
 1.7063880546551597E9, -579.7144123315811, -627.8244853615761, -471.76594001054764, -309.72355473041534
 1.70638805467085E9, -556.0184062123299, -622.7980598211288, -460.75567454099655, -345.14788711071014
 1.70638805467085E9, -454.05377382040024, -633.5689716935158, -494.9832389354706, -252.27869141101837
 1.7063880546716976E9, -522.03019541502, -613.4632695317268, -471.76594001054764, -260.8954209089279
 1.7063880546716976E9, -579.7144123315811, -619.4471094608307, -451.6602378487587, -348.4988374710083
 1.706388054685362E9, -471.5265864133835, -620.6438774466515, -485.16974145174026, -280.7617694735527
 1.706388054685362E9, -477.51042634248734, -618.9684022665024, -490.6748741865158, -236.72070759534836
 1.7063880547009273E9, -583.0653626918793, -608.9155511856079, -447.5912266969681, -327.1963673233986
 1.7063880547009273E9, -515.3282946944237, -628.5425461530685, -473.4414151906967, -314.0319194793701
 1.706388054701612E9, -441.8467403650284, -618.9684022665024, -488.28133821487427, -224.27432054281235
 1.706388054701612E9, -549.5558590888977, -610.1123191714287, -454.2931274175644, -287.9423773884773
 1.7063880547316618E9, -536.1520576477051, -604.8465400338173, -446.8731659054756, -330.7866712808609
 1.7063880547316618E9, -433.70871806144714, -609.8729655742645, -487.5632774233818, -227.86462450027466
 1.7063880547323112E9, -501.2064324617386, -598.8627001047134, -465.0640392899513, -252.99675220251083
 1.7063880547323112E9, -560.805478155613, -601.7349432706833, -443.52221554517746, -338.2066327929497
 1.7063880547330277E9, -430.59712129831314, -596.708517730236, -465.54274648427963, -255.15093457698822
 1.7063880547330277E9, -411.20947992801666, -553.3855166435242, -430.8364748954773, -175.44618672132492
 1.706388054745196E9, -536.1520576477051, -570.140268445015, -410.0127119421959, -284.8307806253433
 1.706388054745196E9, -445.915751516819, -565.8319036960602, -424.85263496637344, -262.570896089077
 1.7063880547611876E9, -380.3328658938408, -551.2313342690468, -433.70871806144714, -165.87204283475876
 1.7063880547611876E9, -485.16974145174026, -541.4178367853165, -394.69408172369003, -233.8484644293785
 1.7063880547616415E9, -460.9950281381607, -537.1094720363617, -384.4018770456314, -265.2037856578827
 1.7063880547616415E9, -335.81309682130814, -519.6366594433784, -397.3269712924957, -153.1863021850586
 1.7063880547756088E9, -418.8687950372696, -520.1153666377068, -388.470888197422, -188.84998816251755
 1.7063880547756088E9, -456.9260169863701, -502.6425540447235, -343.9511191248894, -242.7045475244522
 1.7063880547908676E9, -358.07298135757446, -528.7320961356163, -405.46499359607697, -195.07318168878555
 1.7063880547908676E9, -355.2007381916046, -500.4883716702461, -385.5986450314522, -136.4315503835678
 1.7063880547916443E9, -454.2931274175644, -488.5206918120384, -345.3872407078743, -229.7794532775879
 1.7063880547916443E9, -376.26385474205017, -503.1212612390518, -367.40777164697647, -214.46082305908203
 1.7063880548052003E9, -326.7176601290703, -500.0096644759178, -387.27412021160126, -128.53288167715073
 1.7063880548052003E9, -443.52221554517746, -501.92449325323105, -355.44009178876877, -200.0996072292328
 1.70638805482087E9, -439.45320439338684, -518.918598651886, -369.3226004242897, -258.5018849372864
 1.70638805482087E9, -336.5311576128006, -525.141792178154, -415.51784467697144, -166.59010362625122
 1.706388054821615E9, -423.17715978622437, -519.3973058462143, -396.3695569038391, -184.54162341356277
 1.706388054821615E9, -501.2064324617386, -547.6410303115845, -395.8908497095108, -290.575266957283
 1.7063880548352056E9, -386.79541301727295, -550.9919806718826, -431.55453568696976, -229.06139248609543
 1.7063880548352056E9, -404.50757920742035, -543.3326655626297, -421.9803918004036, -183.344855427742
 1.7063880548508976E9, -531.364985704422, -564.8744893074036, -410.4914191365242, -299.4313500523567
 1.7063880548508976E9, -467.2182216644287, -580.6718267202377, -438.4957900047302, -286.26690220832825
 1.7063880548515449E9, -416.2359054684639, -585.2195450663567, -459.0801993608475, -199.38154643774033
 1.7063880548515449E9, -535.4339968562126, -585.2195450663567, -437.77772921323776, -279.8043550848961
 1.7063880548659427E9, -532.3224000930786, -602.2136504650116, -437.77772921323776, -322.64864897727966
 1.7063880548659427E9, -427.48552453517914, -607.2400760054588, -476.7923655509949, -231.21557486057281
 1.7063880548810189E9, -517.0037698745728, -603.6497720479965, -465.3033928871155, -260.8954209089279
 1.7063880548810189E9, -587.373727440834, -622.7980598211288, -460.9950281381607, -353.7646166086197
 1.7063880548815436E9, -465.0640392899513, -617.5322806835175, -479.9039623141289, -275.73534393310547
 1.7063880548815436E9, -478.46784073114395, -610.8303799629211, -471.5265864133835, -230.01880687475204
 1.7063880548952131E9, -598.8627001047134, -627.3457781672478, -460.0376137495041, -344.908533513546
 1.7063880548952131E9, -522.03019541502, -635.2444468736649, -489.47810620069504, -327.6750745177269
 1.706388054910838E9, -465.54274648427963, -629.7393141388893, -507.9083331823349, -247.25226587057114
 1.706388054910838E9, -578.2782907485962, -622.7980598211288, -466.2608072757721, -311.87773710489273
 1.7063880549116302E9, -578.038937151432, -649.8450163006783, -488.99939900636673, -367.40777164697647
 1.7063880549116302E9, -464.585332095623, -642.4250547885895, -512.9347587227821, -264.2463712692261
 1.7063880549251597E9, -553.3855166435242, -647.6908339262009, -496.4193605184555, -288.42108458280563
 1.7063880549251597E9, -616.814219892025, -656.5469170212746, -484.9303878545761, -372.912904381752
 1.7063880549408653E9, -490.91422778367996, -646.7334195375443, -502.6425540447235, -290.33591336011887
 1.7063880549408653E9, -508.14768677949905, -635.9625076651573, -497.3767749071121, -252.51804500818253
 1.7063880549416287E9, -611.7877943515778, -629.260606944561, -470.3298184275627, -354.00397020578384
