 Timestamp, EXG Channel 0, EXG Channel 1, EXG Channel 2, EXG Channel 3
 1.7063900350412183E9, -348.02013027668, -325.28153854608536, -218.52983421087265, -124.70322412252426
 1.7063900350412183E9, -304.6971291899681, -348.4988374710083, -261.13477450609207, -68.93383598327637
 1.7063900350558708E9, -402.83210402727127, -336.29180401563644, -235.28458601236343, -122.30968815088272
 1.7063900350558708E9, -389.42830258607864, -328.6324889063835, -216.37565183639526, -151.51082700490952
 1.7063900350702994E9, -295.12298530340195, -340.83952236175537, -251.0819234251976, -79.46539425849915
 1.7063900350702994E9, -360.9452245235443, -337.4885720014572, -246.05549788475037, -90.23630613088608
 1.706390035071041E9, -411.9275407195091, -320.01575940847397, -199.86025363206863, -148.63858383893967
 1.706390035071041E9, -310.68096911907196, -335.81309682130814, -228.34333169460297, -92.15113490819931
 1.7063900350847864E9, -325.5208921432495, -342.03629034757614, -252.75739860534668, -74.19961512088776
 1.7063900350847864E9, -415.51784467697144, -321.69123458862305, -206.56215435266495, -141.93668311834335
 1.7063900351005192E9, -343.9511191248894, -322.4092953801155, -215.1788838505745, -121.83098095655441
 1.7063900351005192E9, -302.0642396211624, -350.6530198454857, -254.43287378549576, -66.30094641447067
 1.706390035101076E9, -389.42830258607864, -328.87184250354767, -218.2904806137085, -110.82071548700333
 1.706390035101076E9, -376.5032083392143, -316.1861018538475, -200.5783144235611, -138.5857327580452
 1.706390035114902E9, -287.22431659698486, -335.573743224144, -246.53420507907867, -74.19961512088776
 1.706390035114902E9, -352.0891414284706, -331.50473207235336, -238.87488996982574, -88.80018454790115
 1.7063900351305485E9, -405.7043471932411, -315.46804106235504, -200.5783144235611, -148.87793743610382
 1.7063900351305485E9, -304.2184219956398, -330.54731768369675, -224.27432054281235, -94.3053172826767
 1.7063900351312284E9, -321.21252739429474, -341.55758315324783, -248.92774105072021, -73.4815543293953
 1.7063900351312284E9, -404.2682256102562, -311.87773710489273, -199.14219284057617, -130.44771045446396
 1.7063900351446085E9, -342.7543511390686, -320.2551130056381, -207.51956874132156, -118.2406769990921
 1.7063900351446085E9, -296.55910688638687, -340.1214615702629, -250.84256982803345, -64.38611763715744
 1.706390035160554E9, -399.24180006980896, -327.91442811489105, -224.9923813343048, -112.73554426431656
 1.706390035160554E9, -380.3328658938408, -317.6222234368324, -205.12603276968002, -140.02185434103012
 1.7063900351611655E9, -295.3623389005661, -342.51499754190445, -246.29485148191452, -74.43896871805191
 1.7063900351611655E9, -358.3123349547386, -342.7543511390686, -242.7045475244522, -94.3053172826767
 1.7063900351746557E9, -402.83210402727127, -318.3402842283249, -202.73249679803848, -150.5534126162529
 1.7063900351746557E9, -312.35644429922104, -331.98343926668167, -231.69428205490112, -99.33174282312393
 1.7063900351903677E9, -320.73382019996643, -337.9672791957855, -242.2258403301239, -67.01900720596313
 1.7063900351903677E9, -414.799783885479, -326.95701372623444, -213.98211586475372, -136.67090398073196
 1.7063900351911E9, -345.8659479022026, -324.0847705602646, -212.78534787893295, -118.71938419342041
 1.7063900351911E9, -297.75587487220764, -342.99370473623276, -250.36386263370514, -66.54030001163483
 1.706390035205037E9, -389.42830258607864, -321.9305881857872, -224.75302773714066, -119.19809138774872
 1.706390035205037E9, -374.82773315906525, -314.7499802708626, -205.60473996400833, -145.04827988147736
 1.7063900352206087E9, -288.42108458280563, -336.29180401563644, -243.66196191310883, -76.83250468969345
 1.7063900352206087E9, -350.6530198454857, -331.50473207235336, -240.78971874713898, -88.560830950737
 1.7063900352212703E9, -402.83210402727127, -311.3990299105644, -198.66348564624786, -143.85151189565659
 1.7063900352212703E9, -302.7823004126549, -324.0847705602646, -232.17298924922943, -95.26273167133331
 1.7063900352346988E9, -315.2286874651909, -331.50473207235336, -240.55036514997482, -61.753228068351746
 1.7063900352346988E9, -409.0552975535393, -319.05834501981735, -204.1686183810234, -129.2509424686432
 1.7063900352502964E9, -337.24921840429306, -313.5532122850418, -205.84409356117249, -112.4961906671524
 1.7063900352502964E9, -293.44751012325287, -336.29180401563644, -248.68838745355606, -58.64163130521774
 1.706390035251017E9, -381.52963387966156, -320.9731737971306, -212.0672870874405, -98.13497483730316
 1.706390035251017E9, -373.3916115760803, -311.15967631340027, -197.70607125759125, -130.44771045446396
 1.7063900352647233E9, -294.16557091474533, -335.0950360298157, -242.46519392728806, -70.8486647605896
 1.7063900352647233E9, -358.7910421490669, -336.5311576128006, -238.6355363726616, -84.25246620178223
 1.7063900352803805E9, -405.7043471932411, -314.5106266736984, -196.98801046609879, -143.85151189565659
 1.7063900352803805E9, -314.27127307653427, -330.7866712808609, -229.06139248609543, -96.22014605998993
 1.706390035281135E9, -326.95701372623444, -348.02013027668, -255.86899536848068, -73.24220073223114
 1.706390035281135E9, -419.3475022315979, -328.6324889063835, -209.19504392147064, -135.4741359949112
 1.7063900352949307E9, -352.8072022199631, -330.7866712808609, -219.48724859952927, -123.50645613670349
 1.7063900352949307E9, -308.5267867445946, -355.9187989830971, -256.58705615997314, -75.39638310670853
 1.7063900353102527E9, -396.3695569038391, -333.65891444683075, -228.58268529176712, -116.08649462461472
 1.7063900353102527E9, -381.7689874768257, -321.4518809914589, -207.75892233848572, -142.1760367155075
 1.7063900353253188E9, -292.7294493317604, -339.40340077877045, -248.92774105072021, -73.24220073223114
 1.7063900353253188E9, -353.52526301145554, -334.8556824326515, -248.92774105072021, -91.91178131103516
 1.7063900353261485E9, -400.6779216527939, -315.2286874651909, -200.33896082639694, -144.56957268714905
 1.7063900353261485E9, -313.31385868787766, -334.13762164115906, -228.34333169460297, -94.3053172826767
 1.706390035340826E9, -326.4783065319061, -343.47241193056107, -251.79998421669006, -73.9602615237236
 1.706390035340826E9, -418.15073424577713, -319.53705221414566, -209.67375111579895, -137.14961117506027
 1.7063900353410518E9, -357.8336277604103, -331.02602487802505, -223.07755255699158, -133.55930721759796
 1.7063900353410518E9, -309.72355473041534, -350.41366624832153, -260.17736011743546, -69.89125037193298
 1.7063900353547876E9, -408.09788316488266, -340.1214615702629, -230.97622126340866, -118.00132340192795
 1.7063900353547876E9, -394.2153745293617, -327.6750745177269, -210.87051910161972, -145.04827988147736
 1.7063900353704233E9, -306.13325077295303, -348.25948387384415, -251.0819234251976, -75.87509030103683
 1.7063900353704233E9, -356.15815258026123, -338.2066327929497, -236.72070759534836, -87.36406296491623
 1.7063900353712327E9, -401.87468963861465, -310.68096911907196, -197.4667176604271, -142.89409750699997
 1.7063900353712327E9, -308.04807955026627, -331.7440856695175, -224.9923813343048, -95.26273167133331
 1.7063900353848605E9, -319.2976986169815, -338.685339987278, -243.66196191310883, -66.06159281730652
 1.7063900353848605E9, -410.0127119421959, -318.3402842283249, -203.2112039923668, -129.7296496629715
 1.7063900354004347E9, -352.32849502563477, -324.32412415742874, -219.48724859952927, -123.26710253953934
 1.7063900354004347E9, -301.5855324268341, -346.3446550965309, -254.91158097982407, -72.28478634357452
 1.706390035401162E9, -397.3269712924957, -332.46214646101, -228.82203888893127, -115.60778743028641
 1.706390035401162E9, -386.5560594201088, -323.3667097687721, -210.87051910161972, -147.4418158531189
 1.706390035414968E9, -296.08039969205856, -339.1640471816063, -251.5606306195259, -75.39638310670853
 1.706390035414968E9, -359.5091029405594, -333.65891444683075, -243.18325471878052, -86.40664857625961
 1.7063900354303515E9, -410.25206553936005, -312.35644429922104, -201.5357288122177, -140.26120793819427
 1.7063900354303515E9, -312.83515149354935, -323.6060633659363, -221.8807845711708, -90.23630613088608
 1.70639003543106E9, -324.5634777545929, -335.573743224144, -241.26842594146729, -60.07775288820267
 1.70639003543106E9, -416.2359054684639, -323.3667097687721, -202.01443600654602, -129.7296496629715
 1.7063900354613914E9, -353.0465558171272, -323.84541696310043, -217.09371262788773, -122.30968815088272
 1.7063900354613914E9, -307.09066516160965, -348.02013027668, -256.347702562809, -61.753228068351746
 1.7063900354618428E9, -389.90700978040695, -322.64864897727966, -211.58857989311218, -99.81045001745224
 1.7063900354618428E9, -383.68381625413895, -316.42545545101166, -197.9454248547554, -131.40512484312057
 1.7063900354625533E9, -294.4049245119095, -338.685339987278, -237.67812198400497, -69.89125037193298
 1.7063900354625533E9, -359.26974934339523, -338.92469358444214, -237.43876838684082, -81.61957663297653
 1.7063900354746757E9, -415.0391374826431, -322.64864897727966, -203.92926478385925, -141.45797592401505
 1.7063900354746757E9, -320.2551130056381, -334.8556824326515, -225.47108852863312, -91.672427713871
 1.7063900354918008E9, -321.69123458862305, -333.65891444683075, -242.2258403301239, -61.753228068351746
 1.7063900354918008E9, -405.2256399989128, -314.7499802708626, -203.6899111866951, -121.59162735939026
 1.7063900355053127E9, -341.796936750412, -315.7073946595192, -211.82793349027634, -113.69295865297318
 1.7063900355053127E9, -290.33591336011887, -333.8982680439949, -251.5606306195259, -56.72680252790451
 1.7063900355060632E9, -384.64123064279556, -325.0421849489212, -224.27432054281235, -106.99105793237686
 1.7063900355060632E9, -376.024501144886, -320.9731737971306, -202.73249679803848, -140.73991513252258
 1.7063900355204363E9, -291.7720349431038, -338.685339987278, -242.7045475244522, -74.67832231521606
 1.7063900355204363E9, -352.0891414284706, -338.2066327929497, -236.9600611925125, -83.29505181312561
 1.7063900355212798E9, -401.1566288471222, -310.68096911907196, -195.07318168878555, -134.99542880058289
 1.7063900355212798E9, -305.41518998146057, -324.5634777545929, -223.55625975131989, -87.84277015924454
 1.7063900355346255E9, -320.9731737971306, -337.4885720014572, -246.05549788475037, -61.9925816655159
 1.7063900355346255E9, -403.55016481876373, -314.98933386802673, -197.22736406326294, -125.42128491401672
 1.7063900355503492E9, -344.908533513546, -320.73382019996643, -202.01443600654602, -115.84714102745056
 1.7063900355503492E9, -292.7294493317604, -342.2756439447403, -247.25226587057114, -59.83839929103851
 1.7063900355511827E9, -385.5986450314522, -325.0421849489212, -220.44466298818588, -109.14524030685425
 1.7063900355511827E9, -386.79541301727295, -322.64864897727966, -198.66348564624786, -136.67090398073196
 1.7063900355646813E9, -300.1494108438492, -345.14788711071014, -253.236105799675, -77.55056548118591
 1.7063900355646813E9, -359.26974934339523, -343.7117655277252, -243.90131551027298, -83.53440541028976
 1.7063900355803328E9, -411.4488335251808, -324.32412415742874, -203.92926478385925, -146.00569427013397
 1.7063900355803328E9, -318.10093063116074, -336.77051120996475, -228.58268529176712, -100.28915721178055
 1.706390035581041E9, -325.76024574041367, -345.8659479022026, -252.27869141101837, -68.45512878894806
 1.706390035581041E9, -419.3475022315979, -331.7440856695175, -214.22146946191788, -136.91025757789612
 1.7063900355948308E9, -353.0465558171272, -333.65891444683075, -221.16272377967834, -124.22451692819595
 1.7063900355948308E9, -301.82488602399826, -348.4988374710083, -250.12450903654099, -65.34353202581406
 1.7063900356107337E9, -391.58248496055603, -336.5311576128006, -226.90721011161804, -114.17166584730148
 1.7063900356107337E9, -381.7689874768257, -322.64864897727966, -207.51956874132156, -144.8089262843132
 1.7063900356111E9, -291.53268134593964, -342.03629034757614, -246.29485148191452, -82.57699102163315
 1.7063900356111E9, -356.15815258026123, -344.1904727220535, -244.3800227046013, -92.15113490819931
 1.7063900356249237E9, -407.61917597055435, -320.73382019996643, -204.64732557535172, -147.68116945028305
 1.7063900356249237E9, -306.3726043701172, -327.1963673233986, -231.45492845773697, -95.02337807416916
 1.7063900356406307E9, -318.57963782548904, -339.40340077877045, -251.32127702236176, -72.76349353790283
 1.7063900356406307E9, -410.0127119421959, -322.16994178295135, -211.34922629594803, -135.71348959207535
 1.7063900356412592E9, -346.58400869369507, -326.7176601290703, -212.5459942817688, -124.46387052536011
 1.7063900356412592E9, -295.12298530340195, -344.908533513546, -253.7148129940033, -68.69448238611221
 1.706390035654666E9, -388.94959539175034, -331.98343926668167, -223.79561334848404, -112.4961906671524
 1.706390035654666E9, -388.7102417945862, -330.54731768369675, -212.0672870874405, -148.63858383893967
 1.7063900356704075E9, -299.6707036495209, -348.4988374710083, -253.47545939683914, -80.66216224431992
 1.7063900356704075E9, -357.354920566082, -343.7117655277252, -245.8161442875862, -92.39048850536346
 1.7063900356710691E9, -412.88495510816574, -328.39313530921936, -209.9131047129631, -149.11729103326797
 1.7063900356710691E9, -320.73382019996643, -340.83952236175537, -239.5929507613182, -104.83687555789948
 1.7063900356846604E9, -333.4195608496666, -354.48267740011215, -258.9805921316147, -76.83250468969345
 1.7063900356846604E9, -415.7571982741356, -326.4783065319061, -216.61500543355942, -136.19219678640366
 1.706390035717096E9, -350.89237344264984, -329.350549697876, -219.72660219669342, -128.53288167715073
 1.706390035717096E9, -297.9952284693718, -347.0627158880234, -254.6722273826599, -67.97642159461975
 1.7063900357177129E9, -391.3431313633919, -338.685339987278, -231.69428205490112, -111.06006908416748
 1.7063900357177129E9, -387.0347666144371, -327.1963673233986, -208.9556903243065, -142.89409750699997
 1.7063900357183561E9, -294.64427810907364, -350.1743126511574, -258.74123853445053, -84.01311260461807
 1.7063900357183561E9, -358.55168855190277, -343.7117655277252, -254.6722273826599, -96.69885325431824
 1.7063900357191677E9, -411.4488335251808, -329.8292568922043, -216.1362982392311, -154.62242376804352
 1.7063900357191677E9, -324.32412415742874, -351.131727039814, -243.18325471878052, -114.88972663879395
 1.7063900357297225E9, -330.7866712808609, -358.55168855190277, -263.76766407489777, -80.90151584148407
 1.7063900357297225E9, -421.022977411747, -336.5311576128006, -217.33306622505188, -139.30379354953766
 1.7063900357446785E9, -354.243323802948, -336.0524504184723, -223.31690615415573, -129.96900326013565
 1.7063900357446785E9, -303.50036120414734, -353.2859094142914, -267.1186144351959, -73.24220073223114
 1.706390035760348E9, -390.38571697473526, -339.6427543759346, -233.13040363788605, -115.84714102745056
 1.706390035760348E9, -388.7102417945862, -330.3079640865326, -213.74276226758957, -145.04827988147736
 1.7063900357610705E9, -293.686863720417, -343.9511191248894, -250.12450903654099, -76.83250468969345
 1.7063900357610705E9, -353.0465558171272, -342.2756439447403, -244.14066910743713, -89.75759893655777
 1.706390035774994E9, -401.39598244428635, -315.46804106235504, -203.92926478385925, -148.87793743610382
 1.706390035774994E9, -305.41518998146057, -330.3079640865326, -229.30074608325958, -97.89562124013901
 1.7063900357903802E9, -311.3990299105644, -333.8982680439949, -245.3374370932579, -65.34353202581406
 1.7063900357903802E9, -398.28438568115234, -311.6383835077286, -202.25378960371017, -126.13934570550919
 1.7063900357911377E9, -338.44598639011383, -315.94674825668335, -211.34922629594803, -120.63421297073364
 1.7063900357911377E9, -287.463670194149, -336.0524504184723, -247.25226587057114, -62.231935262680054
 1.706390035804782E9, -376.98191553354263, -320.4944666028023, -221.64143097400665, -106.2729971408844
 1.706390035804782E9, -372.67355078458786, -311.3990299105644, -207.75892233848572, -142.89409750699997
 1.70639003582101E9, -285.30948781967163, -333.18020725250244, -243.66196191310883, -75.63573670387268
 1.70639003582101E9, -345.62659430503845, -334.61632883548737, -236.9600611925125, -85.449234187603
 1.7063900358357751E9, -402.5927504301071, -311.3990299105644, -203.45055758953094, -146.00569427013397
 1.7063900358357751E9, -305.1758363842964, -326.7176601290703, -225.94979572296143, -96.93820685148239
 1.706390035836233E9, -314.0319194793701, -335.0950360298157, -249.64580184221268, -68.93383598327637
 1.706390035836233E9, -400.1992144584656, -312.1170907020569, -207.99827593564987, -136.91025757789612
 1.706390035851244E9, -338.44598639011383, -316.42545545101166, -213.26405507326126, -127.0967600941658
 1.706390035851244E9, -287.463670194149, -336.0524504184723, -249.40644824504852, -66.30094641447067
 1.7063900358518164E9, -374.82773315906525, -319.53705221414566, -222.35949176549911, -107.94847232103348
 1.7063900358518164E9, -368.60453963279724, -309.9629083275795, -208.47698312997818, -143.85151189565659
 1.706390035864719E9, -283.8733662366867, -332.70150005817413, -247.25226587057114, -82.09828382730484
 1.706390035864719E9, -339.40340077877045, -324.32412415742874, -241.02907234430313, -89.27889174222946
 1.7063900358803222E9, -396.8482640981674, -307.56937235593796, -200.81766802072525, -151.75018060207367
 1.7063900358803222E9, -301.34617882966995, -317.6222234368324, -226.42850291728973, -98.85303562879562
 1.7063900358810604E9, -301.5855324268341, -324.5634777545929, -244.3800227046013, -67.97642159461975
 1.7063900358810604E9, -393.49731373786926, -305.6545435786247, -196.98801046609879, -129.7296496629715
 1.7063900358948605E9, -330.7866712808609, -308.5267867445946, -200.5783144235611, -119.43744498491287
 1.7063900358948605E9, -278.36823350191116, -329.350549697876, -243.66196191310883, -62.47128885984421
 1.7063900359104161E9, -377.46062272787094, -321.69123458862305, -221.64143097400665, -107.70911872386932
 1.7063900359104161E9, -374.34902596473694, -317.6222234368324, -204.40797197818756, -144.09086549282074
 1.7063900359111395E9, -290.33591336011887, -342.2756439447403, -252.75739860534668, -85.20988059043884
 1.7063900359111395E9, -352.8072022199631, -339.40340077877045, -245.57679069042206, -97.17756044864655
 1.7063900359247117E9, -413.1243087053299, -324.0847705602646, -210.3918119072914, -158.9307885169983
 1.7063900359247117E9, -315.2286874651909, -337.72792559862137, -242.94390112161636, -114.17166584730148
 1.7063900359406435E9, -323.3667097687721, -347.30206948518753, -258.9805921316147, -78.26862627267838
 1.7063900359406435E9, -415.0391374826431, -331.02602487802505, -221.16272377967834, -141.93668311834335
 1.7063900359412463E9, -353.0465558171272, -331.2653784751892, -221.8807845711708, -131.64447844028473
 1.7063900359412463E9, -302.5429468154907, -354.48267740011215, -265.92184644937515, -77.0718582868576
 1.7063900359547317E9, -395.4121425151825, -341.796936750412, -234.08781802654266, -118.2406769990921
 1.7063900359547317E9, -396.13020330667496, -333.8982680439949, -213.0247014760971, -155.8191917538643
 1.7063900359703403E9, -298.4739356637001, -348.4988374710083, -250.6032162308693, -88.08212375640869
 1.7063900359703403E9, -364.0568212866783, -346.8233622908592, -251.79998421669006, -99.57109642028809
 1.7063900359710536E9, -415.99655187129974, -330.06861048936844, -215.89694464206696, -159.64884930849075
 1.7063900359710536E9, -313.79256588220596, -335.81309682130814, -240.31101155281067, -113.21425145864487
 1.706390035985102E9, -325.5208921432495, -349.69560545682907, -256.8264097571373, -86.40664857625961
 1.706390035985102E9, -417.6720270514488, -334.13762164115906, -222.83819895982742, -153.6650093793869
 1.706390036000451E9, -358.55168855190277, -332.9408536553383, -230.49751406908035, -142.65474390983582
 1.706390036000451E9, -305.1758363842964, -353.2859094142914, -265.92184644937515, -80.42280864715576
 1.7063900360011234E9, -387.75282740592957, -325.76024574041367, -230.7368676662445, -116.80455541610718
 1.7063900360011234E9, -386.31670582294464, -325.0421849489212, -206.08344715833664, -148.15987664461136
 1.7063900360148804E9, -299.4313500523567, -343.47241193056107, -253.7148129940033, -89.27889174222946
 1.7063900360148804E9, -353.52526301145554, -339.6427543759346, -247.01291227340698, -95.26273167133331
 1.7063900360299573E9, -406.66176158189774, -316.1861018538475, -202.97185039520264, -151.75018060207367
 1.7063900360299573E9, -312.35644429922104, -334.61632883548737, -234.08781802654266, -106.51235073804855
 1.7063900360467649E9, -407.8585295677185, -322.64864897727966, -207.75892233848572, -134.75607520341873
 1.7063900360467649E9, -347.30206948518753, -323.6060633659363, -218.2904806137085, -133.55930721759796
 1.7063900360603397E9, -297.0378140807152, -344.908533513546, -256.347702562809, -72.52413994073868
 1.7063900360603397E9, -385.83799862861633, -329.350549697876, -234.08781802654266, -121.11292016506195
 1.7063900360610723E9, -382.9657554626465, -319.53705221414566, -207.2802151441574, -151.0321198105812
 1.7063900360610723E9, -292.49009573459625, -344.4298263192177, -250.12450903654099, -86.88535577058792
 1.706390036075364E9, -352.8072022199631, -341.3182295560837, -246.29485148191452, -92.15113490819931
 1.706390036075364E9, -411.20947992801666, -323.6060633659363, -208.71633672714233, -159.4094957113266
 1.7063900360760767E9, -318.3402842283249, -337.0098648071289, -237.91747558116913, -115.36843383312225
 1.7063900360760767E9, -326.7176601290703, -345.3872407078743, -256.10834896564484, -80.66216224431992
 1.7063900360901349E9, -412.6456015110016, -324.80283135175705, -220.20530939102173, -146.00569427013397
 1.7063900360901349E9, -351.84978783130646, -329.350549697876, -219.72660219669342, -135.4741359949112
 1.7063900361054773E9, -298.71328926086426, -344.908533513546, -255.39028817415237, -74.67832231521606
 1.7063900361054773E9, -384.16252344846725, -327.43572092056274, -229.7794532775879, -116.80455541610718
 1.7063900361061592E9, -377.6999763250351, -318.57963782548904, -214.93953025341034, -148.63858383893967
 1.7063900361061592E9, -285.30948781967163, -333.4195608496666, -247.25226587057114, -83.53440541028976
 1.7063900361197007E9, -342.99370473623276, -329.1111961007118, -240.07165795564651, -86.40664857625961
 1.7063900361197007E9, -395.65149611234665, -304.45777559280396, -191.7222313284874, -143.61215829849243
 1.7063900361352987E9, -301.34617882966995, -317.1435162425041, -219.96595579385757, -96.45949965715408
 1.7063900361352987E9, -304.93648278713226, -325.9995993375778, -240.78971874713898, -62.949996054172516
 1.706390036136012E9, -396.60891050100327, -307.8087259531021, -202.73249679803848, -129.7296496629715
 1.706390036136012E9, -335.81309682130814, -310.20226192474365, -202.73249679803848, -117.7619698047638
 1.7063900361500049E9, -278.128879904747, -330.06861048936844, -239.1142435669899, -63.18934965133667
 1.7063900361500049E9, -370.9980756044388, -313.5532122850418, -217.57241982221603, -101.96463239192963
 1.7063900361655836E9, -370.04066121578217, -308.7661403417587, -200.33896082639694, -138.5857327580452
 1.7063900361655836E9, -283.3946590423584, -331.2653784751892, -240.78971874713898, -80.42280864715576
 1.706390036166153E9, -336.77051120996475, -327.6750745177269, -232.8910500407219, -84.73117339611053
 1.706390036166153E9, -401.6353360414505, -310.68096911907196, -202.97185039520264, -150.0747054219246
 1.7063900361961565E9, -304.93648278713226, -323.3667097687721, -225.23173493146896, -100.5285108089447
 1.7063900361961565E9, -314.7499802708626, -333.4195608496666, -248.20968025922775, -72.04543274641037
 1.7063900361968558E9, -404.50757920742035, -320.73382019996643, -210.63116550445557, -132.60189282894135
 1.7063900361968558E9, -345.14788711071014, -318.8189914226532, -212.78534787893295, -125.18193131685257
 1.706390036197543E9, -292.7294493317604, -342.03629034757614, -252.27869141101837, -65.34353202581406
 1.706390036197543E9, -376.5032083392143, -316.90416264533997, -216.61500543355942, -107.46976512670517
 1.7063900362098348E9, -375.30644035339355, -311.15967631340027, -198.4241320490837, -139.5431471467018
 1.7063900362098348E9, -286.74560940265656, -333.65891444683075, -239.1142435669899, -78.26862627267838
 1.706390036225424E9, -348.25948387384415, -338.2066327929497, -233.3697572350502, -83.05569821596146
 1.706390036225424E9, -404.7469328045845, -316.1861018538475, -197.22736406326294, -142.89409750699997
 1.7063900362261431E9, -312.35644429922104, -328.1537817120552, -226.42850291728973, -97.89562124013901
 1.7063900362261431E9, -319.7764058113098, -334.8556824326515, -245.8161442875862, -61.51387447118759
 1.706390036239741E9, -405.9437007904053, -313.79256588220596, -202.49314320087433, -127.33611369132996
 1.706390036239741E9, -347.78077667951584, -318.10093063116074, -204.88667917251587, -117.52261620759964
 1.7063900362719588E9, -297.5165212750435, -339.40340077877045, -246.05549788475037, -61.9925816655159
 1.7063900362719588E9, -389.1889489889145, -326.95701372623444, -216.61500543355942, -104.35816836357117
 1.7063900362725055E9, -381.05092668533325, -311.87773710489273, -201.5357288122177, -138.1070255637169
 1.7063900362725055E9, -289.6178525686264, -335.81309682130814, -235.76329320669174, -74.67832231521606
 1.7063900362731938E9, -344.908533513546, -327.6750745177269, -224.5136741399765, -73.24220073223114
 1.7063900362731938E9, -405.9437007904053, -317.3828698396683, -198.66348564624786, -144.09086549282074
 1.706390036273985E9, -310.68096911907196, -325.76024574041367, -219.00854140520096, -97.65626764297485
 1.706390036273985E9, -317.6222234368324, -338.44598639011383, -246.77355867624283, -63.90741044282913
 1.706390036284896E9, -405.9437007904053, -318.10093063116074, -199.86025363206863, -125.18193131685257
 1.706390036284896E9, -342.7543511390686, -319.53705221414566, -204.1686183810234, -114.65037304162979
 1.7063900362997282E9, -297.9952284693718, -344.908533513546, -250.12450903654099, -62.47128885984421
 1.7063900362997282E9, -388.470888197422, -328.87184250354767, -219.48724859952927, -103.40075397491455
 1.7063900363155656E9, -386.5560594201088, -319.53705221414566, -208.23762953281403, -143.61215829849243
 1.7063900363155656E9, -295.3623389005661, -339.1640471816063, -244.61937630176544, -74.91767591238022
 1.706390036316102E9, -349.4562518596649, -333.4195608496666, -236.24200040102005, -78.50797986984253
 1.706390036316102E9, -409.5340047478676, -317.8615770339966, -197.9454248547554, -138.82508635520935
 1.70639003632967E9, -316.90416264533997, -333.18020725250244, -227.1465637087822, -92.39048850536346
 1.70639003632967E9, -317.3828698396683, -336.29180401563644, -244.14066910743713, -59.59904569387436
 1.7063900363454509E9, -403.55016481876373, -314.0319194793701, -202.73249679803848, -120.8735665678978
 1.7063900363454509E9, -349.69560545682907, -321.69123458862305, -208.47698312997818, -116.32584822177887
 1.706390036346084E9, -291.0539741516113, -339.1640471816063, -243.66196191310883, -55.53003454208374
 1.706390036346084E9, -383.20510905981064, -324.32412415742874, -218.7691878080368, -98.85303562879562
 1.706390036359707E9, -380.8115730881691, -316.42545545101166, -194.8338280916214, -130.44771045446396
 1.706390036359707E9, -294.64427810907364, -343.2330583333969, -238.6355363726616, -66.77965360879898
 1.7063900363753667E9, -354.48267740011215, -339.40340077877045, -241.02907234430313, -80.42280864715576
 1.7063900363753667E9, -412.40624791383743, -320.2551130056381, -203.45055758953094, -142.89409750699997
 1.7063900363761144E9, -323.6060633659363, -334.3769752383232, -227.6252709031105, -96.69885325431824
 1.7063900363761144E9, -320.4944666028023, -344.908533513546, -247.25226587057114, -61.51387447118759
 1.70639003639006E9, -408.8159439563751, -320.01575940847397, -208.23762953281403, -130.2083568572998
 1.70639003639006E9, -347.78077667951584, -321.69123458862305, -202.01443600654602, -116.08649462461472
 1.7063900364054825E9, -294.8836317062378, -345.14788711071014, -252.27869141101837, -67.49771440029144
 1.7063900364054825E9, -387.75282740592957, -331.50473207235336, -222.59884536266327, -108.66653311252594
 1.7063900364060807E9, -382.9657554626465, -323.12735617160797, -200.81766802072525, -138.1070255637169
 1.7063900364060807E9, -295.60169249773026, -341.796936750412, -246.29485148191452, -79.22604066133499
 1.7063900364196887E9, -351.37108063697815, -339.6427543759346, -243.90131551027298, -88.08212375640869
 1.7063900364196887E9, -403.3108112215996, -316.42545545101166, -204.88667917251587, -144.3302190899849
 1.7063900364354877E9, -308.5267867445946, -328.39313530921936, -224.9923813343048, -93.34790289402008
 1.7063900364354877E9, -310.20226192474365, -335.0950360298157, -245.57679069042206, -63.428703248500824
 1.706390036436178E9, -397.80567848682404, -308.5267867445946, -199.62090003490448, -121.11292016506195
 1.706390036436178E9, -342.2756439447403, -315.94674825668335, -198.18477845191956, -115.36843383312225
 1.7063900364502182E9, -289.6178525686264, -338.2066327929497, -240.55036514997482, -56.2480953335762
 1.7063900364502182E9, -390.6250705718994, -334.8556824326515, -225.47108852863312, -105.55493634939194
 1.706390036465701E9, -388.7102417945862, -327.1963673233986, -207.04086154699326, -145.2876334786415
 1.706390036465701E9, -296.3197532892227, -345.14788711071014, -245.09808349609375, -73.24220073223114
 1.706390036466242E9, -354.7220309972763, -339.1640471816063, -240.07165795564651, -80.18345504999161
 1.706390036466242E9, -413.1243087053299, -323.12735617160797, -199.14219284057617, -139.5431471467018
 1.706390036479704E9, -325.5208921432495, -344.1904727220535, -237.43876838684082, -107.23041152954102
 1.706390036479704E9, -327.91442811489105, -353.52526301145554, -254.6722273826599, -72.04543274641037
 1.706390036495566E9, -420.06556302309036, -333.4195608496666, -215.6575910449028, -131.88383203744888
 1.706390036495566E9, -359.74845653772354, -331.7440856695175, -222.12013816833496, -129.01158887147903
 1.7063900364961953E9, -304.6971291899681, -349.69560545682907, -257.7838241457939, -71.08801835775375
 1.7063900364961953E9, -396.8482640981674, -344.66917991638184, -235.04523241519928, -109.3845939040184
 1.7063900365099118E9, -393.7366673350334, -329.350549697876, -208.9556903243065, -141.2186223268509
 1.7063900365099118E9, -303.2610076069832, -351.37108063697815, -247.73097306489944, -80.42280864715576
 1.7063900365254374E9, -357.11556696891785, -346.8233622908592, -245.3374370932579, -81.85893023014069
 1.7063900365254374E9, -416.7146126627922, -330.7866712808609, -207.75892233848572, -150.0747054219246
 1.7063900365261612E9, -315.94674825668335, -336.29180401563644, -225.47108852863312, -95.98079246282578
 1.7063900365261612E9, -318.8189914226532, -342.2756439447403, -246.77355867624283, -66.06159281730652
 1.7063900365400198E9, -405.9437007904053, -318.57963782548904, -209.19504392147064, -128.05417448282242
 1.7063900365400198E9, -351.6104342341423, -325.0421849489212, -214.46082305908203, -123.50645613670349
 1.706390036571878E9, -292.96880292892456, -346.8233622908592, -250.6032162308693, -65.58288562297821
 1.706390036571878E9, -381.7689874768257, -330.3079640865326, -221.8807845711708, -102.44333958625793
 1.7063900365724924E9, -383.9231698513031, -315.46804106235504, -196.03059607744217, -133.79866081476212
 1.7063900365724924E9, -289.85720616579056, -337.4885720014572, -240.55036514997482, -74.19961512088776
 1.7063900365732584E9, -342.51499754190445, -336.5311576128006, -234.08781802654266, -75.87509030103683
 1.7063900365732584E9, -401.87468963861465, -316.42545545101166, -195.55188888311386, -140.97926872968674
 1.7063900365740893E9, -305.41518998146057, -328.1537817120552, -224.0349669456482, -94.06596368551254
 1.7063900365740893E9, -310.9203227162361, -336.29180401563644, -242.7045475244522, -60.31710648536682
 1.7063900365847185E9, -410.73077273368835, -324.80283135175705, -212.0672870874405, -129.7296496629715
 1.7063900365847185E9, -349.9349590539932, -325.5208921432495, -209.67375111579895, -121.3522737622261
 1.7063900366160686E9, -291.0539741516113, -341.796936750412, -252.51804500818253, -61.27452087402344
 1.7063900366160686E9, -384.64123064279556, -328.1537817120552, -231.69428205490112, -108.42717951536179
 1.7063900366168022E9, -383.9231698513031, -320.2551130056381, -199.62090003490448, -135.9528431892395
 1.7063900366168022E9, -286.74560940265656, -332.46214646101, -236.0026468038559, -69.65189677476883
 1.7063900366175518E9, -348.25948387384415, -339.40340077877045, -242.2258403301239, -80.66216224431992
 1.7063900366175518E9, -400.6779216527939, -311.3990299105644, -199.86025363206863, -141.6973295211792
 1.7063900366460347E9, -305.6545435786247, -326.238952934742, -223.79561334848404, -92.62984210252762
 1.7063900366460347E9, -311.15967631340027, -334.3769752383232, -236.0026468038559, -58.64163130521774
 1.7063900366467574E9, -399.4811536669731, -314.98933386802673, -203.2112039923668, -125.42128491401672
 1.7063900366467574E9, -338.92469358444214, -318.10093063116074, -204.40797197818756, -115.60778743028641
 1.706390036647506E9, -286.9849629998207, -339.40340077877045, -246.77355867624283, -55.290680944919586
 1.706390036647506E9, -372.67355078458786, -320.4944666028023, -217.33306622505188, -98.37432843446732
 1.7063900366597545E9, -376.024501144886, -314.98933386802673, -195.79124248027802, -131.64447844028473
 1.7063900366597545E9, -282.9159518480301, -331.7440856695175, -233.13040363788605, -70.13060396909714
 1.7063900366918151E9, -330.7866712808609, -324.32412415742874, -231.21557486057281, -72.76349353790283
 1.7063900366918151E9, -395.8908497095108, -308.7661403417587, -192.679645717144, -134.99542880058289
 1.7063900366925285E9, -299.19199645519257, -316.42545545101166, -214.70017665624619, -89.03953814506531
 1.7063900366925285E9, -308.5267867445946, -339.88210797309875, -244.3800227046013, -59.12033849954605
 1.7063900366932712E9, -399.24180006980896, -312.1170907020569, -199.14219284057617, -120.15550577640533
 1.7063900366932712E9, -344.66917991638184, -320.9731737971306, -204.88667917251587, -117.04390901327133
 1.7063900366939857E9, -291.53268134593964, -342.2756439447403, -242.94390112161636, -62.231935262680054
 1.7063900366939857E9, -383.68381625413895, -330.06861048936844, -234.80587881803513, -109.14524030685425
 1.7063900367048154E9, -386.5560594201088, -318.3402842283249, -205.12603276968002, -139.5431471467018
 1.7063900367048154E9, -296.55910688638687, -338.685339987278, -245.57679069042206, -77.0718582868576
 1.706390036736755E9, -353.7646166086197, -340.1214615702629, -241.7471331357956, -83.53440541028976
 1.706390036736755E9, -408.3372367620468, -314.98933386802673, -197.22736406326294, -142.65474390983582
 1.7063900367374754E9, -311.15967631340027, -329.350549697876, -219.2478950023651, -90.47565972805023
 1.7063900367374754E9, -314.98933386802673, -337.24921840429306, -245.57679069042206, -61.51387447118759
 1.7063900367381835E9, -406.9011151790619, -320.9731737971306, -196.74865686893463, -122.07033455371857
 1.7063900367381835E9, -347.78077667951584, -322.16994178295135, -208.23762953281403, -119.43744498491287
 1.7063900367500775E9, -294.64427810907364, -343.47241193056107, -247.73097306489944, -57.92357051372528
 1.7063900367500775E9, -382.247694671154, -328.1537817120552, -217.33306622505188, -100.5285108089447
 1.7063900367654965E9, -378.6573907136917, -311.6383835077286, -198.18477845191956, -133.55930721759796
 1.7063900367654965E9, -289.37849897146225, -337.4885720014572, -244.14066910743713, -73.24220073223114
 1.7063900367661264E9, -349.21689826250076, -339.88210797309875, -241.50777953863144, -78.74733346700668
 1.7063900367661264E9, -409.29465115070343, -321.9305881857872, -198.18477845191956, -141.45797592401505
 1.706390036779644E9, -311.15967631340027, -333.4195608496666, -227.38591730594635, -96.69885325431824
 1.706390036779644E9, -310.20226192474365, -337.0098648071289, -246.77355867624283, -63.90741044282913
 1.7063900367956002E9, -400.1992144584656, -314.0319194793701, -202.73249679803848, -129.96900326013565
 1.7063900367956002E9, -339.1640471816063, -314.27127307653427, -202.49314320087433, -119.67679858207703
 1.706390036796117E9, -278.6075870990753, -331.2653784751892, -242.46519392728806, -56.00874173641205
 1.706390036796117E9, -377.2212691307068, -322.8880025744438, -218.05112701654434, -100.76786440610886
 1.7063900368097436E9, -380.8115730881691, -312.35644429922104, -199.86025363206863, -133.79866081476212
 1.7063900368097436E9, -285.30948781967163, -336.29180401563644, -238.6355363726616, -73.4815543293953
 1.7063900368254569E9, -347.78077667951584, -338.92469358444214, -233.13040363788605, -76.83250468969345
 1.7063900368254569E9, -409.77335834503174, -317.6222234368324, -193.15835291147232, -137.86767196655273
 1.7063900368261127E9, -315.94674825668335, -333.4195608496666, -226.6678565144539, -101.00721800327301
 1.7063900368261127E9, -318.3402842283249, -340.1214615702629, -246.77355867624283, -66.77965360879898
 1.7063900368397007E9, -400.91727524995804, -318.8189914226532, -204.64732557535172, -124.70322412252426
 1.7063900368397007E9, -344.4298263192177, -322.8880025744438, -214.22146946191788, -127.81482088565826
 1.7063900368554444E9, -282.9159518480301, -343.9511191248894, -253.95416659116745, -64.38611763715744
 1.7063900368554444E9, -370.9980756044388, -324.32412415742874, -225.94979572296143, -107.46976512670517
 1.7063900368561215E9, -373.3916115760803, -314.27127307653427, -203.45055758953094, -142.41539031267166
 1.7063900368561215E9, -282.1978910565376, -331.7440856695175, -243.42260831594467, -84.01311260461807
 1.7063900368699224E9, -341.55758315324783, -334.3769752383232, -245.3374370932579, -87.12470936775208
 1.7063900368699224E9, -401.87468963861465, -317.1435162425041, -206.08344715833664, -146.48440146446228
 1.706390036885818E9, -312.5957978963852, -336.77051120996475, -227.86462450027466, -102.44333958625793
 1.706390036885818E9, -308.2874331474304, -339.1640471816063, -236.72070759534836, -62.71064245700836
 1.706390036886174E9, -394.9334353208542, -309.4842011332512, -203.2112039923668, -123.74580973386765
 1.706390036886174E9, -346.10530149936676, -319.05834501981735, -202.49314320087433, -119.91615217924118
 1.7063900368997E9, -287.463670194149, -337.0098648071289, -247.01291227340698, -58.64163130521774
 1.7063900368997E9, -377.46062272787094, -325.76024574041367, -218.52983421087265, -98.61368203163147
 1.7063900369154406E9, -381.05092668533325, -317.6222234368324, -199.62090003490448, -141.2186223268509
 1.7063900369154406E9, -291.53268134593964, -337.9672791957855, -236.9600611925125, -80.66216224431992
 1.7063900369162676E9, -348.25948387384415, -337.72792559862137, -239.5929507613182, -81.61957663297653
 1.7063900369162676E9, -407.8585295677185, -320.01575940847397, -202.25378960371017, -148.15987664461136
 1.7063900369296987E9, -317.8615770339966, -336.77051120996475, -220.68401658535004, -102.92204678058624
 1.7063900369296987E9, -327.43572092056274, -348.25948387384415, -252.03933781385422, -70.60931116342545
 1.7063900369455416E9, -416.47525906562805, -331.98343926668167, -213.0247014760971, -134.27736800909042
 1.7063900369455416E9, -357.354920566082, -326.238952934742, -205.36538636684418, -122.07033455371857
 1.706390036946149E9, -293.2081565260887, -341.0788759589195, -241.98648673295975, -59.12033849954605
 1.706390036946149E9, -384.16252344846725, -328.6324889063835, -219.48724859952927, -96.22014605998993
 1.706390036959803E9, -379.3754515051842, -312.5957978963852, -188.6106345653534, -130.92641764879227
 1.706390036959803E9, -292.49009573459625, -338.44598639011383, -236.9600611925125, -71.80607914924622
 1.7063900369761696E9, -348.02013027668, -339.88210797309875, -232.65169644355774, -77.0718582868576
 1.7063900369761696E9, -411.9275407195091, -321.4518809914589, -201.29637521505356, -141.93668311834335
 1.7063900369767923E9, -320.9731737971306, -336.29180401563644, -227.86462450027466, -101.96463239192963
 1.7063900369767923E9, -317.8615770339966, -344.4298263192177, -247.4916194677353, -67.49771440029144
 1.7063900369896626E9, -404.50757920742035, -321.4518809914589, -203.2112039923668, -126.37869930267334
 1.7063900369896626E9, -351.131727039814, -323.6060633659363, -207.51956874132156, -123.74580973386765
 1.7063900370053964E9, -294.4049245119095, -345.14788711071014, -247.73097306489944, -61.753228068351746
 1.7063900370053964E9, -379.3754515051842, -327.1963673233986, -223.79561334848404, -102.44333958625793
 1.7063900370061288E9, -380.09351229667664, -310.9203227162361, -198.18477845191956, -138.5857327580452
 1.7063900370061288E9, -287.70302379131317, -333.8982680439949, -235.04523241519928, -73.72090792655945
 1.7063900370357316E9, -349.21689826250076, -334.13762164115906, -233.60911083221436, -73.72090792655945
 1.7063900370357316E9, -408.09788316488266, -315.46804106235504, -193.63706010580063, -136.19219678640366
 1.7063900370361483E9, -317.6222234368324, -330.3079640865326, -220.68401658535004, -93.58725649118423
 1.7063900370361483E9, -322.4092953801155, -343.7117655277252, -244.14066910743713, -63.428703248500824
 1.706390037050676E9, -357.8336277604103, -325.28153854608536, -212.5459942817688, -123.74580973386765
 1.706390037050676E9, -299.6707036495209, -349.4562518596649, -247.01291227340698, -61.9925816655159
 1.706390037051238E9, -388.470888197422, -334.3769752383232, -219.72660219669342, -100.0498036146164
 1.706390037051238E9, -394.69408172369003, -328.1537817120552, -198.4241320490837, -137.38896477222443
 1.7063900370646973E9, -296.55910688638687, -341.796936750412, -241.50777953863144, -76.83250468969345
 1.7063900370646973E9, -344.1904727220535, -335.81309682130814, -234.80587881803513, -76.11444389820099
 1.7063900370805497E9, -400.6779216527939, -312.83515149354935, -189.0893417596817, -133.55930721759796
 1.7063900370805497E9, -314.7499802708626, -331.02602487802505, -224.0349669456482, -97.4169140458107
 1.7063900370811408E9, -306.13325077295303, -335.81309682130814, -244.3800227046013, -64.14676403999329
 1.7063900370811408E9, -399.0024464726448, -321.21252739429474, -210.3918119072914, -129.01158887147903
 1.7063900370948257E9, -341.796936750412, -317.3828698396683, -206.8015079498291, -119.91615217924118
 1.7063900370948257E9, -284.8307806253433, -338.685339987278, -247.01291227340698, -63.18934965133667
 1.7063900371108203E9, -377.93932992219925, -324.80283135175705, -218.52983421087265, -99.81045001745224
 1.7063900371108203E9, -377.2212691307068, -311.87773710489273, -191.7222313284874, -133.3199536204338
 1.7063900371112132E9, -282.4372446537018, -333.4195608496666, -234.80587881803513, -72.28478634357452
 1.7063900371112132E9, -335.0950360298157, -325.28153854608536, -234.56652522087097, -74.19961512088776
 1.7063900371246617E9, -396.3695569038391, -308.04807955026627, -192.91899931430817, -133.3199536204338
 1.7063900371246617E9, -303.97906839847565, -321.69123458862305, -216.37565183639526, -94.54467087984085
 1.7063900371403964E9, -299.6707036495209, -329.350549697876, -240.31101155281067, -61.9925816655159
 1.7063900371403964E9, -400.6779216527939, -316.1861018538475, -205.84409356117249, -128.29352807998657
 1.7063900371411097E9, -342.03629034757614, -315.46804106235504, -208.71633672714233, -125.66063851118088
 1.7063900371411097E9, -284.352073431015, -337.24921840429306, -249.88515543937683, -62.231935262680054
 1.7063900371549523E9, -376.26385474205017, -325.76024574041367, -226.6678565144539, -106.51235073804855
 1.7063900371549523E9, -383.9231698513031, -320.4944666028023, -198.66348564624786, -142.1760367155075
 1.7063900371709044E9, -285.0701342225075, -334.61632883548737, -237.67812198400497, -74.67832231521606
 1.7063900371709044E9, -342.7543511390686, -336.0524504184723, -243.66196191310883, -84.25246620178223
 1.7063900371714027E9, -413.84236949682236, -321.69123458862305, -197.70607125759125, -146.48440146446228
 1.7063900371714027E9, -314.98933386802673, -330.3079640865326, -222.12013816833496, -98.61368203163147
 1.7063900371847136E9, -317.6222234368324, -342.99370473623276, -248.92774105072021, -69.89125037193298
 1.7063900371847136E9, -405.2256399989128, -324.5634777545929, -211.34922629594803, -133.79866081476212
 1.706390037200392E9, -349.21689826250076, -325.0421849489212, -212.78534787893295, -126.85740649700165
 1.706390037200392E9, -297.0378140807152, -344.66917991638184, -253.95416659116745, -65.82223922014236
 1.7063900372010927E9, -378.6573907136917, -328.39313530921936, -220.68401658535004, -108.66653311252594
 1.7063900372010927E9, -377.2212691307068, -309.4842011332512, -198.90283924341202, -141.6973295211792
 1.7063900372146828E9, -283.8733662366867, -334.13762164115906, -240.78971874713898, -81.14086943864822
 1.7063900372146828E9, -333.8982680439949, -325.28153854608536, -236.0026468038559, -77.78991907835007
 1.706390037230372E9, -394.69408172369003, -308.2874331474304, -198.18477845191956, -148.87793743610382
 1.706390037230372E9, -299.6707036495209, -321.4518809914589, -224.75302773714066, -105.79428994655609
 1.7063900372310889E9, -304.2184219956398, -335.0950360298157, -252.03933781385422, -73.24220073223114
 1.7063900372310889E9, -398.28438568115234, -321.4518809914589, -216.1362982392311, -136.67090398073196
 1.706390037245156E9, -343.9511191248894, -320.4944666028023, -214.93953025341034, -134.51672160625458
 1.706390037245156E9, -291.2933277487755, -345.8659479022026, -259.21994572877884, -73.72090792655945
 1.706390037260511E9, -380.09351229667664, -330.3079640865326, -229.06139248609543, -110.58136188983917
 1.706390037260511E9, -388.2315346002579, -322.4092953801155, -207.2802151441574, -149.59599822759628
 1.7063900372610867E9, -292.96880292892456, -341.796936750412, -249.16709464788437, -87.60341656208038
 1.7063900372610867E9, -348.73819106817245, -342.99370473623276, -250.12450903654099, -91.43307411670685
 1.7063900372747684E9, -402.83210402727127, -314.98933386802673, -203.6899111866951, -152.94694858789444
 1.7063900372747684E9, -301.82488602399826, -322.64864897727966, -222.59884536266327, -99.33174282312393
 1.7063900372906125E9, -301.82488602399826, -330.7866712808609, -245.57679069042206, -67.7370679974556
 1.7063900372906125E9, -390.38571697473526, -308.2874331474304, -208.23762953281403, -131.16577124595642
 1.706390037291175E9, -333.4195608496666, -307.56937235593796, -200.81766802072525, -117.52261620759964
 1.706390037291175E9, -275.017283141613, -330.54731768369675, -248.4490338563919, -65.82223922014236
 1.7063900373051147E9, -365.7322964668274, -316.42545545101166, -218.52983421087265, -102.68269318342209
 1.7063900373051147E9, -367.1684180498123, -307.56937235593796, -202.25378960371017, -141.45797592401505
 1.706390037320347E9, -279.0862942934036, -324.80283135175705, -231.93363565206528, -73.72090792655945
 1.706390037320347E9, -336.29180401563644, -327.91442811489105, -236.9600611925125, -79.7047478556633
 1.7063900373210924E9, -399.72050726413727, -309.0054939389229, -194.59447449445724, -140.02185434103012
 1.7063900373210924E9, -314.0319194793701, -325.5208921432495, -224.5136741399765, -102.68269318342209
 1.706390037334689E9, -310.9203227162361, -341.55758315324783, -245.8161442875862, -67.97642159461975
 1.706390037334689E9, -403.7895184159279, -321.4518809914589, -207.2802151441574, -127.0967600941658
 1.7063900373504896E9, -349.21689826250076, -321.9305881857872, -206.8015079498291, -118.00132340192795
 1.7063900373504896E9, -290.575266957283, -346.8233622908592, -255.62964177131653, -66.77965360879898
 1.7063900373511949E9, -383.9231698513031, -335.81309682130814, -224.0349669456482, -103.6401075720787
 1.7063900373511949E9, -383.20510905981064, -320.2551130056381, -198.66348564624786, -141.45797592401505
 1.7063900373646991E9, -291.7720349431038, -338.685339987278, -234.80587881803513, -74.43896871805191
 1.7063900373646991E9, -341.0788759589195, -335.0950360298157, -232.17298924922943, -70.60931116342545
 1.706390037380344E9, -403.3108112215996, -310.9203227162361, -189.80740255117416, -134.99542880058289
 1.706390037380344E9, -312.5957978963852, -324.5634777545929, -214.70017665624619, -94.06596368551254
 1.7063900373810637E9, -306.61195796728134, -335.3343896269798, -238.6355363726616, -56.487448930740356
 1.7063900373810637E9, -408.3372367620468, -322.16994178295135, -201.77508240938187, -121.3522737622261
 1.706390037395008E9, -352.5678486227989, -321.9305881857872, -202.97185039520264, -119.19809138774872
 1.706390037395008E9, -293.44751012325287, -343.9511191248894, -245.3374370932579, -61.51387447118759
 1.7063900374107344E9, -383.68381625413895, -331.02602487802505, -228.34333169460297, -103.6401075720787
 1.7063900374107344E9, -387.75282740592957, -323.6060633659363, -199.86025363206863, -140.97926872968674
 1.7063900374112115E9, -290.575266957283, -340.6001687645912, -236.0026468038559, -76.83250468969345
 1.7063900374112115E9, -346.8233622908592, -336.77051120996475, -240.78971874713898, -80.66216224431992
 1.7063900374246607E9, -413.6030158996582, -315.7073946595192, -201.0570216178894, -143.85151189565659
 1.7063900374246607E9, -312.5957978963852, -325.5208921432495, -217.09371262788773, -98.13497483730316
 1.7063900374404106E9, -314.7499802708626, -339.88210797309875, -243.18325471878052, -61.9925816655159
 1.7063900374404106E9, -407.3798223733902, -320.2551130056381, -204.64732557535172, -124.22451692819595
 1.70639003744113E9, -347.5414230823517, -317.8615770339966, -196.03059607744217, -115.1290802359581
 1.70639003744113E9, -290.0965597629547, -336.77051120996475, -241.02907234430313, -60.31710648536682
 1.706390037454778E9, -382.72640186548233, -325.76024574041367, -217.57241982221603, -100.0498036146164
 1.706390037454778E9, -386.79541301727295, -319.7764058113098, -197.4667176604271, -143.61215829849243
 1.706390037470513E9, -293.9262173175812, -339.88210797309875, -241.50777953863144, -84.01311260461807
 1.706390037470513E9, -347.78077667951584, -338.685339987278, -239.5929507613182, -80.66216224431992
 1.706390037471336E9, -404.50757920742035, -310.68096911907196, -200.0996072292328, -142.89409750699997
 1.706390037471336E9, -317.8615770339966, -330.7866712808609, -221.4020773768425, -104.35816836357117
 1.7063900374846737E9, -309.9629083275795, -336.5311576128006, -238.87488996982574, -62.949996054172516
 1.7063900374846737E9, -401.6353360414505, -317.8615770339966, -197.9454248547554, -125.42128491401672
 1.706390037500712E9, -347.30206948518753, -314.0319194793701, -200.5783144235611, -120.39485937356949
 1.706390037500712E9, -289.37849897146225, -336.0524504184723, -246.29485148191452, -59.83839929103851
 1.706390037501221E9, -378.89674431085587, -323.6060633659363, -215.1788838505745, -103.87946116924286
 1.706390037501221E9, -384.8805842399597, -312.35644429922104, -189.80740255117416, -134.51672160625458
 1.7063900375148757E9, -289.37849897146225, -330.7866712808609, -234.80587881803513, -75.15702950954437
 1.7063900375148757E9, -340.36081516742706, -328.39313530921936, -230.49751406908035, -79.7047478556633
 1.706390037530444E9, -406.66176158189774, -319.53705221414566, -198.66348564624786, -145.04827988147736
 1.706390037530444E9, -310.20226192474365, -323.12735617160797, -223.07755255699158, -99.81045001745224
 1.7063900375311227E9, -309.9629083275795, -336.5311576128006, -239.83230435848236, -66.30094641447067
 1.7063900375311227E9, -401.6353360414505, -315.94674825668335, -205.12603276968002, -126.13934570550919
 1.706390037544689E9, -352.0891414284706, -322.16994178295135, -208.47698312997818, -124.22451692819595
 1.706390037544689E9, -287.9423773884773, -339.88210797309875, -245.57679069042206, -60.79581367969513
 1.7063900375606904E9, -378.41803711652756, -326.95701372623444, -211.34922629594803, -96.93820685148239
 1.7063900375606904E9, -383.4444626569748, -317.3828698396683, -200.81766802072525, -139.5431471467018
 1.7063900375612907E9, -286.9849629998207, -330.3079640865326, -236.72070759534836, -74.91767591238022
 1.7063900375612907E9, -334.8556824326515, -324.0847705602646, -231.21557486057281, -74.67832231521606
 1.70639003757472E9, -397.5663248896599, -306.8513115644455, -194.3551208972931, -137.38896477222443
 1.70639003757472E9, -307.56937235593796, -320.73382019996643, -213.50340867042542, -91.1937205195427
 1.7063900375904331E9, -309.0054939389229, -338.44598639011383, -244.14066910743713, -64.14676403999329
 1.7063900375904331E9, -400.6779216527939, -317.3828698396683, -205.12603276968002, -118.71938419342041
 1.7063900375910976E9, -345.8659479022026, -316.90416264533997, -199.62090003490448, -114.88972663879395
 1.7063900375910976E9, -285.78819501399994, -337.9672791957855, -238.39618277549744, -53.1364985704422
 1.706390037605012E9, -374.82773315906525, -323.6060633659363, -215.1788838505745, -90.71501332521439
 1.706390037605012E9, -376.7425619363785, -308.2874331474304, -195.55188888311386, -133.08060002326965
 1.7063900376203918E9, -282.4372446537018, -333.18020725250244, -234.80587881803513, -69.65189677476883
 1.7063900376203918E9, -335.573743224144, -331.50473207235336, -234.32717162370682, -70.36995756626129
 1.7063900376211047E9, -399.9598608613014, -313.0745050907135, -191.96158492565155, -135.4741359949112
 1.7063900376211047E9, -311.3990299105644, -322.4092953801155, -214.93953025341034, -93.10854929685593
 1.706390037634886E9, -308.5267867445946, -333.4195608496666, -244.14066910743713, -56.72680252790451
 1.706390037634886E9, -400.91727524995804, -318.10093063116074, -204.40797197818756, -121.11292016506195
 1.7063900376508768E9, -353.52526301145554, -319.7764058113098, -205.12603276968002, -123.9851633310318
 1.7063900376508768E9, -285.78819501399994, -335.573743224144, -249.40644824504852, -61.51387447118759
 1.7063900376511607E9, -377.6999763250351, -326.95701372623444, -221.64143097400665, -105.07622915506363
 1.7063900376511607E9, -377.6999763250351, -316.42545545101166, -202.01443600654602, -137.38896477222443
 1.7063900376647403E9, -283.15530544519424, -330.06861048936844, -231.45492845773697, -73.9602615237236
 1.7063900376647403E9, -333.18020725250244, -328.87184250354767, -235.04523241519928, -73.00284713506699
 1.7063900376807163E9, -398.0450320839882, -305.41518998146057, -188.84998816251755, -132.3625392317772
 1.7063900376807163E9, -303.02165400981903, -313.31385868787766, -210.87051910161972, -88.80018454790115
 1.70639003768128E9, -301.1068252325058, -328.1537817120552, -232.17298924922943, -57.92357051372528
 1.70639003768128E9, -396.8482640981674, -314.7499802708626, -200.5783144235611, -124.22451692819595
 1.7063900376949966E9, -345.62659430503845, -318.3402842283249, -208.9556903243065, -123.50645613670349
 1.7063900376949966E9, -284.352073431015, -336.0524504184723, -246.77355867624283, -62.47128885984421
 1.706390037710995E9, -381.05092668533325, -330.54731768369675, -221.16272377967834, -105.07622915506363
 1.706390037710995E9, -387.5134738087654, -315.46804106235504, -195.79124248027802, -139.78250074386597
 1.7063900377254379E9, -285.30948781967163, -330.7866712808609, -230.97622126340866, -71.56672555208206
 1.7063900377254379E9, -336.29180401563644, -328.6324889063835, -237.91747558116913, -77.0718582868576
 1.706390037726152E9, -396.60891050100327, -305.41518998146057, -196.50930327177048, -142.1760367155075
 1.706390037726152E9, -309.24484753608704, -321.4518809914589, -220.44466298818588, -98.13497483730316
 1.7063900377408044E9, -309.0054939389229, -336.77051120996475, -243.90131551027298, -60.79581367969513
 1.7063900377408044E9, -407.14046877622604, -324.0847705602646, -210.87051910161972, -125.66063851118088
 1.7063900377411995E9, -359.74845653772354, -332.46214646101, -215.41823744773865, -131.40512484312057
 1.7063900377411995E9, -301.5855324268341, -348.02013027668, -252.51804500818253, -64.6254712343216
 1.7063900377547636E9, -384.64123064279556, -332.46214646101, -227.38591730594635, -108.42717951536179
 1.7063900377547636E9, -390.1463633775711, -322.64864897727966, -206.3228007555008, -146.48440146446228
 1.706390037770402E9, -294.8836317062378, -336.77051120996475, -243.42260831594467, -78.50797986984253
 1.706390037770402E9, -346.10530149936676, -337.72792559862137, -244.61937630176544, -84.01311260461807
 1.7063900377711422E9, -409.77335834503174, -317.8615770339966, -208.23762953281403, -152.22888779640198
 1.7063900377711422E9, -320.01575940847397, -330.7866712808609, -226.18914932012558, -104.11881476640701
 1.7063900377848558E9, -320.2551130056381, -349.69560545682907, -251.5606306195259, -74.67832231521606
 1.7063900377848558E9, -408.8159439563751, -327.91442811489105, -216.37565183639526, -134.75607520341873
 1.7063900378007247E9, -355.6794453859329, -328.87184250354767, -216.1362982392311, -126.6180528998375
 1.7063900378007247E9, -290.575266957283, -338.44598639011383, -250.36386263370514, -60.07775288820267
 1.7063900378012047E9, -374.5883795619011, -324.5634777545929, -220.44466298818588, -99.57109642028809
 1.7063900378012047E9, -380.8115730881691, -313.5532122850418, -195.55188888311386, -136.19219678640366
 1.706390037831116E9, -283.15530544519424, -329.8292568922043, -238.87488996982574, -77.31121188402176
 1.706390037831116E9, -331.02602487802505, -326.95701372623444, -236.9600611925125, -76.5931510925293
 1.7063900378319063E9, -401.6353360414505, -312.1170907020569, -195.55188888311386, -138.5857327580452
 1.7063900378319063E9, -298.71328926086426, -319.53705221414566, -213.98211586475372, -93.34790289402008
 1.7063900378325703E9, -302.30359321832657, -331.2653784751892, -243.66196191310883, -61.27452087402344
 1.7063900378325703E9, -393.97602093219757, -315.7073946595192, -202.01443600654602, -121.59162735939026
 1.706390037844802E9, -340.36081516742706, -312.35644429922104, -199.38154643774033, -120.39485937356949
 1.706390037844802E9, -273.3418079614639, -328.6324889063835, -234.32717162370682, -50.26425540447235
 1.7063900378606992E9, -366.2110036611557, -318.10093063116074, -214.22146946191788, -95.02337807416916
 1.7063900378606992E9, -372.67355078458786, -304.45777559280396, -193.87641370296478, -135.9528431892395
 1.7063900378612444E9, -269.99085760116577, -320.01575940847397, -221.8807845711708, -66.30094641447067
 1.7063900378612444E9, -327.91442811489105, -322.8880025744438, -223.79561334848404, -69.65189677476883
 1.706390037874712E9, -394.69408172369003, -304.6971291899681, -187.89257377386093, -135.4741359949112
 1.706390037874712E9, -302.5429468154907, -320.9731737971306, -216.1362982392311, -95.26273167133331
 1.7063900378904548E9, -303.02165400981903, -332.9408536553383, -241.7471331357956, -55.769388139247894
 1.7063900378904548E9, -395.4121425151825, -312.83515149354935, -202.73249679803848, -117.52261620759964
 1.7063900378911295E9, -341.796936750412, -312.1170907020569, -199.86025363206863, -114.17166584730148
 1.7063900378911295E9, -280.04370868206024, -333.18020725250244, -240.07165795564651, -55.05132734775543
 1.7063900379048333E9, -365.97165006399155, -320.2551130056381, -213.0247014760971, -91.672427713871
 1.7063900379048333E9, -370.5193684101105, -303.2610076069832, -191.00417053699493, -132.8412464261055
 1.706390037921123E9, -280.2830622792244, -326.238952934742, -235.28458601236343, -70.36995756626129
 1.706390037921123E9, -330.3079640865326, -326.4783065319061, -227.86462450027466, -67.97642159461975
 1.7063900379353623E9, -399.24180006980896, -313.0745050907135, -192.91899931430817, -137.14961117506027
 1.7063900379353623E9, -309.24484753608704, -324.80283135175705, -212.5459942817688, -96.93820685148239
 1.7063900379360785E9, -305.41518998146057, -333.8982680439949, -239.83230435848236, -59.83839929103851
 1.7063900379360785E9, -397.3269712924957, -317.3828698396683, -206.3228007555008, -126.6180528998375
 1.7063900379503627E9, -342.03629034757614, -313.31385868787766, -198.90283924341202, -118.48003059625626
 1.7063900379503627E9, -277.1714655160904, -331.50473207235336, -244.61937630176544, -56.72680252790451
 1.7063900379510803E9, -365.7322964668274, -321.4518809914589, -221.8807845711708, -93.10854929685593
 1.7063900379510803E9, -378.89674431085587, -311.87773710489273, -194.59447449445724, -132.8412464261055
 1.7063900379646966E9, -290.8146205544472, -335.0950360298157, -238.15682917833328, -75.15702950954437
 1.7063900379646966E9, -336.0524504184723, -331.02602487802505, -235.76329320669174, -69.65189677476883
 1.7063900379807427E9, -402.1140432357788, -308.2874331474304, -192.44029211997986, -133.3199536204338
 1.7063900379807427E9, -310.20226192474365, -325.5208921432495, -217.33306622505188, -93.34790289402008
 1.7063900379812567E9, -309.9629083275795, -339.88210797309875, -245.8161442875862, -62.231935262680054
 1.7063900379812567E9, -400.91727524995804, -316.6648090481758, -200.5783144235611, -123.74580973386765
 1.706390037995356E9, -351.131727039814, -320.73382019996643, -207.99827593564987, -123.50645613670349
 1.706390037995356E9, -290.575266957283, -347.5414230823517, -252.03933781385422, -64.6254712343216
 1.70639003801041E9, -381.05092668533325, -333.65891444683075, -228.34333169460297, -103.6401075720787
 1.70639003801041E9, -387.27412021160126, -318.8189914226532, -202.73249679803848, -141.6973295211792
 1.706390038011153E9, -291.2933277487755, -334.61632883548737, -233.60911083221436, -73.72090792655945
 1.706390038011153E9, -339.1640471816063, -336.29180401563644, -242.94390112161636, -79.7047478556633
 1.7063900380246885E9, -402.35339683294296, -314.0319194793701, -191.7222313284874, -138.82508635520935
 1.7063900380246885E9, -304.2184219956398, -320.4944666028023, -215.1788838505745, -96.93820685148239
 1.7063900380400038E9, -302.5429468154907, -337.9672791957855, -249.16709464788437, -62.231935262680054
 1.7063900380400038E9, -403.55016481876373, -322.64864897727966, -212.0672870874405, -130.2083568572998
 1.7063900380554748E9, -283.63401263952255, -338.92469358444214, -250.84256982803345, -64.38611763715744
 1.7063900380554748E9, -375.30644035339355, -331.02602487802505, -226.18914932012558, -103.87946116924286
 1.7063900380561328E9, -382.247694671154, -316.90416264533997, -205.60473996400833, -149.11729103326797
 1.7063900380561328E9, -292.96880292892456, -337.9672791957855, -248.20968025922775, -88.08212375640869
 1.706390038069656E9, -344.1904727220535, -340.83952236175537, -245.8161442875862, -87.84277015924454
 1.706390038069656E9, -412.88495510816574, -318.8189914226532, -200.33896082639694, -147.9205230474472
 1.7063900380854793E9, -318.57963782548904, -326.4783065319061, -223.79561334848404, -107.46976512670517
 1.7063900380854793E9, -318.10093063116074, -348.9775446653366, -251.5606306195259, -75.15702950954437
 1.7063900380862837E9, -407.14046877622604, -329.1111961007118, -217.33306622505188, -134.99542880058289
 1.7063900380862837E9, -355.2007381916046, -324.5634777545929, -215.1788838505745, -131.40512484312057
 1.706390038099704E9, -290.8146205544472, -345.62659430503845, -254.1935201883316, -70.60931116342545
 1.706390038099704E9, -374.82773315906525, -328.1537817120552, -221.8807845711708, -101.96463239192963
 1.7063900381157973E9, -381.2902802824974, -314.98933386802673, -203.92926478385925, -142.89409750699997
 1.7063900381157973E9, -284.8307806253433, -329.1111961007118, -234.32717162370682, -78.98668706417084
 1.7063900381304235E9, -339.1640471816063, -335.3343896269798, -234.08781802654266, -77.78991907835007
 1.7063900381304235E9, -404.50757920742035, -316.1861018538475, -195.79124248027802, -144.09086549282074
 1.7063900381311264E9, -309.4842011332512, -326.7176601290703, -214.70017665624619, -102.20398598909378
 1.7063900381311264E9, -302.7823004126549, -337.9672791957855, -245.3374370932579, -66.30094641447067
 1.706390038145954E9, -389.42830258607864, -311.15967631340027, -205.12603276968002, -125.66063851118088
 1.706390038145954E9, -342.7543511390686, -313.79256588220596, -205.12603276968002, -127.57546728849411
 1.7063900381607041E9, -282.4372446537018, -336.77051120996475, -247.4916194677353, -66.06159281730652
 1.7063900381607041E9, -369.801307618618, -325.28153854608536, -224.27432054281235, -101.00721800327301
 1.706390038161226E9, -381.7689874768257, -316.90416264533997, -200.5783144235611, -143.85151189565659
 1.706390038161226E9, -290.33591336011887, -335.0950360298157, -236.24200040102005, -80.90151584148407
 1.7063900381754205E9, -334.3769752383232, -331.02602487802505, -236.0026468038559, -74.19961512088776
 1.7063900381754205E9, -399.72050726413727, -311.87773710489273, -196.74865686893463, -144.8089262843132
 1.7063900381761444E9, -313.5532122850418, -322.4092953801155, -221.4020773768425, -101.96463239192963
 1.7063900381761444E9, -309.24484753608704, -337.4885720014572, -246.77355867624283, -65.82223922014236
 1.7063900381897082E9, -400.1992144584656, -318.10093063116074, -202.97185039520264, -123.50645613670349
 1.7063900381897082E9, -351.37108063697815, -316.90416264533997, -203.2112039923668, -125.66063851118088
 1.706390038206334E9, -282.9159518480301, -336.0524504184723, -240.31101155281067, -57.20550972223282
 1.706390038206334E9, -370.04066121578217, -321.9305881857872, -219.00854140520096, -95.26273167133331
 1.706390038206884E9, -379.6148051023483, -314.98933386802673, -196.50930327177048, -137.14961117506027
 1.706390038206884E9, -287.70302379131317, -330.06861048936844, -236.0026468038559, -76.5931510925293
 1.7063900382198832E9, -336.29180401563644, -332.70150005817413, -237.43876838684082, -76.35379749536514
 1.7063900382198832E9, -398.0450320839882, -307.56937235593796, -198.66348564624786, -141.45797592401505
 1.7063900382354536E9, -303.97906839847565, -321.21252739429474, -221.4020773768425, -101.96463239192963
 1.7063900382354536E9, -306.3726043701172, -333.8982680439949, -236.72070759534836, -58.64163130521774
 1.7063900382361345E9, -397.0876176953316, -313.79256588220596, -200.33896082639694, -121.83098095655441
 1.7063900382361345E9, -346.8233622908592, -314.7499802708626, -197.4667176604271, -117.04390901327133
 1.7063900382497177E9, -285.30948781967163, -334.61632883548737, -245.09808349609375, -64.86482483148575
 1.7063900382497177E9, -378.41803711652756, -325.28153854608536, -221.4020773768425, -101.00721800327301
 1.706390038281766E9, -386.79541301727295, -320.4944666028023, -201.0570216178894, -142.89409750699997
 1.706390038281766E9, -297.9952284693718, -343.47241193056107, -247.25226587057114, -89.51824533939362
 1.7063900382825005E9, -347.5414230823517, -345.8659479022026, -246.05549788475037, -86.16729497909546
 1.7063900382825005E9, -413.1243087053299, -323.84541696310043, -202.01443600654602, -149.59599822759628
 1.7063900382832615E9, -321.69123458862305, -329.1111961007118, -227.6252709031105, -103.87946116924286
 1.7063900382832615E9, -311.3990299105644, -342.03629034757614, -250.84256982803345, -67.49771440029144
 1.7063900382839966E9, -405.9437007904053, -327.1963673233986, -213.74276226758957, -133.55930721759796
 1.7063900382839966E9, -359.74845653772354, -330.06861048936844, -207.99827593564987, -132.12318563461304
 1.7063900382950237E9, -300.86747163534164, -357.59427416324615, -264.7250784635544, -79.46539425849915
 1.7063900382950237E9, -383.68381625413895, -335.573743224144, -233.13040363788605, -111.53877627849579
 1.706390038310162E9, -393.97602093219757, -325.5208921432495, -207.99827593564987, -149.59599822759628
 1.706390038310162E9, -300.38876444101334, -343.47241193056107, -243.42260831594467, -84.49181979894638
 1.7063900383254385E9, -342.99370473623276, -343.7117655277252, -245.57679069042206, -82.09828382730484
 1.7063900383254385E9, -407.8585295677185, -319.7764058113098, -205.36538636684418, -148.3992302417755
 1.7063900383260784E9, -315.7073946595192, -335.3343896269798, -225.23173493146896, -106.2729971408844
 1.7063900383260784E9, -310.20226192474365, -342.2756439447403, -248.92774105072021, -61.9925816655159
 1.7063900383396797E9, -401.1566288471222, -320.2551130056381, -206.8015079498291, -126.37869930267334
 1.7063900383396797E9, -349.69560545682907, -321.9305881857872, -207.51956874132156, -128.29352807998657
 1.7063900383558776E9, -286.0275486111641, -341.796936750412, -249.64580184221268, -68.93383598327637
 1.7063900383558776E9, -376.5032083392143, -334.3769752383232, -230.97622126340866, -108.9058867096901
 1.7063900383563385E9, -386.0773522257805, -324.32412415742874, -204.1686183810234, -147.4418158531189
 1.7063900383563385E9, -296.55910688638687, -340.83952236175537, -249.16709464788437, -90.71501332521439
 1.706390038369877E9, -343.47241193056107, -340.1214615702629, -246.29485148191452, -86.16729497909546
 1.706390038369877E9, -416.95396625995636, -329.58990329504013, -209.4343975186348, -154.1437165737152
 1.706390038385344E9, -319.53705221414566, -333.8982680439949, -227.1465637087822, -108.66653311252594
 1.706390038385344E9, -320.01575940847397, -348.73819106817245, -254.1935201883316, -72.52413994073868
 1.7063900383860643E9, -406.66176158189774, -326.238952934742, -214.22146946191788, -130.44771045446396
 1.7063900383860643E9, -355.6794453859329, -327.6750745177269, -211.10987269878387, -132.12318563461304
 1.706390038399943E9, -288.6604381799698, -342.03629034757614, -251.32127702236176, -65.34353202581406
 1.706390038399943E9, -372.67355078458786, -330.7866712808609, -225.47108852863312, -101.48592519760132
 1.706390038416118E9, -377.6999763250351, -314.98933386802673, -194.59447449445724, -139.0644399523735
 1.706390038416118E9, -284.11271983385086, -331.2653784751892, -233.3697572350502, -72.76349353790283
 1.7063900384168875E9, -334.8556824326515, -339.40340077877045, -244.14066910743713, -78.50797986984253
 1.7063900384168875E9, -401.1566288471222, -315.94674825668335, -196.98801046609879, -139.78250074386597
 1.7063900384296849E9, -314.98933386802673, -330.06861048936844, -219.96595579385757, -101.00721800327301
 1.7063900384296849E9, -310.20226192474365, -350.41366624832153, -247.4916194677353, -70.13060396909714
 1.7063900384453933E9, -407.8585295677185, -330.06861048936844, -220.20530939102173, -133.79866081476212
 1.7063900384453933E9, -360.70587092638016, -329.8292568922043, -213.74276226758957, -134.99542880058289
 1.706390038446116E9, -294.64427810907364, -345.8659479022026, -251.32127702236176, -63.90741044282913
 1.706390038446116E9, -381.2902802824974, -341.796936750412, -237.43876838684082, -108.66653311252594
 1.7063900384599705E9, -389.42830258607864, -323.3667097687721, -204.40797197818756, -148.87793743610382
 1.7063900384599705E9, -297.5165212750435, -348.25948387384415, -248.20968025922775, -89.75759893655777
 1.7063900384765737E9, -344.908533513546, -346.58400869369507, -244.8587298989296, -81.61957663297653
 1.7063900384765737E9, -409.77335834503174, -323.12735617160797, -203.92926478385925, -146.72375506162643
 1.706390038490467E9, -314.0319194793701, -333.65891444683075, -226.6678565144539, -108.42717951536179
 1.706390038490467E9, -308.5267867445946, -346.3446550965309, -253.236105799675, -67.97642159461975
 1.7063900384911127E9, -398.76309287548065, -323.3667097687721, -214.22146946191788, -128.05417448282242
 1.7063900384911127E9, -350.89237344264984, -319.7764058113098, -210.15245831012726, -126.85740649700165
 1.7063900385055113E9, -280.7617694735527, -338.92469358444214, -248.20968025922775, -67.7370679974556
 1.7063900385055113E9, -372.4341971874237, -335.81309682130814, -237.19941478967667, -110.82071548700333
 1.7063900385062225E9, -384.16252344846725, -322.64864897727966, -207.51956874132156, -145.04827988147736
 1.7063900385062225E9, -279.3256478905678, -329.350549697876, -236.4813539981842, -75.39638310670853
 1.7063900385201097E9, -321.9305881857872, -325.0421849489212, -230.01880687475204, -69.17318958044052
 1.7063900385201097E9, -389.42830258607864, -302.30359321832657, -189.32869535684586, -132.60189282894135
 1.7063900385520651E9, -301.1068252325058, -320.73382019996643, -209.19504392147064, -95.02337807416916
 1.7063900385520651E9, -292.7294493317604, -325.0421849489212, -237.43876838684082, -58.64163130521774
 1.7063900385524983E9, -376.024501144886, -303.50036120414734, -193.63706010580063, -114.41101944446564
 1.7063900385524983E9, -327.91442811489105, -302.7823004126549, -189.0893417596817, -108.18782591819763
 1.7063900385532367E9, -263.76766407489777, -324.80283135175705, -239.35359716415405, -48.34942662715912
 1.7063900385532367E9, -356.15815258026123, -315.2286874651909, -219.96595579385757, -91.43307411670685
 1.7063900385539536E9, -366.2110036611557, -303.2610076069832, -188.13192737102509, -134.03801441192627
 1.7063900385539536E9, -277.41081911325455, -331.50473207235336, -231.93363565206528, -73.9602615237236
 1.7063900385649416E9, -324.0847705602646, -327.91442811489105, -235.28458601236343, -72.04543274641037
 1.7063900385649416E9, -399.9598608613014, -319.7764058113098, -199.38154643774033, -141.2186223268509
 1.7063900385801315E9, -305.41518998146057, -324.5634777545929, -219.48724859952927, -98.85303562879562
 1.7063900385801315E9, -300.86747163534164, -337.0098648071289, -242.94390112161636, -58.162924110889435
 1.706390038595393E9, -393.49731373786926, -319.7764058113098, -210.15245831012726, -121.3522737622261
 1.706390038595393E9, -344.908533513546, -320.01575940847397, -212.0672870874405, -125.18193131685257
 1.7063900385961692E9, -284.352073431015, -343.9511191248894, -249.16709464788437, -62.47128885984421
 1.7063900385961692E9, -371.9554899930954, -333.65891444683075, -224.75302773714066, -97.65626764297485
 1.7063900386097324E9, -382.247694671154, -316.42545545101166, -200.0996072292328, -140.97926872968674
 1.7063900386097324E9, -290.8146205544472, -341.55758315324783, -238.6355363726616, -75.87509030103683
 1.7063900386253924E9, -337.24921840429306, -340.83952236175537, -245.57679069042206, -81.14086943864822
 1.7063900386253924E9, -397.80567848682404, -318.8189914226532, -201.0570216178894, -144.56957268714905
 1.7063900386261024E9, -311.6383835077286, -331.98343926668167, -224.27432054281235, -102.68269318342209
 1.7063900386261024E9, -300.1494108438492, -341.0788759589195, -242.46519392728806, -54.572620153427124
 1.7063900386398745E9, -397.0876176953316, -327.43572092056274, -214.70017665624619, -127.81482088565826
 1.7063900386398745E9, -349.4562518596649, -326.238952934742, -210.87051910161972, -127.81482088565826
 1.7063900386554227E9, -291.0539741516113, -353.2859094142914, -259.459299325943, -69.89125037193298
 1.7063900386554227E9, -373.15225797891617, -335.3343896269798, -232.41234284639359, -110.34200829267502
 1.7063900386561096E9, -384.64123064279556, -322.64864897727966, -203.6899111866951, -141.45797592401505
 1.7063900386561096E9, -279.8043550848961, -334.3769752383232, -238.39618277549744, -77.0718582868576
 1.7063900386701565E9, -336.0524504184723, -340.1214615702629, -247.25226587057114, -77.55056548118591
 1.7063900386701565E9, -405.2256399989128, -324.80283135175705, -202.73249679803848, -143.37280470132828
 1.7063900386854477E9, -316.42545545101166, -333.8982680439949, -221.64143097400665, -105.79428994655609
 1.7063900386854477E9, -307.09066516160965, -344.4298263192177, -246.77355867624283, -64.14676403999329
 1.706390038686353E9, -405.46499359607697, -330.06861048936844, -216.61500543355942, -130.6870640516281
 1.706390038686353E9, -357.8336277604103, -333.18020725250244, -206.56215435266495, -126.6180528998375
 1.706390038699788E9, -289.6178525686264, -351.84978783130646, -253.7148129940033, -68.69448238611221
 1.706390038699788E9, -373.3916115760803, -333.65891444683075, -226.42850291728973, -104.59752196073532
 1.7063900387154033E9, -383.68381625413895, -319.53705221414566, -197.22736406326294, -140.50056153535843
 1.7063900387154033E9, -296.55910688638687, -340.6001687645912, -240.55036514997482, -84.49181979894638
 1.7063900387161167E9, -341.796936750412, -342.99370473623276, -242.2258403301239, -78.02927267551422
 1.7063900387161167E9, -408.09788316488266, -323.6060633659363, -202.49314320087433, -144.56957268714905
 1.7063900387297585E9, -325.0421849489212, -342.2756439447403, -236.72070759534836, -112.73554426431656
 1.7063900387297585E9, -319.7764058113098, -355.44009178876877, -262.33154249191284, -81.14086943864822
 1.706390038745453E9, -413.84236949682236, -335.573743224144, -223.55625975131989, -140.73991513252258
 1.706390038745453E9, -362.1419925093651, -334.3769752383232, -218.52983421087265, -136.19219678640366
 1.7063900387461412E9, -292.2507421374321, -351.6104342341423, -261.13477450609207, -73.9602615237236
 1.7063900387461412E9, -382.00834107398987, -341.0788759589195, -245.57679069042206, -117.52261620759964
 1.7063900387597284E9, -388.470888197422, -326.95701372623444, -208.71633672714233, -149.83535182476044
 1.7063900387597284E9, -296.798460483551, -346.3446550965309, -245.3374370932579, -88.32147735357285
 1.7063900387754884E9, -339.6427543759346, -344.66917991638184, -251.0819234251976, -85.20988059043884
 1.7063900387754884E9, -404.98628640174866, -319.05834501981735, -200.0996072292328, -149.59599822759628
 1.7063900387761717E9, -316.42545545101166, -335.0950360298157, -221.16272377967834, -105.79428994655609
 1.7063900387761717E9, -309.0054939389229, -346.58400869369507, -258.74123853445053, -71.08801835775375
 1.7063900387900891E9, -393.01860654354095, -320.73382019996643, -215.89694464206696, -131.88383203744888
 1.7063900387900891E9, -348.4988374710083, -320.4944666028023, -210.87051910161972, -134.03801441192627
 1.706390038805153E9, -281.00112307071686, -340.36081516742706, -246.29485148191452, -68.45512878894806
 1.706390038805153E9, -370.9980756044388, -329.1111961007118, -229.30074608325958, -107.46976512670517
 1.706390038836979E9, -377.2212691307068, -318.8189914226532, -199.38154643774033, -151.0321198105812
 1.706390038836979E9, -286.26690220832825, -334.3769752383232, -240.78971874713898, -82.57699102163315
 1.706390038837613E9, -337.0098648071289, -340.83952236175537, -250.12450903654099, -87.12470936775208
 1.706390038837613E9, -399.0024464726448, -314.27127307653427, -199.86025363206863, -146.9631086587906
 1.7063900388384156E9, -309.9629083275795, -326.4783065319061, -220.44466298818588, -106.51235073804855
 1.7063900388384156E9, -299.19199645519257, -331.7440856695175, -244.14066910743713, -65.34353202581406
 1.706390038839092E9, -389.1889489889145, -315.2286874651909, -210.15245831012726, -128.29352807998657
 1.706390038839092E9, -344.4298263192177, -313.31385868787766, -205.60473996400833, -127.0967600941658
 1.7063900388496933E9, -277.88952630758286, -332.46214646101, -250.84256982803345, -64.14676403999329
 1.7063900388496933E9, -361.6632853150368, -319.53705221414566, -222.59884536266327, -99.33174282312393
 1.7063900388654015E9, -374.34902596473694, -310.68096911907196, -195.3125352859497, -141.6973295211792
 1.7063900388654015E9, -276.2140511274338, -327.1963673233986, -229.30074608325958, -73.9602615237236
 1.7063900388660789E9, -317.6222234368324, -320.4944666028023, -233.3697572350502, -71.32737195491791
 1.7063900388660789E9, -393.49731373786926, -311.87773710489273, -193.63706010580063, -143.85151189565659
 1.7063900388801005E9, -303.2610076069832, -322.64864897727966, -221.64143097400665, -110.34200829267502
 1.7063900388801005E9, -290.575266957283, -327.1963673233986, -246.29485148191452, -68.2157751917839
 1.7063900388958569E9, -387.5134738087654, -318.10093063116074, -207.99827593564987, -130.44771045446396
 1.7063900388958569E9, -339.88210797309875, -315.7073946595192, -207.75892233848572, -129.7296496629715
 1.70639003891039E9, -282.1978910565376, -343.2330583333969, -251.32127702236176, -67.25836080312729
 1.70639003891039E9, -368.8438932299614, -331.2653784751892, -225.94979572296143, -101.72527879476547
 1.706390038911116E9, -379.13609790802, -325.5208921432495, -203.92926478385925, -151.0321198105812
 1.706390038911116E9, -280.7617694735527, -335.0950360298157, -237.43876838684082, -82.57699102163315
 1.7063900389259398E9, -327.1963673233986, -335.573743224144, -239.1142435669899, -86.88535577058792
 1.7063900389259398E9, -393.2579601407051, -310.9203227162361, -196.03059607744217, -151.27147340774536
 1.7063900389262803E9, -304.93648278713226, -321.21252739429474, -224.9923813343048, -111.53877627849579
 1.7063900389262803E9, -299.910057246685, -337.72792559862137, -253.236105799675, -70.36995756626129
 1.706390038939704E9, -384.4018770456314, -313.5532122850418, -208.23762953281403, -128.05417448282242
 1.706390038939704E9, -346.10530149936676, -317.1435162425041, -212.0672870874405, -135.23478239774704
 1.7063900389558403E9, -280.2830622792244, -337.24921840429306, -254.43287378549576, -70.36995756626129
 1.7063900389558403E9, -369.3226004242897, -331.2653784751892, -233.8484644293785, -109.86330109834671
 1.7063900389562557E9, -382.247694671154, -319.7764058113098, -203.45055758953094, -151.27147340774536
 1.7063900389562557E9, -288.42108458280563, -336.0524504184723, -241.26842594146729, -88.08212375640869
 1.7063900389701371E9, -335.573743224144, -341.55758315324783, -243.66196191310883, -83.05569821596146
 1.7063900389701371E9, -405.9437007904053, -322.16994178295135, -206.56215435266495, -154.62242376804352
 1.706390038985613E9, -312.83515149354935, -330.06861048936844, -228.1039780974388, -113.93231225013733
 1.706390038985613E9, -307.3300187587738, -342.03629034757614, -246.29485148191452, -73.24220073223114
 1.7063900389861948E9, -396.13020330667496, -319.7764058113098, -212.0672870874405, -135.9528431892395
 1.7063900389861948E9, -351.37108063697815, -325.9995993375778, -211.58857989311218, -136.91025757789612
 1.7063900389998786E9, -285.78819501399994, -343.7117655277252, -249.64580184221268, -69.41254317760468
 1.7063900389998786E9, -373.15225797891617, -327.91442811489105, -226.90721011161804, -108.18782591819763
 1.706390039015448E9, -383.68381625413895, -317.3828698396683, -202.97185039520264, -148.87793743610382
 1.706390039015448E9, -284.352073431015, -333.4195608496666, -235.5239396095276, -82.09828382730484
 1.706390039016254E9, -335.3343896269798, -337.24921840429306, -241.98648673295975, -79.94410145282745
 1.706390039016254E9, -399.0024464726448, -312.83515149354935, -203.45055758953094, -148.3992302417755
 1.7063900390455709E9, -312.35644429922104, -329.58990329504013, -223.31690615415573, -105.07622915506363
 1.7063900390455709E9, -307.8087259531021, -342.99370473623276, -248.4490338563919, -71.08801835775375
 1.7063900390461392E9, -400.1992144584656, -323.3667097687721, -215.89694464206696, -134.75607520341873
 1.7063900390461392E9, -347.78077667951584, -324.80283135175705, -208.47698312997818, -134.27736800909042
 1.706390039060598E9, -368.12583243846893, -331.2653784751892, -224.27432054281235, -102.44333958625793
 1.706390039060598E9, -385.11993783712387, -319.53705221414566, -205.60473996400833, -148.3992302417755
 1.7063900390612164E9, -284.352073431015, -335.3343896269798, -237.67812198400497, -82.8163446187973
 1.7063900390612164E9, -333.18020725250244, -340.36081516742706, -250.84256982803345, -86.88535577058792
 1.706390039074805E9, -399.0024464726448, -315.2286874651909, -203.2112039923668, -150.0747054219246
 1.706390039074805E9, -315.46804106235504, -332.2227928638458, -227.1465637087822, -110.34200829267502
 1.7063900390906274E9, -301.34617882966995, -342.7543511390686, -247.4916194677353, -65.82223922014236
 1.7063900390906274E9, -395.8908497095108, -322.16994178295135, -208.9556903243065, -129.2509424686432
 1.7063900390911715E9, -353.0465558171272, -321.21252739429474, -208.9556903243065, -131.16577124595642
 1.7063900390911715E9, -286.74560940265656, -341.55758315324783, -253.95416659116745, -68.2157751917839
 1.7063900391211517E9, -372.67355078458786, -331.98343926668167, -226.90721011161804, -102.44333958625793
 1.7063900391211517E9, -374.34902596473694, -311.87773710489273, -199.62090003490448, -138.34637916088104
 1.7063900391218708E9, -286.5062558054924, -337.4885720014572, -244.14066910743713, -84.25246620178223
 1.7063900391218708E9, -331.02602487802505, -336.29180401563644, -243.42260831594467, -82.337637424469
 1.7063900391226368E9, -402.5927504301071, -314.27127307653427, -201.29637521505356, -146.48440146446228
 1.7063900391226368E9, -310.4416155219078, -324.80283135175705, -222.12013816833496, -105.79428994655609
 1.7063900391515028E9, -304.6971291899681, -341.796936750412, -247.4916194677353, -67.7370679974556
 1.7063900391515028E9, -400.1992144584656, -325.76024574041367, -215.6575910449028, -127.0967600941658
 1.7063900391520889E9, -356.63685977458954, -324.32412415742874, -212.30664068460464, -136.67090398073196
 1.7063900391520889E9, -288.6604381799698, -340.36081516742706, -254.6722273826599, -69.89125037193298
 1.7063900391527076E9, -372.67355078458786, -329.8292568922043, -232.41234284639359, -106.99105793237686
 1.7063900391527076E9, -378.6573907136917, -320.2551130056381, -203.45055758953094, -141.93668311834335
 1.7063900391813233E9, -287.463670194149, -339.6427543759346, -245.8161442875862, -89.03953814506531
 1.7063900391813233E9, -327.1963673233986, -334.61632883548737, -242.2258403301239, -80.90151584148407
 1.7063900391818256E9, -399.0024464726448, -314.0319194793701, -194.3551208972931, -141.45797592401505
 1.7063900391818256E9, -309.4842011332512, -327.43572092056274, -220.20530939102173, -102.20398598909378
 1.706390039182524E9, -300.86747163534164, -339.88210797309875, -249.16709464788437, -64.6254712343216
 1.706390039182524E9, -398.28438568115234, -324.80283135175705, -215.1788838505745, -128.53288167715073
 1.7063900391947088E9, -350.89237344264984, -321.69123458862305, -208.23762953281403, -126.37869930267334
 1.7063900391947088E9, -279.56500148773193, -337.9672791957855, -246.29485148191452, -58.64163130521774
 1.7063900392107737E9, -360.9452245235443, -325.5208921432495, -216.1362982392311, -90.23630613088608
 1.7063900392107737E9, -369.56195402145386, -308.2874331474304, -184.30226981639862, -129.49029606580734
 1.7063900392112355E9, -275.4959903359413, -322.64864897727966, -223.07755255699158, -67.01900720596313
 1.7063900392112355E9, -321.21252739429474, -324.0847705602646, -227.6252709031105, -62.231935262680054
 1.7063900392247188E9, -388.2315346002579, -302.0642396211624, -183.344855427742, -125.18193131685257
 1.7063900392247188E9, -300.6281180381775, -315.46804106235504, -213.50340867042542, -92.15113490819931
 1.706390039240744E9, -290.8146205544472, -328.6324889063835, -234.80587881803513, -52.65779137611389
 1.706390039240744E9, -383.9231698513031, -309.72355473041534, -206.56215435266495, -115.60778743028641
 1.7063900392412884E9, -341.796936750412, -313.79256588220596, -206.08344715833664, -122.78839534521103
 1.7063900392412884E9, -277.41081911325455, -337.4885720014572, -249.16709464788437, -60.79581367969513
 1.7063900392550564E9, -365.97165006399155, -326.95701372623444, -223.55625975131989, -99.81045001745224
 1.7063900392550564E9, -379.6148051023483, -314.5106266736984, -190.28610974550247, -137.38896477222443
 1.706390039270434E9, -284.8307806253433, -331.2653784751892, -230.97622126340866, -71.56672555208206
 1.706390039270434E9, -327.43572092056274, -332.46214646101, -230.2581604719162, -68.45512878894806
 1.7063900392711563E9, -398.28438568115234, -315.7073946595192, -189.80740255117416, -134.75607520341873
 1.7063900392711563E9, -308.5267867445946, -325.0421849489212, -215.6575910449028, -97.89562124013901
 1.7063900392849388E9, -292.01138854026794, -333.8982680439949, -242.46519392728806, -61.9925816655159
 1.7063900392849388E9, -386.31670582294464, -320.73382019996643, -200.0996072292328, -117.04390901327133
 1.706390039300614E9, -347.30206948518753, -321.69123458862305, -198.90283924341202, -121.3522737622261
 1.706390039300614E9, -275.9746975302696, -335.573743224144, -244.61937630176544, -58.162924110889435
 1.7063900393011637E9, -364.5355284810066, -326.4783065319061, -227.1465637087822, -95.50208526849747
 1.7063900393011637E9, -376.024501144886, -312.5957978963852, -193.15835291147232, -132.12318563461304
 1.7063900393146975E9, -279.8043550848961, -327.1963673233986, -227.38591730594635, -68.69448238611221
 1.7063900393146975E9, -322.64864897727966, -330.7866712808609, -233.8484644293785, -68.2157751917839
 1.7063900393305671E9, -397.80567848682404, -310.4416155219078, -194.8338280916214, -138.1070255637169
 1.7063900393305671E9, -304.2184219956398, -320.73382019996643, -215.41823744773865, -98.37432843446732
 1.7063900393312123E9, -297.0378140807152, -333.18020725250244, -242.7045475244522, -60.31710648536682
 1.7063900393312123E9, -387.5134738087654, -316.90416264533997, -206.3228007555008, -121.59162735939026
 1.7063900393448603E9, -340.6001687645912, -313.79256588220596, -198.66348564624786, -122.30968815088272
 1.7063900393448603E9, -279.56500148773193, -334.8556824326515, -239.83230435848236, -57.68421691656113
 1.7063900393604388E9, -368.3651860356331, -327.6750745177269, -223.31690615415573, -96.93820685148239
 1.7063900393604388E9, -378.41803711652756, -315.46804106235504, -200.0996072292328, -138.34637916088104
 1.706390039361228E9, -287.70302379131317, -333.8982680439949, -240.07165795564651, -79.22604066133499
 1.706390039361228E9, -330.3079640865326, -333.18020725250244, -245.8161442875862, -81.38022303581238
 1.7063900393911831E9, -402.1140432357788, -314.0319194793701, -192.679645717144, -139.5431471467018
 1.7063900393911831E9, -310.68096911907196, -320.73382019996643, -222.83819895982742, -102.68269318342209
 1.7063900393919077E9, -299.19199645519257, -339.1640471816063, -245.09808349609375, -60.31710648536682
 1.7063900393919077E9, -396.3695569038391, -319.2976986169815, -206.08344715833664, -120.8735665678978
 1.706390039392691E9, -347.5414230823517, -317.8615770339966, -203.45055758953094, -126.85740649700165
 1.706390039392691E9, -286.26690220832825, -341.55758315324783, -252.51804500818253, -66.77965360879898
 1.7063900394047115E9, -368.8438932299614, -327.43572092056274, -224.0349669456482, -99.09238922595978
 1.7063900394047115E9, -382.00834107398987, -316.90416264533997, -199.62090003490448, -145.2876334786415
 1.7063900394206932E9, -286.9849629998207, -333.65891444683075, -238.87488996982574, -82.337637424469
 1.7063900394206932E9, -331.02602487802505, -336.29180401563644, -242.7045475244522, -77.31121188402176
 1.7063900394213579E9, -400.91727524995804, -316.90416264533997, -197.70607125759125, -146.00569427013397
 1.7063900394213579E9, -306.8513115644455, -323.6060633659363, -213.50340867042542, -105.79428994655609
 1.7063900394348075E9, -302.5429468154907, -334.61632883548737, -244.8587298989296, -62.71064245700836
 1.7063900394348075E9, -389.42830258607864, -312.83515149354935, -210.3918119072914, -123.02774894237518
 1.7063900394504116E9, -342.7543511390686, -312.35644429922104, -204.64732557535172, -122.78839534521103
 1.7063900394504116E9, -281.00112307071686, -338.44598639011383, -239.5929507613182, -55.05132734775543
 1.7063900394511845E9, -367.8864788413048, -326.4783065319061, -221.8807845711708, -93.10854929685593
 1.7063900394511845E9, -379.6148051023483, -315.7073946595192, -198.66348564624786, -145.76634067296982
 1.7063900394647207E9, -280.7617694735527, -331.98343926668167, -230.7368676662445, -79.22604066133499
 1.7063900394647207E9, -323.12735617160797, -325.9995993375778, -230.2581604719162, -68.2157751917839
 1.7063900394809496E9, -394.2153745293617, -306.8513115644455, -193.63706010580063, -140.26120793819427
 1.7063900394809496E9, -306.3726043701172, -318.10093063116074, -214.46082305908203, -102.68269318342209
 1.7063900394812956E9, -300.38876444101334, -332.46214646101, -238.39618277549744, -56.487448930740356
 1.7063900394812956E9, -393.01860654354095, -316.42545545101166, -204.40797197818756, -123.02774894237518
 1.7063900394947395E9, -348.4988374710083, -315.94674825668335, -203.6899111866951, -126.13934570550919
 1.7063900394947395E9, -281.00112307071686, -343.47241193056107, -251.79998421669006, -65.34353202581406
 1.706390039510452E9, -370.5193684101105, -326.95701372623444, -227.86462450027466, -96.69885325431824
 1.706390039510452E9, -381.7689874768257, -315.94674825668335, -206.8015079498291, -148.15987664461136
 1.7063900395111575E9, -286.74560940265656, -337.4885720014572, -241.26842594146729, -84.73117339611053
 1.7063900395111575E9, -335.0950360298157, -342.03629034757614, -247.01291227340698, -86.16729497909546
 1.706390039541248E9, -405.7043471932411, -318.8189914226532, -204.40797197818756, -152.22888779640198
 1.706390039541248E9, -317.1435162425041, -332.9408536553383, -222.59884536266327, -112.73554426431656
 1.7063900395420184E9, -309.72355473041534, -343.47241193056107, -250.36386263370514, -67.49771440029144
 1.7063900395420184E9, -400.43856805562973, -325.76024574041367, -211.58857989311218, -125.66063851118088
 1.7063900395427096E9, -356.3975061774254, -323.12735617160797, -200.5783144235611, -128.05417448282242
 1.7063900395427096E9, -285.5488414168358, -343.47241193056107, -251.0819234251976, -68.93383598327637
 1.7063900395548503E9, -367.8864788413048, -323.84541696310043, -219.96595579385757, -94.54467087984085
 1.7063900395548503E9, -379.3754515051842, -314.7499802708626, -191.00417053699493, -145.76634067296982
 1.7063900395706196E9, -282.4372446537018, -329.8292568922043, -235.5239396095276, -82.337637424469
 1.7063900395706196E9, -323.3667097687721, -326.238952934742, -235.04523241519928, -72.76349353790283
 1.7063900395713625E9, -404.50757920742035, -314.5106266736984, -200.0996072292328, -143.37280470132828
 1.7063900395713625E9, -309.0054939389229, -323.6060633659363, -215.6575910449028, -100.28915721178055
 1.706390039601365E9, -302.7823004126549, -340.83952236175537, -246.53420507907867, -63.66805684566498
 1.706390039601365E9, -389.90700978040695, -314.7499802708626, -206.56215435266495, -121.83098095655441
 1.706390039601905E9, -356.15815258026123, -323.6060633659363, -212.30664068460464, -134.75607520341873
 1.706390039601905E9, -285.30948781967163, -344.4298263192177, -249.16709464788437, -61.753228068351746
 1.7063900396025777E9, -370.5193684101105, -331.2653784751892, -227.86462450027466, -100.0498036146164
 1.7063900396025777E9, -387.5134738087654, -322.64864897727966, -200.33896082639694, -148.3992302417755
 1.7063900396147437E9, -288.89979177713394, -334.8556824326515, -231.69428205490112, -78.98668706417084
 1.7063900396147437E9, -333.4195608496666, -334.61632883548737, -234.32717162370682, -72.28478634357452
 1.7063900396303988E9, -400.43856805562973, -313.79256588220596, -195.79124248027802, -139.5431471467018
 1.7063900396303988E9, -311.15967631340027, -324.80283135175705, -218.52983421087265, -105.79428994655609
 1.7063900396311464E9, -301.34617882966995, -337.24921840429306, -246.29485148191452, -62.71064245700836
 1.7063900396311464E9, -394.69408172369003, -317.3828698396683, -201.29637521505356, -122.30968815088272
 1.7063900396450624E9, -356.8762133717537, -320.9731737971306, -203.6899111866951, -124.94257771968842
 1.7063900396450624E9, -289.6178525686264, -343.2330583333969, -250.36386263370514, -65.34353202581406
 1.7063900396606667E9, -375.30644035339355, -332.70150005817413, -230.2581604719162, -100.76786440610886
 1.7063900396606667E9, -394.4547281265259, -324.0847705602646, -206.3228007555008, -140.26120793819427
 1.706390039661214E9, -294.64427810907364, -340.1214615702629, -245.8161442875862, -77.31121188402176
 1.706390039661214E9, -344.1904727220535, -341.55758315324783, -252.27869141101837, -83.53440541028976
 1.706390039674805E9, -412.1668943166733, -321.9305881857872, -201.77508240938187, -143.13345110416412
 1.706390039674805E9, -322.8880025744438, -333.8982680439949, -228.34333169460297, -109.86330109834671
 1.7063900396904335E9, -311.15967631340027, -348.73819106817245, -257.54447054862976, -75.63573670387268
 1.7063900396904335E9, -398.76309287548065, -326.7176601290703, -218.7691878080368, -131.16577124595642
 1.706390039691084E9, -357.8336277604103, -322.64864897727966, -211.34922629594803, -127.33611369132996
 1.706390039691084E9, -285.30948781967163, -341.796936750412, -244.14066910743713, -59.12033849954605
 1.7063900397049847E9, -365.7322964668274, -328.1537817120552, -224.0349669456482, -98.37432843446732
 1.7063900397049847E9, -382.00834107398987, -317.8615770339966, -199.62090003490448, -136.4315503835678
 1.7063900397204173E9, -285.78819501399994, -333.4195608496666, -237.67812198400497, -79.22604066133499
 1.7063900397204173E9, -325.76024574041367, -331.98343926668167, -240.31101155281067, -75.15702950954437
 1.7063900397211564E9, -396.13020330667496, -309.9629083275795, -191.00417053699493, -139.5431471467018
 1.7063900397211564E9, -311.15967631340027, -322.4092953801155, -223.07755255699158, -103.40075397491455
 1.7063900397350607E9, -300.38876444101334, -336.0524504184723, -242.7045475244522, -59.83839929103851
 1.7063900397350607E9, -387.27412021160126, -314.7499802708626, -206.8015079498291, -120.8735665678978
 1.70639003975043E9, -341.796936750412, -309.72355473041534, -196.98801046609879, -122.78839534521103
 1.70639003975043E9, -278.84694069623947, -331.98343926668167, -238.15682917833328, -59.59904569387436
 1.7063900397511883E9, -357.59427416324615, -316.90416264533997, -216.85435903072357, -88.560830950737
 1.7063900397511883E9, -377.2212691307068, -307.3300187587738, -191.96158492565155, -136.67090398073196
 1.7063900397646997E9, -279.56500148773193, -325.0421849489212, -231.69428205490112, -74.43896871805191
 1.7063900397646997E9, -327.43572092056274, -330.54731768369675, -235.28458601236343, -67.7370679974556
 1.7063900397804155E9, -399.24180006980896, -311.15967631340027, -192.679645717144, -132.3625392317772
 1.7063900397804155E9, -308.5267867445946, -319.7764058113098, -219.48724859952927, -101.24657160043716
 1.706390039781144E9, -301.5855324268341, -337.9672791957855, -249.88515543937683, -61.03516727685928
 1.706390039781144E9, -399.9598608613014, -322.64864897727966, -210.63116550445557, -120.39485937356949
 1.7063900397949405E9, -355.9187989830971, -320.2551130056381, -203.45055758953094, -129.7296496629715
 1.7063900397949405E9, -281.47983026504517, -336.29180401563644, -241.02907234430313, -57.20550972223282
 1.7063900398107376E9, -367.6471252441406, -322.8880025744438, -217.33306622505188, -91.672427713871
 1.7063900398107376E9, -379.13609790802, -306.61195796728134, -192.44029211997986, -138.34637916088104
 1.7063900398113053E9, -291.0539741516113, -333.4195608496666, -231.45492845773697, -72.52413994073868
 1.7063900398113053E9, -328.1537817120552, -331.98343926668167, -239.5929507613182, -73.00284713506699
 1.7063900398248076E9, -400.43856805562973, -310.20226192474365, -195.79124248027802, -137.14961117506027
 1.7063900398248076E9, -313.79256588220596, -324.32412415742874, -215.89694464206696, -98.61368203163147
 1.7063900398404615E9, -299.910057246685, -340.83952236175537, -248.92774105072021, -60.31710648536682
 1.7063900398404615E9, -392.7792529463768, -320.4944666028023, -211.10987269878387, -120.63421297073364
 1.7063900398411872E9, -351.37108063697815, -321.21252739429474, -201.0570216178894, -123.26710253953934
 1.7063900398411872E9, -293.44751012325287, -345.3872407078743, -249.16709464788437, -56.00874173641205
 1.7063900398549714E9, -377.46062272787094, -329.58990329504013, -226.90721011161804, -92.15113490819931
 1.7063900398549714E9, -382.00834107398987, -318.10093063116074, -201.5357288122177, -137.38896477222443
 1.7063900398705096E9, -288.6604381799698, -337.24921840429306, -235.76329320669174, -76.83250468969345
 1.7063900398705096E9, -337.24921840429306, -341.0788759589195, -241.98648673295975, -71.56672555208206
 1.706390039871176E9, -409.29465115070343, -319.53705221414566, -204.40797197818756, -140.02185434103012
 1.706390039871176E9, -319.53705221414566, -330.06861048936844, -221.16272377967834, -98.85303562879562
 1.7063900398846917E9, -307.8087259531021, -342.51499754190445, -246.53420507907867, -58.8809849023819
 1.7063900398846917E9, -404.7469328045845, -327.91442811489105, -206.08344715833664, -118.71938419342041
 1.7063900399006927E9, -359.26974934339523, -321.9305881857872, -204.64732557535172, -120.15550577640533
 1.7063900399006927E9, -292.01138854026794, -347.78077667951584, -253.47545939683914, -66.30094641447067
 1.706390039901219E9, -370.7587220072746, -332.9408536553383, -232.17298924922943, -98.37432843446732
 1.706390039901219E9, -380.57221949100494, -317.3828698396683, -202.25378960371017, -138.82508635520935
 1.7063900399147677E9, -288.6604381799698, -332.9408536553383, -236.24200040102005, -79.22604066133499
 1.7063900399147677E9, -330.3079640865326, -329.8292568922043, -240.55036514997482, -72.52413994073868
 1.7063900399302256E9, -409.29465115070343, -318.10093063116074, -197.70607125759125, -133.55930721759796
 1.7063900399302256E9, -324.0847705602646, -332.46214646101, -221.8807845711708, -101.72527879476547
 1.706390039945436E9, -311.6383835077286, -346.58400869369507, -250.6032162308693, -53.61520576477051
 1.706390039945436E9, -415.99655187129974, -336.29180401563644, -216.85435903072357, -122.78839534521103
 1.7063900399461453E9, -365.01423567533493, -327.43572092056274, -211.34922629594803, -123.9851633310318
 1.7063900399461453E9, -292.01138854026794, -347.0627158880234, -246.77355867624283, -65.34353202581406
 1.706390039960958E9, -378.6573907136917, -341.55758315324783, -230.49751406908035, -98.85303562879562
 1.706390039960958E9, -398.28438568115234, -327.1963673233986, -202.01443600654602, -138.5857327580452
 1.7063900399611907E9, -302.5429468154907, -346.8233622908592, -249.16709464788437, -87.12470936775208
 1.7063900399611907E9, -346.10530149936676, -346.58400869369507, -247.9703266620636, -77.0718582868576
 1.7063900399747033E9, -412.6456015110016, -323.84541696310043, -199.86025363206863, -134.51672160625458
 1.7063900399747033E9, -320.2551130056381, -329.1111961007118, -221.64143097400665, -103.1614003777504
 1.7063900399911244E9, -310.68096911907196, -345.3872407078743, -251.79998421669006, -63.66805684566498
 1.7063900399911244E9, -400.91727524995804, -329.1111961007118, -215.1788838505745, -122.54904174804688
 1.7063900399918597E9, -358.55168855190277, -324.32412415742874, -208.47698312997818, -127.81482088565826
 1.7063900399918597E9, -290.33591336011887, -346.8233622908592, -251.79998421669006, -67.49771440029144
 1.7063900400047839E9, -370.5193684101105, -332.46214646101, -228.34333169460297, -93.34790289402008
 1.7063900400047839E9, -394.9334353208542, -324.32412415742874, -204.1686183810234, -141.45797592401505
 1.706390040020638E9, -299.4313500523567, -341.0788759589195, -239.35359716415405, -83.29505181312561
 1.706390040020638E9, -335.573743224144, -333.8982680439949, -235.76329320669174, -71.80607914924622
 1.706390040021154E9, -416.2359054684639, -320.9731737971306, -202.01443600654602, -137.86767196655273
 1.706390040021154E9, -328.39313530921936, -340.1214615702629, -223.55625975131989, -101.48592519760132
 1.7063900400349596E9, -312.35644429922104, -344.4298263192177, -250.36386263370514, -62.47128885984421
 1.7063900400349596E9, -403.3108112215996, -324.32412415742874, -213.26405507326126, -120.8735665678978
 1.706390040049754E9, -358.3123349547386, -324.0847705602646, -215.41823744773865, -125.66063851118088
 1.706390040049754E9, -296.08039969205856, -346.58400869369507, -254.1935201883316, -60.79581367969513
 1.7063900400654056E9, -395.17278891801834, -321.4518809914589, -202.73249679803848, -142.65474390983582
 1.7063900400654056E9, -296.798460483551, -340.83952236175537, -243.66196191310883, -83.05569821596146
 1.706390040066106E9, -346.10530149936676, -345.8659479022026, -246.77355867624283, -76.5931510925293
 1.706390040066106E9, -408.3372367620468, -319.7764058113098, -197.22736406326294, -137.14961117506027
 1.706390040080186E9, -326.238952934742, -331.2653784751892, -227.6252709031105, -99.57109642028809
 1.706390040080186E9, -311.87773710489273, -345.14788711071014, -255.62964177131653, -61.753228068351746
 1.7063900400956511E9, -399.24180006980896, -318.57963782548904, -215.1788838505745, -123.26710253953934
 1.7063900400956511E9, -354.7220309972763, -312.83515149354935, -210.3918119072914, -122.78839534521103
 1.7063900400962155E9, -286.74560940265656, -335.81309682130814, -251.0819234251976, -60.07775288820267
 1.7063900400962155E9, -374.82773315906525, -330.3079640865326, -224.0349669456482, -97.17756044864655
 1.706390040109782E9, -388.94959539175034, -315.46804106235504, -196.03059607744217, -142.1760367155075
 1.706390040109782E9, -292.49009573459625, -330.06861048936844, -236.24200040102005, -73.72090792655945
 1.7063900401254592E9, -330.54731768369675, -329.8292568922043, -233.3697572350502, -66.30094641447067
 1.7063900401254592E9, -401.39598244428635, -314.0319194793701, -196.03059607744217, -132.12318563461304
 1.70639004012613E9, -316.42545545101166, -318.10093063116074, -206.08344715833664, -89.75759893655777
 1.70639004012613E9, -300.1494108438492, -334.13762164115906, -240.78971874713898, -54.093912959098816
 1.7063900401560726E9, -382.9657554626465, -312.83515149354935, -202.01443600654602, -109.86330109834671
 1.7063900401560726E9, -339.6427543759346, -307.3300187587738, -195.3125352859497, -112.4961906671524
 1.7063900401568613E9, -264.96443206071854, -323.3667097687721, -230.7368676662445, -44.99847626686096
 1.7063900401568613E9, -358.55168855190277, -319.2976986169815, -216.85435903072357, -83.29505181312561
 1.7063900401575687E9, -383.4444626569748, -314.27127307653427, -198.90283924341202, -136.4315503835678
 1.7063900401575687E9, -283.15530544519424, -329.350549697876, -236.24200040102005, -77.78991907835007
 1.7063900401702068E9, -335.573743224144, -336.0524504184723, -246.29485148191452, -76.35379749536514
 1.7063900401702068E9, -405.7043471932411, -314.5106266736984, -200.5783144235611, -135.9528431892395
 1.70639004018561E9, -309.72355473041534, -319.53705221414566, -217.33306622505188, -99.81045001745224
 1.70639004018561E9, -296.798460483551, -331.98343926668167, -239.5929507613182, -54.81197375059128
 1.7063900401864035E9, -389.1889489889145, -311.15967631340027, -203.92926478385925, -113.69295865297318
 1.7063900401864035E9, -351.37108063697815, -311.6383835077286, -197.4667176604271, -115.84714102745056
 1.706390040199702E9, -279.0862942934036, -333.65891444683075, -243.66196191310883, -53.1364985704422
 1.706390040199702E9, -372.67355078458786, -329.58990329504013, -218.7691878080368, -89.51824533939362
 1.7063900402154064E9, -389.90700978040695, -318.10093063116074, -195.3125352859497, -134.99542880058289
 1.7063900402154064E9, -286.74560940265656, -326.238952934742, -230.7368676662445, -71.32737195491791
 1.7063900402160928E9, -337.72792559862137, -339.40340077877045, -233.8484644293785, -69.65189677476883
 1.7063900402160928E9, -410.4914191365242, -316.42545545101166, -194.3551208972931, -134.03801441192627
 1.706390040229807E9, -317.8615770339966, -324.0847705602646, -208.71633672714233, -92.15113490819931
 1.706390040229807E9, -304.6971291899681, -335.3343896269798, -245.3374370932579, -51.22166979312897
 1.7063900402455482E9, -398.76309287548065, -318.10093063116074, -207.99827593564987, -114.88972663879395
 1.7063900402455482E9, -352.8072022199631, -313.31385868787766, -205.84409356117249, -123.02774894237518
 1.7063900402461305E9, -282.67659825086594, -337.9672791957855, -241.98648673295975, -56.487448930740356
 1.7063900402461305E9, -368.3651860356331, -326.4783065319061, -224.5136741399765, -97.17756044864655
 1.706390040259704E9, -386.0773522257805, -310.9203227162361, -196.98801046609879, -138.5857327580452
 1.706390040259704E9, -290.8146205544472, -336.0524504184723, -238.15682917833328, -77.31121188402176
 1.7063900402754529E9, -337.24921840429306, -341.55758315324783, -244.61937630176544, -67.25836080312729
 1.7063900402754529E9, -410.0127119421959, -312.35644429922104, -203.2112039923668, -134.51672160625458
 1.706390040276102E9, -318.57963782548904, -323.84541696310043, -217.33306622505188, -93.58725649118423
 1.706390040276102E9, -304.45777559280396, -338.685339987278, -242.46519392728806, -52.65779137611389
 1.7063900402897315E9, -399.72050726413727, -323.3667097687721, -201.0570216178894, -108.18782591819763
 1.7063900402897315E9, -352.32849502563477, -315.46804106235504, -196.03059607744217, -117.52261620759964
 1.7063900403056557E9, -289.37849897146225, -347.30206948518753, -240.31101155281067, -51.22166979312897
 1.7063900403056557E9, -371.4767827987671, -326.95701372623444, -221.8807845711708, -93.82661008834839
 1.706390040306311E9, -387.5134738087654, -318.57963782548904, -200.5783144235611, -135.23478239774704
 1.706390040306311E9, -294.16557091474533, -337.4885720014572, -238.15682917833328, -79.46539425849915
 1.7063900403197477E9, -336.29180401563644, -339.88210797309875, -241.26842594146729, -73.9602615237236
 1.7063900403197477E9, -413.84236949682236, -320.4944666028023, -202.49314320087433, -139.78250074386597
 1.7063900403355896E9, -322.8880025744438, -330.7866712808609, -222.59884536266327, -100.5285108089447
 1.7063900403355896E9, -305.6545435786247, -341.55758315324783, -245.57679069042206, -54.33326655626297
 1.7063900403361385E9, -398.28438568115234, -319.53705221414566, -210.87051910161972, -117.04390901327133
 1.7063900403361385E9, -353.7646166086197, -317.8615770339966, -203.45055758953094, -117.28326261043549
 1.7063900403499708E9, -283.63401263952255, -340.83952236175537, -247.25226587057114, -59.59904569387436
 1.7063900403499708E9, -371.23742920160294, -328.6324889063835, -230.01880687475204, -96.93820685148239
 1.7063900403653696E9, -386.0773522257805, -311.15967631340027, -196.03059607744217, -139.78250074386597
 1.7063900403653696E9, -295.8410460948944, -337.9672791957855, -237.19941478967667, -77.78991907835007
 1.7063900403660915E9, -340.36081516742706, -340.6001687645912, -243.66196191310883, -75.87509030103683
 1.7063900403660915E9, -413.6030158996582, -323.6060633659363, -204.40797197818756, -141.93668311834335
 1.7063900403798192E9, -322.4092953801155, -330.06861048936844, -220.9233701825142, -101.48592519760132
 1.7063900403798192E9, -312.1170907020569, -344.908533513546, -254.43287378549576, -62.949996054172516
 1.7063900403956926E9, -401.39598244428635, -320.9731737971306, -207.99827593564987, -114.88972663879395
 1.7063900403956926E9, -360.466517329216, -318.8189914226532, -201.77508240938187, -122.07033455371857
 1.706390040396279E9, -286.0275486111641, -340.83952236175537, -241.26842594146729, -54.33326655626297
 1.706390040396279E9, -372.67355078458786, -332.46214646101, -223.31690615415573, -93.34790289402008
 1.7063900404098427E9, -390.1463633775711, -315.7073946595192, -199.62090003490448, -138.5857327580452
 1.7063900404098427E9, -295.12298530340195, -331.98343926668167, -235.5239396095276, -76.11444389820099
 1.7063900404259071E9, -334.61632883548737, -335.0950360298157, -234.32717162370682, -68.69448238611221
 1.7063900404259071E9, -410.4914191365242, -314.98933386802673, -195.79124248027802, -136.4315503835678
 1.706390040440454E9, -320.4944666028023, -325.9995993375778, -219.72660219669342, -105.55493634939194
 1.706390040440454E9, -310.68096911907196, -340.36081516742706, -250.84256982803345, -59.83839929103851
 1.7063900404411645E9, -404.2682256102562, -323.6060633659363, -211.58857989311218, -119.67679858207703
 1.7063900404411645E9, -361.9026389122009, -326.4783065319061, -208.9556903243065, -129.96900326013565
 1.7063900404557693E9, -287.70302379131317, -339.6427543759346, -250.36386263370514, -62.47128885984421
 1.7063900404557693E9, -375.0670867562294, -335.81309682130814, -231.93363565206528, -95.26273167133331
 1.706390040456288E9, -385.83799862861633, -323.6060633659363, -200.5783144235611, -137.62831836938858
 1.706390040456288E9, -296.08039969205856, -341.796936750412, -240.78971874713898, -80.42280864715576
 1.706390040469856E9, -336.0524504184723, -342.03629034757614, -246.05549788475037, -73.4815543293953
 1.706390040469856E9, -414.32107669115067, -322.64864897727966, -204.88667917251587, -141.6973295211792
 1.7063900405019543E9, -324.80283135175705, -332.46214646101, -228.58268529176712, -106.99105793237686
 1.7063900405019543E9, -313.79256588220596, -346.8233622908592, -258.74123853445053, -67.49771440029144
 1.7063900405027933E9, -403.55016481876373, -327.1963673233986, -217.33306622505188, -128.53288167715073
 1.7063900405027933E9, -359.0303957462311, -320.4944666028023, -206.56215435266495, -127.0967600941658
 1.7063900405032928E9, -292.7294493317604, -352.5678486227989, -253.95416659116745, -67.49771440029144
 1.7063900405032928E9, -373.87031877040863, -335.573743224144, -229.54009968042374, -95.50208526849747
 1.7063900405040903E9, -392.7792529463768, -322.4092953801155, -203.2112039923668, -144.8089262843132
 1.7063900405040903E9, -296.55910688638687, -341.55758315324783, -238.15682917833328, -81.38022303581238
 1.706390040514753E9, -337.24921840429306, -335.81309682130814, -234.80587881803513, -71.56672555208206
 1.706390040514753E9, -410.9701263308525, -319.53705221414566, -201.29637521505356, -140.50056153535843
 1.7063900405298865E9, -314.5106266736984, -324.5634777545929, -213.74276226758957, -99.09238922595978
 1.7063900405298865E9, -305.8938971757889, -339.40340077877045, -247.9703266620636, -57.68421691656113
 1.706390040545478E9, -397.0876176953316, -320.73382019996643, -206.08344715833664, -112.73554426431656
 1.706390040545478E9, -352.0891414284706, -318.57963782548904, -200.5783144235611, -121.83098095655441
 1.706390040546209E9, -282.4372446537018, -333.65891444683075, -247.01291227340698, -57.20550972223282
 1.706390040546209E9, -365.97165006399155, -323.84541696310043, -226.6678565144539, -92.86919569969177
 1.70639004057646E9, -384.64123064279556, -314.0319194793701, -200.5783144235611, -144.8089262843132
 1.70639004057646E9, -288.6604381799698, -333.8982680439949, -234.32717162370682, -79.94410145282745
 1.7063900405770931E9, -330.7866712808609, -331.50473207235336, -235.04523241519928, -71.56672555208206
 1.7063900405770931E9, -400.91727524995804, -307.8087259531021, -199.86025363206863, -141.93668311834335
 1.706390040577727E9, -312.35644429922104, -319.53705221414566, -215.6575910449028, -97.4169140458107
 1.706390040577727E9, -304.45777559280396, -340.6001687645912, -243.66196191310883, -57.92357051372528
 1.7063900405897171E9, -390.6250705718994, -313.79256588220596, -203.45055758953094, -112.25683706998825
 1.7063900405897171E9, -352.8072022199631, -312.5957978963852, -198.4241320490837, -123.26710253953934
 1.7063900406053925E9, -285.30948781967163, -335.81309682130814, -243.42260831594467, -61.753228068351746
 1.7063900406053925E9, -369.3226004242897, -326.7176601290703, -224.75302773714066, -95.98079246282578
 1.7063900406061485E9, -382.9657554626465, -309.24484753608704, -194.59447449445724, -142.65474390983582
 1.7063900406061485E9, -286.26690220832825, -331.2653784751892, -239.1142435669899, -79.46539425849915
 1.706390040636314E9, -334.13762164115906, -333.65891444683075, -240.78971874713898, -70.36995756626129
 1.706390040636314E9, -410.25206553936005, -314.5106266736984, -196.98801046609879, -138.1070255637169
 1.7063900406370351E9, -318.10093063116074, -326.7176601290703, -215.89694464206696, -104.59752196073532
 1.7063900406370351E9, -304.6971291899681, -335.573743224144, -244.61937630176544, -61.27452087402344
 1.706390040637658E9, -400.1992144584656, -321.9305881857872, -206.8015079498291, -115.60778743028641
 1.706390040637658E9, -358.7910421490669, -317.3828698396683, -198.90283924341202, -118.48003059625626
 1.706390040649698E9, -286.0275486111641, -337.24921840429306, -237.43876838684082, -57.68421691656113
 1.706390040649698E9, -368.8438932299614, -326.238952934742, -225.94979572296143, -93.34790289402008
 1.7063900406654994E9, -386.0773522257805, -315.94674825668335, -199.62090003490448, -139.78250074386597
 1.7063900406654994E9, -294.64427810907364, -333.8982680439949, -243.90131551027298, -83.05569821596146
 1.7063900406662457E9, -329.58990329504013, -334.3769752383232, -242.7045475244522, -77.0718582868576
 1.7063900406662457E9, -403.7895184159279, -310.68096911907196, -198.4241320490837, -141.6973295211792
 1.706390040679907E9, -313.0745050907135, -319.53705221414566, -213.98211586475372, -99.57109642028809
 1.706390040679907E9, -297.5165212750435, -333.18020725250244, -249.64580184221268, -63.66805684566498
 1.7063900407118511E9, -388.470888197422, -312.1170907020569, -205.36538636684418, -121.3522737622261
 1.7063900407118511E9, -347.78077667951584, -310.68096911907196, -197.4667176604271, -125.89999210834503
 1.7063900407125113E9, -276.93211191892624, -334.61632883548737, -243.42260831594467, -62.47128885984421
 1.7063900407125113E9, -357.8336277604103, -320.4944666028023, -226.18914932012558, -92.86919569969177
 1.706390040713273E9, -385.5986450314522, -310.68096911907196, -197.70607125759125, -139.78250074386597
 1.706390040713273E9, -289.6178525686264, -334.8556824326515, -234.80587881803513, -81.38022303581238
 1.706390040714051E9, -331.98343926668167, -334.3769752383232, -236.24200040102005, -69.65189677476883
 1.706390040714051E9, -402.5927504301071, -311.3990299105644, -193.87641370296478, -137.38896477222443
 1.7063900407404523E9, -319.53705221414566, -323.3667097687721, -219.00854140520096, -102.44333958625793
 1.7063900407404523E9, -303.50036120414734, -338.685339987278, -247.4916194677353, -62.71064245700836
 1.70639004074115E9, -393.49731373786926, -312.35644429922104, -203.92926478385925, -117.28326261043549
 1.70639004074115E9, -349.9349590539932, -312.83515149354935, -200.81766802072525, -125.42128491401672
 1.7063900407554576E9, -283.63401263952255, -336.0524504184723, -246.77355867624283, -61.9925816655159
 1.7063900407554576E9, -362.38134610652924, -320.4944666028023, -224.5136741399765, -95.50208526849747
 1.7063900407561111E9, -380.3328658938408, -314.98933386802673, -197.22736406326294, -139.5431471467018
 1.7063900407561111E9, -281.240476667881, -323.84541696310043, -229.54009968042374, -74.67832231521606
 1.706390040770044E9, -328.6324889063835, -331.2653784751892, -240.07165795564651, -72.52413994073868
 1.706390040770044E9, -397.3269712924957, -305.8938971757889, -200.81766802072525, -143.37280470132828
 1.7063900407858627E9, -308.5267867445946, -318.57963782548904, -217.57241982221603, -106.2729971408844
 1.7063900407858627E9, -296.3197532892227, -334.3769752383232, -251.32127702236176, -67.97642159461975
 1.7063900408005311E9, -387.75282740592957, -313.79256588220596, -204.1686183810234, -120.39485937356949
 1.7063900408005311E9, -354.48267740011215, -315.7073946595192, -207.2802151441574, -126.37869930267334
 1.7063900408011527E9, -277.41081911325455, -332.9408536553383, -241.7471331357956, -61.03516727685928
 1.7063900408011527E9, -363.81746768951416, -319.53705221414566, -223.31690615415573, -92.62984210252762
 1.7063900408154263E9, -385.359291434288, -313.31385868787766, -199.38154643774033, -140.73991513252258
 1.7063900408154263E9, -291.7720349431038, -331.2653784751892, -235.76329320669174, -86.16729497909546
 1.706390040816142E9, -333.4195608496666, -336.5311576128006, -243.18325471878052, -77.31121188402176
 1.706390040816142E9, -402.35339683294296, -310.68096911907196, -195.79124248027802, -136.91025757789612
 1.706390040830099E9, -309.0054939389229, -317.1435162425041, -215.1788838505745, -97.17756044864655
 1.706390040830099E9, -300.38876444101334, -338.2066327929497, -248.4490338563919, -64.14676403999329
 1.7063900408456116E9, -392.3005457520485, -315.2286874651909, -215.89694464206696, -119.67679858207703
 1.7063900408456116E9, -352.5678486227989, -311.6383835077286, -204.88667917251587, -127.33611369132996
 1.7063900408462384E9, -281.9585374593735, -336.29180401563644, -244.3800227046013, -60.556460082530975
 1.7063900408462384E9, -364.29617488384247, -325.76024574041367, -224.0349669456482, -94.54467087984085
