 Timestamp, EXG Channel 0, EXG Channel 1, EXG Channel 2, EXG Channel 3
 1.7054295956310868E9, -47.3920122385025, -220.20530939102173, -169.94105398654938, 326.95701372623444
 1.7054295956310868E9, 0.0, 0.0, 0.0, 0.0
 1.705429595673086E9, -105.55493634939194, -306.13325077295303, -242.7045475244522, 268.07602882385254
 1.705429595673086E9, 6.223193526268005, -133.3199536204338, -116.56520181894302, 392.06119215488434
 1.7054295956877327E9, 38.29657554626465, -137.86767196655273, -125.18193131685257, 411.4488335251808
 1.7054295956877327E9, -89.99695253372192, -302.30359321832657, -237.67812198400497, 279.0862942934036
 1.705429595702246E9, -51.93973058462143, -203.2112039923668, -160.60626369714737, 336.77051120996475
 1.705429595702246E9, 55.05132734775543, -99.57109642028809, -94.3053172826767, 432.7513036727905
 1.7054295957029953E9, -42.844293892383575, -252.75739860534668, -207.99827593564987, 320.73382019996643
 1.7054295957029953E9, -75.87509030103683, -261.6134817004204, -205.36538636684418, 294.16557091474533
 1.705429595732833E9, 47.63136583566666, -90.23630613088608, -78.98668706417084, 438.97449719905853
 1.705429595732833E9, -11.967679858207703, -203.6899111866951, -173.05265074968338, 361.9026389122009
 1.705429595733543E9, -99.09238922595978, -292.2507421374321, -235.04523241519928, 272.8631007671356
 1.705429595733543E9, -3.829657554626465, -148.3992302417755, -125.18193131685257, 380.8115730881691
 1.7054295957343032E9, 21.063116550445557, -151.0321198105812, -140.50056153535843, 397.3269712924957
 1.7054295957343032E9, -89.75759893655777, -303.50036120414734, -240.31101155281067, 265.2037856578827
 1.7054295957630064E9, -50.98231619596481, -206.8015079498291, -177.83972269296646, 328.39313530921936
 1.7054295957630064E9, 43.56235468387604, -111.53877627849579, -110.34200829267502, 422.9378061890602
 1.7054295957637277E9, -49.306841015815735, -261.6134817004204, -213.98211586475372, 315.2286874651909
 1.7054295957637277E9, -76.35379749536514, -259.459299325943, -210.63116550445557, 291.2933277487755
 1.7054295957644415E9, 38.77528274059296, -100.5285108089447, -95.74143886566162, 418.62944144010544
 1.7054295957644415E9, -1.6754751801490784, -201.0570216178894, -161.08497089147568, 365.7322964668274
 1.705429595776477E9, -95.50208526849747, -299.4313500523567, -229.54009968042374, 276.45340472459793
 1.705429595776477E9, 7.65931510925293, -132.60189282894135, -119.43744498491287, 381.52963387966156
 1.7054295957924984E9, 36.14239317178726, -134.99542880058289, -124.46387052536011, 406.1830543875694
 1.7054295957924984E9, -87.36406296491623, -300.6281180381775, -245.8161442875862, 269.7515040040016
 1.705429595792922E9, -46.67395144701004, -203.45055758953094, -167.30816441774368, 333.4195608496666
 1.705429595792922E9, 51.22166979312897, -98.85303562879562, -91.1937205195427, 434.9054860472679
 1.70542959580674E9, -54.572620153427124, -262.0921888947487, -211.58857989311218, 313.79256588220596
 1.70542959580674E9, -80.66216224431992, -261.3741281032562, -207.04086154699326, 295.12298530340195
 1.7054295958542821E9, 46.434597849845886, -92.15113490819931, -81.85893023014069, 432.5119500756264
 1.7054295958542821E9, -9.095436692237854, -207.04086154699326, -170.65911477804184, 359.26974934339523
 1.7054295958549762E9, -101.72527879476547, -301.34617882966995, -235.04523241519928, 268.07602882385254
 1.7054295958549762E9, 5.265779137611389, -137.38896477222443, -117.52261620759964, 387.9921810030937
 1.705429595855752E9, 28.004370868206024, -142.89409750699997, -140.26120793819427, 397.80567848682404
 1.705429595855752E9, -100.0498036146164, -315.2286874651909, -250.84256982803345, 263.5283104777336
 1.705429595856495E9, -49.78554821014404, -210.87051910161972, -167.54751801490784, 327.43572092056274
 1.705429595856495E9, 44.519769072532654, -108.9058867096901, -102.20398598909378, 426.7674637436867
 1.705429595868798E9, -62.47128885984421, -273.3418079614639, -222.59884536266327, 299.910057246685
 1.705429595868798E9, -94.54467087984085, -272.62374716997147, -222.83819895982742, 276.6927583217621
 1.7054295958693104E9, 27.046956479549408, -114.88972663879395, -103.1614003777504, 405.46499359607697
 1.7054295958693104E9, -12.925094246864319, -212.30664068460464, -174.9674795269966, 354.243323802948
 1.7054295958700151E9, -114.65037304162979, -318.57963782548904, -245.8161442875862, 259.459299325943
 1.7054295958700151E9, -0.4787071943283081, -141.45797592401505, -120.15550577640533, 387.0347666144371
 1.7054295958818462E9, 39.49334353208542, -137.38896477222443, -113.21425145864487, 412.88495510816574
 1.7054295958818462E9, -95.98079246282578, -314.0319194793701, -247.01291227340698, 270.4695647954941
 1.7054295958965116E9, -50.98231619596481, -204.40797197818756, -169.22299319505692, 333.8982680439949
 1.7054295958965116E9, 47.63136583566666, -106.2729971408844, -100.76786440610886, 427.48552453517914
 1.7054295959285448E9, -52.897144973278046, -262.81024968624115, -215.6575910449028, 313.31385868787766
 1.7054295959285448E9, -87.60341656208038, -269.03344321250916, -202.49314320087433, 295.12298530340195
 1.7054295959292507E9, 48.34942662715912, -91.91178131103516, -81.38022303581238, 434.18742525577545
 1.7054295959292507E9, -8.8560830950737, -206.08344715833664, -170.41976118087769, 358.7910421490669
 1.705429595930061E9, -107.23041152954102, -308.2874331474304, -239.35359716415405, 266.1612000465393
 1.705429595930061E9, 0.7180607914924622, -145.76634067296982, -122.30968815088272, 381.7689874768257
 1.7054295959307463E9, 33.74885720014572, -145.2876334786415, -129.2509424686432, 401.87468963861465
 1.7054295959307463E9, -97.65626764297485, -309.9629083275795, -246.05549788475037, 266.40055364370346
 1.7054295959417994E9, -54.572620153427124, -204.64732557535172, -176.88230830430984, 324.80283135175705
 1.7054295959417994E9, 51.46102339029312, -97.65626764297485, -99.81045001745224, 421.9803918004036
 1.7054295959568083E9, -55.769388139247894, -265.2037856578827, -222.35949176549911, 307.8087259531021
 1.7054295959568083E9, -98.85303562879562, -277.6501727104187, -217.8117734193802, 285.78819501399994
 1.70542959597224E9, 41.88687950372696, -100.5285108089447, -95.98079246282578, 416.7146126627922
 1.70542959597224E9, 3.590303957462311, -190.76481693983078, -162.0423852801323, 363.81746768951416
 1.7054295959729855E9, -94.54467087984085, -293.2081565260887, -231.21557486057281, 271.4269791841507
 1.7054295959729855E9, 3.829657554626465, -138.1070255637169, -119.43744498491287, 384.8805842399597
 1.7054295960028703E9, 32.55208921432495, -140.26120793819427, -123.9851633310318, 403.7895184159279
 1.7054295960028703E9, -77.31121188402176, -285.0701342225075, -232.17298924922943, 280.7617694735527
 1.7054295960035691E9, -41.40817230939865, -196.03059607744217, -160.36691009998322, 337.4885720014572
 1.7054295960035691E9, 57.92357051372528, -93.34790289402008, -94.3053172826767, 425.81004935503006
 1.7054295960042956E9, -47.63136583566666, -258.9805921316147, -213.98211586475372, 304.6971291899681
 1.7054295960042956E9, -85.68858778476715, -264.7250784635544, -210.87051910161972, 289.6178525686264
 1.7054295960165627E9, 44.2804154753685, -93.34790289402008, -87.36406296491623, 422.4590989947319
 1.7054295960165627E9, -10.531558275222778, -201.0570216178894, -176.88230830430984, 356.63685977458954
 1.7054295960325203E9, -117.04390901327133, -313.31385868787766, -250.84256982803345, 256.10834896564484
 1.7054295960325203E9, -6.7019007205963135, -137.86767196655273, -124.94257771968842, 383.4444626569748
 1.7054295960330937E9, 31.35532122850418, -146.24504786729813, -131.64447844028473, 399.0024464726448
 1.7054295960330937E9, -99.09238922595978, -308.2874331474304, -255.15093457698822, 258.5018849372864
 1.7054295960464897E9, -57.44486331939697, -218.2904806137085, -177.6003690958023, 323.12735617160797
 1.7054295960464897E9, 50.0249018073082, -104.59752196073532, -98.61368203163147, 429.8790605068207
 1.7054295960623605E9, -53.1364985704422, -265.2037856578827, -222.12013816833496, 305.8938971757889
 1.7054295960623605E9, -91.672427713871, -275.9746975302696, -218.2904806137085, 282.1978910565376
 1.7054295960629537E9, 42.844293892383575, -101.96463239192963, -88.80018454790115, 423.8952205777168
 1.7054295960629537E9, 3.1115967631340027, -195.07318168878555, -167.30816441774368, 359.74845653772354
 1.7054295960764704E9, -97.17756044864655, -294.64427810907364, -232.8910500407219, 267.1186144351959
 1.7054295960764704E9, 6.223193526268005, -133.55930721759796, -118.48003059625626, 388.470888197422
 1.7054295960923524E9, 44.75912266969681, -129.49029606580734, -115.36843383312225, 412.40624791383743
 1.7054295960923524E9, -86.40664857625961, -290.8146205544472, -238.6355363726616, 275.4959903359413
 1.7054295960929406E9, -45.47718346118927, -197.70607125759125, -165.1539820432663, 339.1640471816063
 1.7054295960929406E9, 56.72680252790451, -94.06596368551254, -87.84277015924454, 441.3680331707001
 1.705429596106574E9, -48.82813382148743, -256.10834896564484, -209.19504392147064, 310.68096911907196
 1.705429596106574E9, -77.0718582868576, -256.8264097571373, -203.6899111866951, 294.16557091474533
 1.70542959613856E9, 43.80170828104019, -102.44333958625793, -96.93820685148239, 420.54427021741867
 1.70542959613856E9, -10.05285108089447, -208.47698312997818, -182.3874410390854, 350.1743126511574
 1.7054295961390374E9, -94.784024477005, -293.686863720417, -234.08781802654266, 272.14503997564316
 1.7054295961390374E9, 4.547718346118927, -137.62831836938858, -119.43744498491287, 391.3431313633919
 1.7054295961529553E9, 28.004370868206024, -141.93668311834335, -132.8412464261055, 398.5237392783165
 1.7054295961529553E9, -95.50208526849747, -306.3726043701172, -251.0819234251976, 258.5018849372864
 1.7054295961536596E9, -48.58878022432327, -207.99827593564987, -175.20683312416077, 324.32412415742874
 1.7054295961536596E9, 56.487448930740356, -99.09238922595978, -92.86919569969177, 432.9906572699547
 1.7054295961543624E9, -49.06748741865158, -263.76766407489777, -214.22146946191788, 316.6648090481758
 1.7054295961543624E9, -86.88535577058792, -258.74123853445053, -204.64732557535172, 294.16557091474533
 1.7054295961669862E9, 44.2804154753685, -89.51824533939362, -84.97052699327469, 428.2035853266716
 1.7054295961669862E9, -1.6754751801490784, -193.63706010580063, -160.36691009998322, 367.40777164697647
 1.7054295961823096E9, -97.65626764297485, -296.3197532892227, -225.47108852863312, 276.93211191892624
 1.7054295961823096E9, 6.462547123432159, -131.64447844028473, -108.9058867096901, 395.17278891801834
 1.705429596182888E9, 36.860453963279724, -127.81482088565826, -118.48003059625626, 413.36366230249405
 1.705429596182888E9, -86.16729497909546, -296.55910688638687, -236.9600611925125, 281.47983026504517
 1.7054295961970356E9, -40.450757920742035, -198.66348564624786, -162.0423852801323, 340.83952236175537
 1.7054295961970356E9, 66.06159281730652, -84.97052699327469, -84.01311260461807, 443.52221554517746
 1.7054295962122514E9, -47.3920122385025, -253.47545939683914, -206.08344715833664, 318.3402842283249
 1.7054295962122514E9, -72.28478634357452, -250.84256982803345, -195.3125352859497, 306.13325077295303
 1.7054295962128568E9, 42.36558669805527, -94.784024477005, -89.03953814506531, 426.7674637436867
 1.7054295962128568E9, -16.276044607162476, -207.04086154699326, -177.121661901474, 350.89237344264984
 1.7054295962265985E9, -112.73554426431656, -310.4416155219078, -242.94390112161636, 265.682492852211
 1.7054295962265985E9, -6.9412543177604675, -137.14961117506027, -119.91615217924118, 386.5560594201088
 1.705429596242237E9, 24.89277410507202, -145.04827988147736, -129.01158887147903, 399.72050726413727
 1.705429596242237E9, -103.6401075720787, -320.73382019996643, -248.92774105072021, 270.9482719898224
 1.7054295962428567E9, -56.72680252790451, -211.10987269878387, -169.46234679222107, 336.77051120996475
 1.7054295962428567E9, 39.49334353208542, -108.18782591819763, -112.0174834728241, 415.51784467697144
 1.7054295962737453E9, -63.428703248500824, -273.82051515579224, -225.94979572296143, 302.7823004126549
 1.7054295962737453E9, -94.06596368551254, -272.3843935728073, -211.10987269878387, 292.2507421374321
 1.705429596274315E9, 37.33916115760803, -92.62984210252762, -83.05569821596146, 434.4267788529396
 1.705429596274315E9, 1.4361215829849243, -190.76481693983078, -159.64884930849075, 369.3226004242897
 1.705429596275001E9, -100.76786440610886, -297.5165212750435, -229.7794532775879, 273.5811615586281
 1.705429596275001E9, 8.616729497909546, -133.08060002326965, -103.87946116924286, 397.3269712924957
 1.7054295962869108E9, 40.69011151790619, -127.57546728849411, -112.97489786148071, 420.06556302309036
 1.7054295962869108E9, -89.03953814506531, -296.55910688638687, -230.2581604719162, 286.74560940265656
 1.7054295963185942E9, -45.95589065551758, -198.18477845191956, -158.69143491983414, 344.1904727220535
 1.7054295963185942E9, 57.20550972223282, -91.672427713871, -82.09828382730484, 442.3254475593567
 1.705429596319288E9, -57.44486331939697, -260.65606731176376, -209.4343975186348, 319.7764058113098
 1.705429596319288E9, -96.45949965715408, -272.14503997564316, -213.50340867042542, 288.6604381799698
 1.7054295963200593E9, 31.35532122850418, -103.6401075720787, -94.3053172826767, 423.8952205777168
 1.7054295963200593E9, -17.7121661901474, -210.3918119072914, -176.40360110998154, 357.354920566082
 1.7054295963207743E9, -113.21425145864487, -309.4842011332512, -237.19941478967667, 268.794089615345
 1.7054295963207743E9, -2.8722431659698486, -138.34637916088104, -113.69295865297318, 398.28438568115234
 1.705429596331488E9, 19.866348564624786, -143.85151189565659, -128.29352807998657, 405.2256399989128
 1.705429596331488E9, -100.0498036146164, -309.0054939389229, -244.61937630176544, 275.4959903359413
 1.7054295963468852E9, -57.68421691656113, -208.47698312997818, -159.64884930849075, 340.6001687645912
 1.7054295963468852E9, 42.844293892383575, -104.59752196073532, -99.81045001745224, 432.7513036727905
 1.705429596362306E9, -64.86482483148575, -273.3418079614639, -221.8807845711708, 307.8087259531021
 1.705429596362306E9, -99.57109642028809, -268.55473601818085, -210.15245831012726, 287.22431659698486
 1.705429596362942E9, 34.466917991638184, -104.35816836357117, -94.3053172826767, 421.9803918004036
 1.705429596362942E9, -12.925094246864319, -203.92926478385925, -168.98363959789276, 359.5091029405594
 1.7054295963766687E9, -111.77812987565994, -303.50036120414734, -237.43876838684082, 273.1024543642998
 1.7054295963766687E9, 0.0, -129.49029606580734, -114.65037304162979, 390.6250705718994
 1.705429596392537E9, 28.96178525686264, -143.85151189565659, -131.88383203744888, 401.1566288471222
 1.705429596392537E9, -94.54467087984085, -308.5267867445946, -241.02907234430313, 269.51215040683746
 1.7054295963930209E9, -49.306841015815735, -200.81766802072525, -160.60626369714737, 333.65891444683075
 1.7054295963930209E9, 51.46102339029312, -94.06596368551254, -96.93820685148239, 430.11841410398483
 1.7054295964068315E9, -52.41843777894974, -264.4857248663902, -218.52983421087265, 310.20226192474365
 1.7054295964068315E9, -90.23630613088608, -270.4695647954941, -214.70017665624619, 282.9159518480301
 1.7054295964225912E9, 34.70627158880234, -99.09238922595978, -98.37432843446732, 415.99655187129974
 1.7054295964225912E9, -16.03669100999832, -216.1362982392311, -182.14808744192123, 344.4298263192177
 1.7054295964230018E9, -117.04390901327133, -316.90416264533997, -252.99675220251083, 249.64580184221268
 1.7054295964230018E9, -4.308364748954773, -148.63858383893967, -128.05417448282242, 378.6573907136917
 1.7054295964368403E9, 22.738591730594635, -148.63858383893967, -133.55930721759796, 390.6250705718994
 1.7054295964368403E9, -106.2729971408844, -320.9731737971306, -266.1612000465393, 246.53420507907867
 1.7054295964523885E9, -52.897144973278046, -206.8015079498291, -174.4887723326683, 325.28153854608536
 1.7054295964523885E9, 43.80170828104019, -107.46976512670517, -101.96463239192963, 422.69845259189606
 1.7054295964530473E9, -62.71064245700836, -269.7515040040016, -226.18914932012558, 301.34617882966995
 1.7054295964530473E9, -88.560830950737, -268.794089615345, -219.00854140520096, 280.7617694735527
 1.7054295964670713E9, 29.679846048355103, -102.92204678058624, -97.4169140458107, 411.68818712234497
 1.7054295964670713E9, -18.669580578804016, -212.0672870874405, -185.02033060789108, 347.0627158880234
 1.7054295964828773E9, -118.71938419342041, -318.8189914226532, -253.47545939683914, 253.7148129940033
 1.7054295964828773E9, -14.839923024177551, -153.42565578222275, -139.78250074386597, 364.29617488384247
 1.7054295964835885E9, 13.403801441192627, -157.01595973968506, -143.61215829849243, 386.79541301727295
 1.7054295964835885E9, -106.99105793237686, -327.6750745177269, -260.8954209089279, 259.459299325943
 1.7054295964969668E9, -63.428703248500824, -221.16272377967834, -180.7119658589363, 316.6648090481758
 1.7054295964969668E9, 44.041061878204346, -106.99105793237686, -111.29942268133163, 418.15073424577713
 1.7054295965125074E9, -61.9925816655159, -277.6501727104187, -230.2581604719162, 298.9526428580284
 1.7054295965125074E9, -94.54467087984085, -277.6501727104187, -222.83819895982742, 277.6501727104187
 1.705429596512937E9, 36.62110036611557, -106.2729971408844, -103.6401075720787, 410.4914191365242
 1.705429596512937E9, -9.574143886566162, -211.82793349027634, -179.99390506744385, 350.6530198454857
 1.705429596526692E9, -107.46976512670517, -306.8513115644455, -242.46519392728806, 259.21994572877884
 1.705429596526692E9, 2.6328895688056946, -136.4315503835678, -115.36843383312225, 386.0773522257805
 1.7054295965425284E9, 31.594674825668335, -139.0644399523735, -126.6180528998375, 404.50757920742035
 1.7054295965425284E9, -96.22014605998993, -309.24484753608704, -247.01291227340698, 269.99085760116577
 1.7054295965429685E9, -50.503609001636505, -206.56215435266495, -164.19656765460968, 335.3343896269798
 1.7054295965429685E9, 46.19524425268173, -105.55493634939194, -101.96463239192963, 427.246170938015
 1.7054295965566769E9, -63.428703248500824, -274.29922235012054, -225.47108852863312, 299.6707036495209
 1.7054295965566769E9, -100.5285108089447, -277.41081911325455, -224.27432054281235, 278.6075870990753
 1.7054295965722632E9, 33.27015000581741, -105.31558275222778, -98.61368203163147, 420.7836238145828
 1.7054295965722632E9, -9.813497483730316, -206.3228007555008, -179.27584427595139, 350.1743126511574
 1.705429596572857E9, -109.86330109834671, -307.3300187587738, -242.94390112161636, 261.13477450609207
 1.705429596572857E9, -1.4361215829849243, -141.93668311834335, -125.42128491401672, 378.41803711652756
 1.7054295965866716E9, 27.76501727104187, -144.09086549282074, -130.44771045446396, 397.0876176953316
 1.7054295965866716E9, -104.35816836357117, -312.35644429922104, -253.236105799675, 267.8366752266884
 1.7054295966022668E9, -57.92357051372528, -207.75892233848572, -170.898468375206, 332.9408536553383
 1.7054295966022668E9, 42.12623310089111, -110.34200829267502, -105.55493634939194, 419.3475022315979
 1.7054295966028593E9, -64.14676403999329, -276.93211191892624, -226.42850291728973, 301.1068252325058
 1.7054295966028593E9, -91.43307411670685, -267.1186144351959, -223.31690615415573, 283.8733662366867
 1.705429596616584E9, 32.07338201999664, -98.13497483730316, -89.75759893655777, 422.69845259189606
 1.705429596616584E9, -3.829657554626465, -197.22736406326294, -160.84561729431152, 366.45035725831985
 1.7054295966326284E9, -99.57109642028809, -294.64427810907364, -232.41234284639359, 279.56500148773193
 1.7054295966326284E9, 9.813497483730316, -130.92641764879227, -111.29942268133163, 399.24180006980896
 1.7054295966328948E9, 49.306841015815735, -121.83098095655441, -108.42717951536179, 425.81004935503006
 1.7054295966328948E9, -76.5931510925293, -289.1391453742981, -224.75302773714066, 288.42108458280563
 1.70542959664669E9, -35.4243323802948, -188.37128096818924, -141.45797592401505, 359.26974934339523
 1.70542959664669E9, 73.72090792655945, -75.39638310670853, -68.93383598327637, 458.362138569355
 1.7054295966617827E9, -47.3920122385025, -251.32127702236176, -202.49314320087433, 331.02602487802505
 1.7054295966617827E9, -84.49181979894638, -265.44313925504684, -211.82793349027634, 292.49009573459625
 1.7054295966778424E9, 15.557983815670013, -174.01006513834, -140.50056153535843, 392.3005457520485
 1.7054295966778424E9, -87.60341656208038, -287.9423773884773, -225.47108852863312, 279.8043550848961
 1.705429596678579E9, 21.78117734193802, -116.80455541610718, -91.1937205195427, 417.911380648613
 1.705429596678579E9, 54.093912959098816, -112.73554426431656, -95.26273167133331, 439.2138507962227
 1.7054295966918125E9, -74.19961512088776, -279.3256478905678, -214.70017665624619, 310.4416155219078
 1.7054295966918125E9, -21.063116550445557, -165.87204283475876, -117.52261620759964, 386.31670582294464
 1.7054295967072568E9, 69.17318958044052, -76.11444389820099, -69.89125037193298, 462.6705033183098
 1.7054295967072568E9, -40.69011151790619, -245.57679069042206, -185.73839139938354, 347.5414230823517
 1.7054295967079082E9, -77.31121188402176, -249.40644824504852, -184.78097701072693, 328.1537817120552
 1.7054295967079082E9, 41.40817230939865, -84.25246620178223, -66.77965360879898, 463.6279177069664
 1.705429596721751E9, 1.4361215829849243, -184.30226981639862, -143.37280470132828, 403.0714576244354
 1.705429596721751E9, -106.03364354372025, -287.70302379131317, -212.30664068460464, 301.1068252325058
 1.7054295967372642E9, -5.744486331939697, -131.88383203744888, -112.0174834728241, 408.8159439563751
 1.7054295967372642E9, 42.36558669805527, -118.00132340192795, -93.82661008834839, 453.57506662607193
 1.7054295967378728E9, -85.449234187603, -282.4372446537018, -208.47698312997818, 313.0745050907135
 1.7054295967378728E9, -43.08364748954773, -185.4990378022194, -136.19219678640366, 374.82773315906525
 1.7054295967516477E9, 70.13060396909714, -74.91767591238022, -69.65189677476883, 469.61175763607025
 1.7054295967516477E9, -35.184978783130646, -239.1142435669899, -193.15835291147232, 345.3872407078743
 1.705429596767302E9, -67.97642159461975, -233.3697572350502, -179.27584427595139, 333.65891444683075
 1.705429596767302E9, 59.59904569387436, -67.97642159461975, -56.00874173641205, 475.83495116233826
 1.7054295967678678E9, 1.6754751801490784, -183.344855427742, -140.97926872968674, 404.2682256102562
 1.7054295967678678E9, -94.784024477005, -282.4372446537018, -213.50340867042542, 304.93648278713226
 1.7054295967820091E9, 4.547718346118927, -123.26710253953934, -88.08212375640869, 433.23001086711884
 1.7054295967820091E9, 29.44049245119095, -130.6870640516281, -109.86330109834671, 441.6073867678642
 1.7054295967974195E9, -89.51824533939362, -289.85720616579056, -230.49751406908035, 299.910057246685
 1.7054295967974195E9, -49.06748741865158, -192.2009385228157, -153.42565578222275, 355.2007381916046
 1.7054295967979093E9, 60.79581367969513, -85.68858778476715, -79.46539425849915, 451.6602378487587
 1.7054295967979093E9, -45.716537058353424, -252.51804500818253, -197.9454248547554, 340.83952236175537
 1.7054295968117878E9, -86.40664857625961, -257.3051169514656, -195.3125352859497, 316.90416264533997
 1.7054295968117878E9, 47.15265864133835, -86.88535577058792, -75.15702950954437, 447.11251950263977
 1.7054295968277988E9, -1.9148287773132324, -188.13192737102509, -154.62242376804352, 384.16252344846725
 1.7054295968277988E9, -107.46976512670517, -297.75587487220764, -227.38591730594635, 291.2933277487755
 1.7054295968425283E9, -5.026425540447235, -127.57546728849411, -99.81045001745224, 417.911380648613
 1.7054295968425283E9, 25.132127702236176, -136.19219678640366, -111.77812987565994, 428.6822925209999
 1.705429596842972E9, -101.48592519760132, -309.4842011332512, -240.31101155281067, 285.0701342225075
 1.705429596842972E9, -56.487448930740356, -209.67375111579895, -167.30816441774368, 347.0627158880234
 1.7054295968738365E9, 46.434597849845886, -94.54467087984085, -95.74143886566162, 442.56480115652084
 1.7054295968738365E9, -54.572620153427124, -259.69865292310715, -210.63116550445557, 325.9995993375778
 1.7054295968743129E9, -87.12470936775208, -262.570896089077, -207.75892233848572, 296.798460483551
 1.7054295968743129E9, 40.21140432357788, -92.62984210252762, -83.77375900745392, 435.6235468387604
 1.7054295968750362E9, -8.616729497909546, -193.39770650863647, -166.82945722341537, 365.2535892724991
 1.7054295968750362E9, -106.2729971408844, -300.38876444101334, -236.4813539981842, 275.017283141613
 1.7054295968757775E9, -8.138022303581238, -140.97926872968674, -117.04390901327133, 386.5560594201088
 1.7054295968757775E9, 24.89277410507202, -145.2876334786415, -130.2083568572998, 404.02887201309204
 1.7054295969026413E9, -101.72527879476547, -308.7661403417587, -251.79998421669006, 268.794089615345
 1.7054295969026413E9, -62.47128885984421, -215.41823744773865, -174.9674795269966, 326.7176601290703
 1.705429596903114E9, 41.1688187122345, -101.96463239192963, -98.37432843446732, 430.357767701149
 1.705429596903114E9, -63.90741044282913, -271.66633278131485, -213.0247014760971, 315.94674825668335
 1.7054295969173272E9, -97.4169140458107, -272.8631007671356, -208.23762953281403, 295.12298530340195
 1.7054295969173272E9, 29.201138854026794, -105.07622915506363, -86.40664857625961, 432.9906572699547
 1.7054295969179697E9, -14.361215829849243, -198.90283924341202, -164.91462844610214, 370.2800148129463
 1.7054295969179697E9, -108.9058867096901, -300.6281180381775, -232.17298924922943, 276.93211191892624
 1.7054295969317524E9, -10.05285108089447, -140.02185434103012, -120.63421297073364, 390.86442416906357
 1.7054295969317524E9, 35.184978783130646, -129.01158887147903, -119.91615217924118, 413.84236949682236
 1.705429596947332E9, -99.81045001745224, -310.20226192474365, -236.0026468038559, 281.00112307071686
 1.705429596947332E9, -51.22166979312897, -202.01443600654602, -161.32432448863983, 341.55758315324783
 1.7054295969479375E9, 43.08364748954773, -99.57109642028809, -90.95436692237854, 434.4267788529396
 1.7054295969479375E9, -70.60931116342545, -279.8043550848961, -222.59884536266327, 302.5429468154907
 1.705429596961615E9, -104.59752196073532, -279.3256478905678, -216.85435903072357, 284.59142702817917
 1.705429596961615E9, 26.328895688056946, -105.79428994655609, -96.22014605998993, 417.43267345428467
 1.70542959697744E9, -18.190873384475708, -206.08344715833664, -180.47261226177216, 348.25948387384415
 1.70542959697744E9, -129.01158887147903, -324.32412415742874, -252.27869141101837, 257.06576335430145
 1.7054295969779708E9, -16.994105398654938, -155.57983815670013, -134.99542880058289, 374.1096723675728
 1.7054295969779708E9, 21.78117734193802, -145.04827988147736, -137.86767196655273, 397.0876176953316
 1.70542959699172E9, -108.18782591819763, -318.10093063116074, -255.15093457698822, 266.87926083803177
 1.70542959699172E9, -68.45512878894806, -219.2478950023651, -184.78097701072693, 319.7764058113098
 1.7054295970074897E9, 40.21140432357788, -106.75170433521271, -104.59752196073532, 423.4165133833885
 1.7054295970074897E9, -67.25836080312729, -275.017283141613, -226.90721011161804, 301.82488602399826
 1.7054295970079648E9, -103.6401075720787, -279.0862942934036, -217.09371262788773, 283.15530544519424
 1.7054295970079648E9, 25.37148129940033, -109.14524030685425, -98.37432843446732, 416.95396625995636
 1.705429597021792E9, -19.148287773132324, -206.56215435266495, -180.233258664608, 356.15815258026123
 1.705429597021792E9, -119.91615217924118, -316.90416264533997, -253.236105799675, 258.2625313401222
 1.705429597037816E9, -20.823762953281403, -155.10113096237183, -130.6870640516281, 378.41803711652756
 1.705429597037816E9, 20.823762953281403, -151.27147340774536, -137.38896477222443, 399.9598608613014
 1.705429597052503E9, -104.83687555789948, -317.8615770339966, -255.86899536848068, 257.06576335430145
 1.705429597052503E9, -67.01900720596313, -225.71044212579727, -184.78097701072693, 319.53705221414566
 1.7054295970531528E9, 36.381746768951416, -116.56520181894302, -112.73554426431656, 420.7836238145828
 1.7054295970531528E9, -65.58288562297821, -276.45340472459793, -231.45492845773697, 295.3623389005661
 1.7054295970672424E9, -105.79428994655609, -282.1978910565376, -224.9923813343048, 271.66633278131485
 1.7054295970672424E9, 25.132127702236176, -110.10265469551086, -108.9058867096901, 404.50757920742035
 1.7054295970678968E9, -21.78117734193802, -213.74276226758957, -183.10550183057785, 346.58400869369507
 1.7054295970678968E9, -121.3522737622261, -320.4944666028023, -255.86899536848068, 246.77355867624283
 1.7054295970982044E9, -17.472812592983246, -156.53725254535675, -136.4315503835678, 369.3226004242897
 1.7054295970982044E9, 21.30247014760971, -153.1863021850586, -144.56957268714905, 390.6250705718994
 1.7054295970986955E9, -116.80455541610718, -328.39313530921936, -267.59732162952423, 249.16709464788437
 1.7054295970986955E9, -70.60931116342545, -228.82203888893127, -193.39770650863647, 301.5855324268341
 1.705429597099529E9, 36.14239317178726, -119.43744498491287, -123.26710253953934, 405.9437007904053
 1.705429597099529E9, -70.60931116342545, -284.59142702817917, -240.31101155281067, 282.9159518480301
 1.7054295971117575E9, -113.21425145864487, -297.27716767787933, -243.18325471878052, 259.21994572877884
 1.7054295971117575E9, 21.541823744773865, -117.7619698047638, -112.0174834728241, 401.87468963861465
 1.705429597127224E9, -25.850188493728638, -219.72660219669342, -188.13192737102509, 348.25948387384415
 1.705429597127224E9, -123.50645613670349, -321.9305881857872, -253.47545939683914, 251.32127702236176
 1.705429597128016E9, -14.839923024177551, -158.21272772550583, -134.51672160625458, 374.82773315906525
 1.705429597128016E9, 23.935359716415405, -146.72375506162643, -134.75607520341873, 399.0024464726448
 1.705429597141816E9, -102.44333958625793, -318.3402842283249, -251.5606306195259, 269.2727968096733
 1.705429597141816E9, -58.162924110889435, -216.61500543355942, -168.2655788064003, 332.2227928638458
 1.705429597157798E9, 49.54619461297989, -99.57109642028809, -92.15113490819931, 431.07582849264145
 1.705429597157798E9, -55.05132734775543, -262.0921888947487, -213.26405507326126, 308.7661403417587
 1.7054295971725028E9, -79.7047478556633, -256.8264097571373, -201.5357288122177, 298.4739356637001
 1.7054295971725028E9, 48.34942662715912, -79.94410145282745, -72.04543274641037, 437.77772921323776
 1.7054295971730397E9, 5.026425540447235, -183.344855427742, -151.98953419923782, 381.52963387966156
 1.7054295971730397E9, -106.03364354372025, -307.8087259531021, -234.08781802654266, 274.77792954444885
 1.7054295971872473E9, 9.813497483730316, -130.92641764879227, -109.14524030685425, 394.2153745293617
 1.7054295971872473E9, 47.3920122385025, -121.11292016506195, -111.06006908416748, 420.54427021741867
 1.7054295971879272E9, -96.22014605998993, -310.68096911907196, -253.236105799675, 265.44313925504684
 1.7054295971879272E9, -50.0249018073082, -206.08344715833664, -161.56367808580399, 332.2227928638458
 1.705429597201583E9, 59.83839929103851, -94.3053172826767, -92.15113490819931, 435.6235468387604
 1.705429597201583E9, -37.09980756044388, -252.99675220251083, -208.9556903243065, 313.79256588220596
 1.7054295972172468E9, -74.19961512088776, -261.3741281032562, -203.2112039923668, 300.38876444101334
 1.7054295972172468E9, 58.8809849023819, -83.05569821596146, -71.08801835775375, 443.2828619480133
 1.705429597217944E9, 2.3935359716415405, -192.44029211997986, -165.1539820432663, 361.9026389122009
 1.705429597217944E9, -89.75759893655777, -292.01138854026794, -221.64143097400665, 278.6075870990753
 1.70542959723194E9, 21.063116550445557, -119.43744498491287, -97.65626764297485, 406.66176158189774
 1.70542959723194E9, 67.25836080312729, -111.06006908416748, -95.50208526849747, 432.2725964784622
 1.7054295972472982E9, -73.24220073223114, -288.89979177713394, -227.38591730594635, 280.2830622792244
 1.7054295972472982E9, -30.876614034175873, -192.44029211997986, -149.35664463043213, 342.99370473623276
 1.7054295972479725E9, 84.97052699327469, -68.2157751917839, -62.231935262680054, 464.1066249012947
 1.7054295972479725E9, -13.403801441192627, -225.94979572296143, -177.121661901474, 348.25948387384415
 1.705429597261629E9, -68.93383598327637, -252.99675220251083, -189.80740255117416, 304.2184219956398
 1.705429597261629E9, 59.359692096710205, -72.52413994073868, -66.54030001163483, 449.26670187711716
 1.7054295972772417E9, 19.866348564624786, -178.07907629013062, -146.48440146446228, 384.8805842399597
 1.7054295972772417E9, -87.60341656208038, -287.70302379131317, -222.35949176549911, 285.78819501399994
 1.7054295972779255E9, 18.190873384475708, -132.3625392317772, -107.70911872386932, 400.91727524995804
 1.7054295972779255E9, 64.6254712343216, -116.32584822177887, -103.40075397491455, 429.1609997153282
 1.7054295972917085E9, -71.08801835775375, -293.44751012325287, -227.6252709031105, 284.352073431015
 1.7054295972917085E9, -41.88687950372696, -205.84409356117249, -170.41976118087769, 330.06861048936844
 1.7054295973073027E9, 63.66805684566498, -91.672427713871, -91.91178131103516, 432.9906572699547
 1.7054295973073027E9, -37.81786835193634, -258.02317774295807, -214.46082305908203, 310.4416155219078
 1.7054295973079972E9, -87.84277015924454, -273.82051515579224, -215.6575910449028, 284.8307806253433
 1.7054295973079972E9, 51.22166979312897, -98.37432843446732, -84.49181979894638, 434.18742525577545
 1.7054295973215315E9, 11.24961906671524, -191.7222313284874, -160.84561729431152, 373.15225797891617
 1.7054295973215315E9, -95.50208526849747, -303.02165400981903, -240.78971874713898, 261.13477450609207
 1.7054295973374455E9, 1.9148287773132324, -148.63858383893967, -124.46387052536011, 376.5032083392143
 1.7054295973374455E9, 41.647525906562805, -131.88383203744888, -120.39485937356949, 414.32107669115067
 1.705429597337934E9, -79.22604066133499, -291.0539741516113, -238.39618277549744, 274.77792954444885
 1.705429597337934E9, -32.791442811489105, -198.90283924341202, -160.60626369714737, 340.36081516742706
 1.705429597351504E9, 62.231935262680054, -91.43307411670685, -92.62984210252762, 430.59712129831314
 1.705429597351504E9, -37.81786835193634, -252.75739860534668, -202.49314320087433, 316.1861018538475
 1.7054295973679645E9, -74.67832231521606, -259.9380065202713, -202.25378960371017, 293.686863720417
 1.7054295973679645E9, 56.00874173641205, -83.53440541028976, -69.41254317760468, 441.8467403650284
 1.7054295973686492E9, 16.51539820432663, -180.233258664608, -145.76634067296982, 385.11993783712387
 1.7054295973686492E9, -88.80018454790115, -287.22431659698486, -217.57241982221603, 285.78819501399994
 1.7054295973816092E9, -4.069011151790619, -141.6973295211792, -114.17166584730148, 390.6250705718994
 1.7054295973816092E9, 52.41843777894974, -118.95873779058456, -107.46976512670517, 421.9803918004036
 1.7054295973976972E9, -76.35379749536514, -288.1817309856415, -226.18914932012558, 285.78819501399994
 1.7054295973976972E9, -47.3920122385025, -205.12603276968002, -165.1539820432663, 327.43572092056274
 1.7054295973981004E9, 59.83839929103851, -99.33174282312393, -96.69885325431824, 426.28875654935837
 1.7054295973981004E9, -42.36558669805527, -256.10834896564484, -211.10987269878387, 316.42545545101166
 1.7054295974282885E9, -66.77965360879898, -255.86899536848068, -201.5357288122177, 292.96880292892456
 1.7054295974282885E9, 43.08364748954773, -105.31558275222778, -100.0498036146164, 405.7043471932411
 1.7054295974286945E9, 1.4361215829849243, -201.5357288122177, -179.51519787311554, 350.41366624832153
 1.7054295974286945E9, -101.96463239192963, -306.61195796728134, -242.94390112161636, 260.4167137145996
 1.7054295974294968E9, 5.026425540447235, -141.6973295211792, -122.54904174804688, 380.57221949100494
 1.7054295974294968E9, 50.0249018073082, -127.81482088565826, -122.78839534521103, 413.84236949682236
 1.7054295974449909E9, -75.87509030103683, -290.33591336011887, -234.80587881803513, 280.7617694735527
 1.7054295974449909E9, -37.81786835193634, -190.52546334266663, -152.94694858789444, 345.62659430503845
 1.705429597458083E9, 67.7370679974556, -83.77375900745392, -77.78991907835007, 443.7615691423416
 1.705429597458083E9, -22.97794532775879, -234.80587881803513, -192.91899931430817, 336.5311576128006
 1.705429597458629E9, -58.40227770805359, -242.2258403301239, -185.02033060789108, 312.1170907020569
 1.705429597458629E9, 66.54030001163483, -73.24220073223114, -69.65189677476883, 446.8731659054756
 1.7054295974715295E9, 22.49923813343048, -175.20683312416077, -147.68116945028305, 382.247694671154
 1.7054295974715295E9, -84.49181979894638, -284.8307806253433, -219.00854140520096, 287.9423773884773
 1.7054295974873705E9, 8.138022303581238, -131.16577124595642, -111.53877627849579, 395.4121425151825
 1.7054295974873705E9, 40.21140432357788, -132.3625392317772, -121.59162735939026, 412.88495510816574
 1.705429597487895E9, -83.29505181312561, -298.71328926086426, -229.30074608325958, 287.70302379131317
 1.705429597487895E9, -48.58878022432327, -205.36538636684418, -162.0423852801323, 339.1640471816063
 1.705429597501928E9, 53.85455936193466, -95.98079246282578, -98.13497483730316, 432.9906572699547
 1.705429597501928E9, -52.897144973278046, -262.33154249191284, -213.26405507326126, 315.94674825668335
 1.7054295975173388E9, -94.06596368551254, -273.82051515579224, -218.05112701654434, 278.6075870990753
 1.7054295975173388E9, 35.4243323802948, -107.94847232103348, -97.17756044864655, 418.3900878429413
 1.705429597517887E9, -5.265779137611389, -199.86025363206863, -168.98363959789276, 364.7748820781708
 1.705429597517887E9, -105.55493634939194, -306.8513115644455, -242.7045475244522, 263.0496032834053
 1.7054295975319755E9, -4.787071943283081, -146.72375506162643, -123.9851633310318, 381.2902802824974
 1.7054295975319755E9, 39.97205072641373, -129.96900326013565, -114.65037304162979, 422.4590989947319
 1.705429597547649E9, -77.78991907835007, -288.42108458280563, -232.41234284639359, 277.6501727104187
 1.705429597547649E9, -40.450757920742035, -193.63706010580063, -153.42565578222275, 343.2330583333969
 1.705429597548031E9, 65.34353202581406, -83.53440541028976, -73.9602615237236, 446.15510511398315
 1.705429597548031E9, -40.450757920742035, -243.42260831594467, -193.15835291147232, 331.50473207235336
 1.7054295975615644E9, -72.52413994073868, -247.4916194677353, -185.9777449965477, 319.53705221414566
 1.7054295975615644E9, 54.093912959098816, -79.46539425849915, -65.34353202581406, 451.42088425159454
 1.7054295975774536E9, 15.079276621341705, -179.03649067878723, -145.2876334786415, 390.86442416906357
 1.7054295975774536E9, -86.40664857625961, -282.67659825086594, -218.52983421087265, 293.9262173175812
 1.7054295975778737E9, 1.4361215829849243, -134.99542880058289, -108.42717951536179, 405.2256399989128
 1.7054295975778737E9, 40.21140432357788, -128.29352807998657, -109.86330109834671, 424.6132813692093
 1.7054295975918317E9, -93.82661008834839, -302.5429468154907, -242.94390112161636, 276.2140511274338
 1.7054295975918317E9, -56.966156125068665, -211.82793349027634, -166.82945722341537, 329.8292568922043
 1.705429597607519E9, 43.80170828104019, -105.31558275222778, -97.17756044864655, 428.2035853266716
 1.705429597607519E9, -61.03516727685928, -266.6399072408676, -220.20530939102173, 310.9203227162361
 1.7054295976079357E9, -100.0498036146164, -280.2830622792244, -222.12013816833496, 282.4372446537018
 1.7054295976079357E9, 33.50950360298157, -104.59752196073532, -98.61368203163147, 417.1933198571205
 1.7054295976217835E9, -9.813497483730316, -199.62090003490448, -176.16424751281738, 356.15815258026123
 1.7054295976217835E9, -112.97489786148071, -310.20226192474365, -245.57679069042206, 264.4857248663902
 1.7054295976372721E9, -8.8560830950737, -146.48440146446228, -125.18193131685257, 382.247694671154
 1.7054295976372721E9, 35.4243323802948, -140.02185434103012, -125.66063851118088, 410.73077273368835
 1.7054295976379912E9, -96.69885325431824, -308.5267867445946, -250.6032162308693, 267.59732162952423
 1.7054295976379912E9, -54.572620153427124, -213.98211586475372, -170.898468375206, 328.6324889063835
 1.7054295976515439E9, 49.78554821014404, -99.09238922595978, -91.672427713871, 432.9906572699547
 1.7054295976515439E9, -50.0249018073082, -254.91158097982407, -210.15245831012726, 315.94674825668335
 1.7054295976670082E9, -89.03953814506531, -267.59732162952423, -207.75892233848572, 292.2507421374321
 1.7054295976670082E9, 38.057221949100494, -98.13497483730316, -81.38022303581238, 432.7513036727905
 1.7054295976822293E9, -106.75170433521271, -302.30359321832657, -236.0026468038559, 272.62374716997147
 1.7054295976822293E9, -8.377375900745392, -143.61215829849243, -119.91615217924118, 390.38571697473526
 1.7054295976829376E9, 30.397906839847565, -139.30379354953766, -124.46387052536011, 406.4224079847336
 1.7054295976829376E9, -107.23041152954102, -320.9731737971306, -261.85283529758453, 256.10834896564484
 1.7054295976965995E9, -66.30094641447067, -227.38591730594635, -183.58420902490616, 312.83515149354935
 1.7054295976965995E9, 41.40817230939865, -110.10265469551086, -108.66653311252594, 415.99655187129974
 1.7054295977122312E9, -67.25836080312729, -279.0862942934036, -235.04523241519928, 292.96880292892456
 1.7054295977122312E9, -108.66653311252594, -293.44751012325287, -236.0026468038559, 265.44313925504684
 1.7054295977129333E9, 24.414066910743713, -112.4961906671524, -104.35816836357117, 407.14046877622604
 1.7054295977129333E9, -15.797337412834167, -208.47698312997818, -177.83972269296646, 353.2859094142914
 1.7054295977265575E9, -114.17166584730148, -313.0745050907135, -242.2258403301239, 262.33154249191284
 1.7054295977265575E9, -9.334790289402008, -145.2876334786415, -128.53288167715073, 374.82773315906525
 1.7054295977423985E9, 33.988210797309875, -135.9528431892395, -123.02774894237518, 404.50757920742035
 1.7054295977423985E9, -89.75759893655777, -303.2610076069832, -248.20968025922775, 269.99085760116577
 1.7054295977429855E9, -52.17908418178558, -209.19504392147064, -167.54751801490784, 331.50473207235336
 1.7054295977429855E9, 61.03516727685928, -89.51824533939362, -87.84277015924454, 444.2402763366699
 1.7054295977567863E9, -43.56235468387604, -249.40644824504852, -203.2112039923668, 323.84541696310043
 1.7054295977567863E9, -87.12470936775208, -261.85283529758453, -199.62090003490448, 299.6707036495209
 1.7054295977722645E9, 40.69011151790619, -91.672427713871, -78.98668706417084, 433.70871806144714
 1.7054295977722645E9, 1.4361215829849243, -192.2009385228157, -162.28173887729645, 369.56195402145386
 1.7054295977728944E9, -107.23041152954102, -305.6545435786247, -236.24200040102005, 264.96443206071854
 1.7054295977728944E9, -11.967679858207703, -150.31405901908875, -128.29352807998657, 377.6999763250351
 1.705429597786658E9, 33.03079640865326, -138.82508635520935, -128.53288167715073, 402.1140432357788
 1.705429597786658E9, -97.17756044864655, -309.24484753608704, -249.88515543937683, 260.17736011743546
 1.7054295978025331E9, -54.81197375059128, -213.74276226758957, -173.77071154117584, 324.32412415742874
 1.7054295978025331E9, 46.19524425268173, -103.40075397491455, -104.83687555789948, 419.8262094259262
 1.705429597803082E9, -61.51387447118759, -275.017283141613, -226.18914932012558, 296.08039969205856
 1.705429597803082E9, -107.23041152954102, -288.6604381799698, -230.7368676662445, 268.794089615345
 1.7054295978165922E9, 43.80170828104019, -86.16729497909546, -78.98668706417084, 443.2828619480133
 1.7054295978165922E9, 3.3509503602981567, -187.41386657953262, -156.2978989481926, 379.13609790802
 1.7054295978325849E9, -90.95436692237854, -291.7720349431038, -219.2478950023651, 292.2507421374321
 1.7054295978325849E9, 12.44638705253601, -121.11292016506195, -92.15113490819931, 420.3049166202545
 1.705429597832968E9, 61.03516727685928, -103.6401075720787, -83.77375900745392, 452.85700583457947
 1.705429597832968E9, -67.97642159461975, -277.41081911325455, -212.78534787893295, 313.31385868787766
 1.7054295978464935E9, -27.286310076713562, -178.31842988729477, -132.12318563461304, 377.46062272787094
 1.7054295978464935E9, 79.94410145282745, -69.89125037193298, -57.68421691656113, 470.3298184275627
 1.7054295978631244E9, -24.89277410507202, -232.17298924922943, -181.43002665042877, 352.32849502563477
 1.7054295978631244E9, -64.14676403999329, -240.78971874713898, -177.6003690958023, 333.65891444683075
 1.705429597863227E9, 63.66805684566498, -70.13060396909714, -51.46102339029312, 466.97886806726456
 1.705429597863227E9, 22.97794532775879, -170.18040758371353, -138.1070255637169, 403.55016481876373
 1.7054295978767056E9, -84.01311260461807, -278.128879904747, -212.30664068460464, 301.82488602399826
 1.7054295978767056E9, 5.744486331939697, -129.01158887147903, -96.69885325431824, 414.0817230939865
 1.705429597892701E9, 43.56235468387604, -127.81482088565826, -109.3845939040184, 429.6397069096565
 1.705429597892701E9, -85.20988059043884, -295.8410460948944, -234.56652522087097, 294.8836317062378
 1.7054295978930116E9, -38.77528274059296, -197.22736406326294, -148.15987664461136, 357.59427416324615
 1.7054295978930116E9, 61.9925816655159, -86.40664857625961, -74.19961512088776, 464.585332095623
 1.7054295979067235E9, -35.663685977458954, -244.8587298989296, -198.90283924341202, 336.77051120996475
 1.7054295979067235E9, -77.0718582868576, -252.75739860534668, -198.66348564624786, 309.4842011332512
 1.7054295979226944E9, 44.041061878204346, -89.27889174222946, -79.46539425849915, 443.7615691423416
 1.7054295979226944E9, 14.361215829849243, -179.03649067878723, -140.02185434103012, 396.13020330667496
 1.7054295979373772E9, -93.10854929685593, -287.9423773884773, -217.09371262788773, 293.686863720417
 1.7054295979373772E9, 6.462547123432159, -135.71348959207535, -104.59752196073532, 407.8585295677185
 1.7054295979380984E9, 53.375852167606354, -110.34200829267502, -97.65626764297485, 443.04350835084915
 1.7054295979380984E9, -74.67832231521606, -281.7191838622093, -217.09371262788773, 306.8513115644455
 1.7054295979522855E9, -31.83402842283249, -186.21709859371185, -146.9631086587906, 356.63685977458954
 1.7054295979522855E9, 67.7370679974556, -76.83250468969345, -68.45512878894806, 460.27696734666824
 1.7054295979530227E9, -28.722431659698486, -234.08781802654266, -182.14808744192123, 347.30206948518753
 1.7054295979530227E9, -68.45512878894806, -244.8587298989296, -183.10550183057785, 324.5634777545929
 1.70542959796654E9, 61.27452087402344, -71.80607914924622, -62.231935262680054, 455.01118820905685
 1.70542959796654E9, 23.69600611925125, -163.47850686311722, -136.19219678640366, 398.0450320839882
 1.7054295979824953E9, -83.29505181312561, -280.7617694735527, -213.26405507326126, 294.8836317062378
 1.7054295979824953E9, 15.557983815670013, -125.18193131685257, -101.96463239192963, 409.0552975535393
 1.7054295979831262E9, 50.98231619596481, -117.7619698047638, -107.46976512670517, 426.5281101465225
 1.7054295979831262E9, -74.19961512088776, -290.575266957283, -234.08781802654266, 290.0965597629547
 1.7054295979965365E9, -52.65779137611389, -203.2112039923668, -163.23915326595306, 342.7543511390686
 1.7054295979965365E9, 60.79581367969513, -85.9279413819313, -83.53440541028976, 444.9583371281624
 1.7054295980120857E9, -33.74885720014572, -245.57679069042206, -197.22736406326294, 325.9995993375778
 1.7054295980120857E9, -83.29505181312561, -263.28895688056946, -208.47698312997818, 293.686863720417
 1.705429598027239E9, 52.897144973278046, -80.42280864715576, -74.67832231521606, 442.56480115652084
 1.705429598027239E9, 16.276044607162476, -175.68554031848907, -146.9631086587906, 384.8805842399597
 1.7054295980279431E9, -76.35379749536514, -274.0598687529564, -215.1788838505745, 293.2081565260887
 1.7054295980279431E9, 9.334790289402008, -127.57546728849411, -105.07622915506363, 398.5237392783165
 1.7054295980596902E9, 53.61520576477051, -112.97489786148071, -96.69885325431824, 433.9480716586113
 1.7054295980596902E9, -67.7370679974556, -274.0598687529564, -215.1788838505745, 307.8087259531021
 1.7054295980600996E9, -25.610834896564484, -184.06291621923447, -143.37280470132828, 359.26974934339523
 1.7054295980600996E9, 68.93383598327637, -73.9602615237236, -66.30094641447067, 458.60149216651917
 1.7054295980607543E9, -16.754751801490784, -232.17298924922943, -182.3874410390854, 342.03629034757614
 1.7054295980607543E9, -58.64163130521774, -237.91747558116913, -182.8661482334137, 315.94674825668335
 1.7054295980615356E9, 56.966156125068665, -79.22604066133499, -70.36995756626129, 441.6073867678642
 1.7054295980615356E9, 16.994105398654938, -174.01006513834, -142.41539031267166, 386.79541301727295
 1.7054295980718844E9, -87.60341656208038, -285.30948781967163, -219.00854140520096, 287.70302379131317
 1.7054295980718844E9, 13.164447844028473, -125.89999210834503, -101.72527879476547, 400.91727524995804
 1.705429598086779E9, 54.33326655626297, -111.53877627849579, -98.13497483730316, 431.07582849264145
 1.705429598086779E9, -76.35379749536514, -284.59142702817917, -226.6678565144539, 289.37849897146225
 1.7054295981025186E9, -55.05132734775543, -207.51956874132156, -161.56367808580399, 337.72792559862137
 1.7054295981025186E9, 57.20550972223282, -91.43307411670685, -89.27889174222946, 438.4957900047302
 1.705429598103052E9, -32.791442811489105, -243.90131551027298, -203.45055758953094, 323.84541696310043
 1.705429598103052E9, -82.57699102163315, -260.8954209089279, -202.01443600654602, 296.08039969205856
 1.705429598116874E9, 47.15265864133835, -88.80018454790115, -76.11444389820099, 436.82031482458115
 1.705429598116874E9, 18.669580578804016, -173.29200434684753, -144.3302190899849, 384.16252344846725
 1.705429598132571E9, -91.43307411670685, -293.44751012325287, -227.1465637087822, 275.017283141613
 1.705429598132571E9, 10.770911872386932, -125.42128491401672, -108.66653311252594, 395.17278891801834
 1.7054295981329186E9, 58.162924110889435, -107.70911872386932, -96.45949965715408, 433.23001086711884
 1.7054295981329186E9, -73.00284713506699, -280.7617694735527, -222.59884536266327, 294.8836317062378
 1.705429598147097E9, -32.3127356171608, -192.2009385228157, -151.98953419923782, 349.21689826250076
 1.705429598147097E9, 72.76349353790283, -72.76349353790283, -68.45512878894806, 458.60149216651917
 1.705429598162314E9, -30.63726043701172, -235.04523241519928, -187.41386657953262, 337.9672791957855
 1.705429598162314E9, -67.01900720596313, -245.57679069042206, -185.9777449965477, 317.3828698396683
 1.7054295981629868E9, 55.769388139247894, -70.60931116342545, -54.572620153427124, 463.38856410980225
 1.7054295981629868E9, 16.754751801490784, -167.54751801490784, -136.91025757789612, 396.13020330667496
 1.7054295981769137E9, -91.672427713871, -286.0275486111641, -211.82793349027634, 292.7294493317604
 1.7054295981769137E9, 3.829657554626465, -128.05417448282242, -103.6401075720787, 405.9437007904053
 1.7054295981924903E9, 47.87071943283081, -116.32584822177887, -99.33174282312393, 432.9906572699547
 1.7054295981924903E9, -79.46539425849915, -286.26690220832825, -226.6678565144539, 300.1494108438492
 1.7054295981930077E9, -55.53003454208374, -206.56215435266495, -155.10113096237183, 347.0627158880234
 1.7054295981930077E9, 50.26425540447235, -100.0498036146164, -86.16729497909546, 441.6073867678642
 1.7054295982069693E9, -44.75912266969681, -247.25226587057114, -205.84409356117249, 325.28153854608536
 1.7054295982069693E9, -87.12470936775208, -268.3153824210167, -211.34922629594803, 294.4049245119095
 1.7054295982225175E9, 42.36558669805527, -95.74143886566162, -86.40664857625961, 427.96423172950745
 1.7054295982225175E9, -2.3935359716415405, -194.8338280916214, -165.1539820432663, 361.9026389122009
 1.705429598222976E9, -108.66653311252594, -306.3726043701172, -241.7471331357956, 261.6134817004204
 1.705429598222976E9, -5.505132734775543, -138.5857327580452, -115.60778743028641, 382.4870482683182
 1.7054295982366087E9, 37.09980756044388, -131.64447844028473, -115.84714102745056, 414.32107669115067
 1.7054295982366087E9, -84.73117339611053, -292.01138854026794, -235.04523241519928, 280.04370868206024
 1.705429598252238E9, -53.375852167606354, -212.30664068460464, -166.1113964319229, 334.8556824326515
 1.705429598252238E9, 61.9925816655159, -87.36406296491623, -83.05569821596146, 438.7351436018944
 1.7054295982529037E9, -38.057221949100494, -248.4490338563919, -198.90283924341202, 327.43572092056274
 1.7054295982529037E9, -90.95436692237854, -268.794089615345, -207.2802151441574, 293.2081565260887
 1.7054295982671375E9, 36.381746768951416, -100.76786440610886, -82.57699102163315, 432.9906572699547
 1.7054295982671375E9, -1.4361215829849243, -190.76481693983078, -155.8191917538643, 378.6573907136917
 1.7054295982820482E9, -105.55493634939194, -303.02165400981903, -223.31690615415573, 285.78819501399994
 1.7054295982820482E9, -14.839923024177551, -150.0747054219246, -110.34200829267502, 391.1037777662277
 1.7054295982975385E9, 32.3127356171608, -131.64447844028473, -117.28326261043549, 422.69845259189606
 1.7054295982975385E9, -99.09238922595978, -302.5429468154907, -241.98648673295975, 277.41081911325455
 1.7054295982981951E9, -67.97642159461975, -218.2904806137085, -173.29200434684753, 328.87184250354767
 1.7054295982981951E9, 48.34942662715912, -100.76786440610886, -83.29505181312561, 443.52221554517746
 1.7054295983124807E9, -60.31710648536682, -261.3741281032562, -206.8015079498291, 323.84541696310043
 1.7054295983124807E9, -93.34790289402008, -273.82051515579224, -207.51956874132156, 297.75587487220764
 1.7054295983130796E9, 31.594674825668335, -102.20398598909378, -82.337637424469, 432.9906572699547
 1.7054295983130796E9, -4.308364748954773, -196.26994967460632, -158.45208132266998, 372.67355078458786
 1.7054295983268642E9, -105.79428994655609, -309.0054939389229, -231.21557486057281, 272.3843935728073
 1.7054295983268642E9, -9.813497483730316, -154.1437165737152, -118.95873779058456, 387.27412021160126
 1.705429598342935E9, 25.850188493728638, -143.13345110416412, -119.67679858207703, 413.36366230249405
 1.705429598342935E9, -100.0498036146164, -311.87773710489273, -248.4490338563919, 271.905686378479
 1.705429598357444E9, -61.03516727685928, -218.05112701654434, -171.8558827638626, 328.1537817120552
 1.705429598357444E9, 42.60494029521942, -106.51235073804855, -97.4169140458107, 430.8364748954773
 1.705429598357983E9, -57.92357051372528, -265.92184644937515, -214.70017665624619, 308.7661403417587
 1.705429598357983E9, -100.28915721178055, -284.352073431015, -217.57241982221603, 281.47983026504517
 1.7054295983722796E9, 29.679846048355103, -109.3845939040184, -91.43307411670685, 415.51784467697144
 1.7054295983722796E9, -5.505132734775543, -203.2112039923668, -168.50493240356445, 360.70587092638016
 1.7054295983729675E9, -114.88972663879395, -314.0319194793701, -252.99675220251083, 252.75739860534668
 1.7054295983729675E9, -10.770911872386932, -150.5534126162529, -130.44771045446396, 372.912904381752
 1.7054295983866155E9, 25.850188493728638, -141.45797592401505, -124.46387052536011, 404.2682256102562
 1.7054295983866155E9, -95.50208526849747, -310.4416155219078, -248.20968025922775, 267.1186144351959
 1.70542959840256E9, -66.06159281730652, -219.48724859952927, -176.16424751281738, 319.53705221414566
 1.70542959840256E9, 43.56235468387604, -103.87946116924286, -93.10854929685593, 430.59712129831314
 1.7054295984030373E9, -53.85455936193466, -262.570896089077, -212.30664068460464, 314.27127307653427
 1.7054295984030373E9, -93.10854929685593, -270.4695647954941, -212.0672870874405, 286.74560940265656
 1.705429598433092E9, 40.450757920742035, -94.54467087984085, -85.68858778476715, 424.37392777204514
 1.705429598433092E9, -1.9148287773132324, -191.7222313284874, -159.64884930849075, 370.9980756044388
 1.7054295984337156E9, -94.784024477005, -294.64427810907364, -229.30074608325958, 275.25663673877716
 1.7054295984337156E9, -3.3509503602981567, -136.67090398073196, -119.67679858207703, 392.3005457520485
 1.7054295984345212E9, 46.19524425268173, -127.0967600941658, -108.9058867096901, 427.00681734085083
 1.7054295984345212E9, -89.75759893655777, -301.5855324268341, -232.65169644355774, 283.3946590423584
 1.7054295984467144E9, -55.290680944919586, -212.5459942817688, -161.56367808580399, 332.46214646101
 1.7054295984467144E9, 57.68421691656113, -88.32147735357285, -84.49181979894638, 440.1712651848793
 1.7054295984627116E9, -48.110073029994965, -253.236105799675, -203.92926478385925, 324.0847705602646
 1.7054295984627116E9, -92.86919569969177, -275.017283141613, -208.47698312997818, 287.22431659698486
 1.7054295984630673E9, 34.94562518596649, -99.57109642028809, -83.05569821596146, 428.44293892383575
 1.7054295984630673E9, 5.026425540447235, -191.2435241341591, -156.7766061425209, 375.30644035339355
 1.7054295984767325E9, -106.2729971408844, -307.56937235593796, -240.78971874713898, 267.3579680323601
 1.7054295984767325E9, -6.462547123432159, -143.37280470132828, -127.57546728849411, 375.78514754772186
 1.7054295984923513E9, 38.5359291434288, -134.75607520341873, -124.70322412252426, 404.50757920742035
 1.7054295984923513E9, -86.40664857625961, -301.34617882966995, -241.7471331357956, 275.73534393310547
 1.705429598493067E9, -49.54619461297989, -213.26405507326126, -165.6326892375946, 331.50473207235336
 1.705429598493067E9, 60.31710648536682, -99.33174282312393, -94.3053172826767, 431.7938892841339
 1.705429598506857E9, -46.19524425268173, -257.7838241457939, -210.87051910161972, 315.46804106235504
 1.705429598506857E9, -97.65626764297485, -283.15530544519424, -228.58268529176712, 271.66633278131485
 1.7054295985224888E9, 31.35532122850418, -107.46976512670517, -104.35816836357117, 410.25206553936005
 1.7054295985224888E9, -3.590303957462311, -200.81766802072525, -169.46234679222107, 355.2007381916046
 1.7054295985230012E9, -113.93231225013733, -316.42545545101166, -250.12450903654099, 250.36386263370514
 1.7054295985230012E9, -4.547718346118927, -145.52698707580566, -124.94257771968842, 375.5457939505577
 1.7054295985366695E9, 44.519769072532654, -127.57546728849411, -111.29942268133163, 422.9378061890602
 1.7054295985366695E9, -77.31121188402176, -293.9262173175812, -226.42850291728973, 292.2507421374321
 1.7054295985524824E9, -49.54619461297989, -205.60473996400833, -171.3771755695343, 327.43572092056274
 1.7054295985524824E9, 53.61520576477051, -96.45949965715408, -88.80018454790115, 436.580961227417
 1.7054295985530586E9, -44.519769072532654, -255.15093457698822, -202.73249679803848, 321.4518809914589
 1.7054295985530586E9, -95.74143886566162, -280.52241587638855, -218.05112701654434, 283.8733662366867
 1.7054295985669878E9, 26.807602882385254, -112.25683706998825, -99.81045001745224, 419.10814863443375
 1.7054295985669878E9, -11.24961906671524, -206.3228007555008, -174.4887723326683, 360.22716373205185
 1.7054295985824516E9, -116.08649462461472, -318.8189914226532, -247.25226587057114, 257.54447054862976
 1.7054295985824516E9, -9.574143886566162, -153.42565578222275, -131.16577124595642, 373.3916115760803
 1.7054295985829337E9, 28.96178525686264, -139.0644399523735, -123.26710253953934, 404.7469328045845
 1.7054295985829337E9, -92.15113490819931, -308.2874331474304, -239.35359716415405, 268.55473601818085
 1.7054295985969026E9, -49.78554821014404, -211.82793349027634, -173.05265074968338, 323.3667097687721
 1.7054295985969026E9, 59.83839929103851, -94.784024477005, -89.99695253372192, 429.8790605068207
 1.7054295986124868E9, -41.647525906562805, -255.39028817415237, -210.87051910161972, 312.5957978963852
 1.7054295986124868E9, -83.77375900745392, -269.51215040683746, -214.70017665624619, 284.59142702817917
 1.7054295986129172E9, 45.716537058353424, -94.784024477005, -84.97052699327469, 421.26233100891113
 1.7054295986129172E9, 5.026425540447235, -189.32869535684586, -163.47850686311722, 364.0568212866783
 1.705429598626671E9, -103.6401075720787, -309.72355473041534, -242.7045475244522, 263.0496032834053
 1.705429598626671E9, -7.180607914924622, -148.3992302417755, -126.13934570550919, 378.6573907136917
 1.7054295986424615E9, 45.47718346118927, -125.18193131685257, -111.53877627849579, 421.5016846060753
 1.7054295986424615E9, -81.14086943864822, -295.8410460948944, -234.32717162370682, 280.52241587638855
 1.705429598642972E9, -50.503609001636505, -209.9131047129631, -171.8558827638626, 322.64864897727966
 1.705429598642972E9, 52.65779137611389, -97.65626764297485, -89.99695253372192, 431.55453568696976
 1.7054295986566935E9, -47.63136583566666, -259.459299325943, -212.5459942817688, 312.83515149354935
 1.7054295986566935E9, -95.02337807416916, -279.56500148773193, -220.44466298818588, 279.0862942934036
 1.7054295986717112E9, 34.466917991638184, -107.70911872386932, -98.37432843446732, 419.58685582876205
 1.7054295986717112E9, -3.1115967631340027, -201.29637521505356, -177.121661901474, 358.7910421490669
 1.705429598687322E9, -11.728326261043549, -151.27147340774536, -131.40512484312057, 377.2212691307068
 1.705429598687322E9, 27.76501727104187, -145.2876334786415, -132.60189282894135, 404.02887201309204
 1.705429598687956E9, -92.39048850536346, -308.5267867445946, -247.4916194677353, 276.2140511274338
 1.705429598687956E9, -59.59904569387436, -220.44466298818588, -176.88230830430984, 324.0847705602646
 1.705429598701832E9, 49.78554821014404, -100.0498036146164, -94.54467087984085, 428.2035853266716
 1.705429598701832E9, -45.47718346118927, -252.27869141101837, -205.84409356117249, 318.57963782548904
 1.7054295987172766E9, -80.42280864715576, -261.6134817004204, -202.97185039520264, 297.9952284693718
 1.7054295987172766E9, 44.99847626686096, -96.93820685148239, -78.74733346700668, 434.66613245010376
 1.705429598717926E9, 5.983839929103851, -187.41386657953262, -156.05854535102844, 375.0670867562294
 1.705429598717926E9, -96.93820685148239, -299.6707036495209, -232.17298924922943, 276.6927583217621
 1.7054295987317197E9, -2.1541823744773865, -145.76634067296982, -112.4961906671524, 394.2153745293617
 1.7054295987317197E9, 37.578514754772186, -133.55930721759796, -116.80455541610718, 415.51784467697144
 1.7054295987481382E9, -93.34790289402008, -308.7661403417587, -240.55036514997482, 276.45340472459793
 1.7054295987481382E9, -57.92357051372528, -216.37565183639526, -165.39333564043045, 331.98343926668167
 1.7054295987488067E9, 49.54619461297989, -103.87946116924286, -96.69885325431824, 429.1609997153282
 1.7054295987488067E9, -52.65779137611389, -262.570896089077, -216.1362982392311, 311.15967631340027
 1.705429598761681E9, -97.65626764297485, -279.8043550848961, -220.20530939102173, 276.6927583217621
 1.705429598761681E9, 23.935359716415405, -116.08649462461472, -99.81045001745224, 416.47525906562805
 1.7054295987772777E9, -5.744486331939697, -204.1686183810234, -177.36101549863815, 354.96138459444046
 1.7054295987772777E9, -109.62394750118256, -314.98933386802673, -248.92774105072021, 254.91158097982407
 1.7054295987779293E9, -13.403801441192627, -157.2553133368492, -127.57546728849411, 379.8541586995125
 1.7054295987779293E9, 31.83402842283249, -140.02185434103012, -128.53288167715073, 405.9437007904053
 1.7054295987915518E9, -87.36406296491623, -303.2610076069832, -247.01291227340698, 271.905686378479
 1.7054295987915518E9, -52.41843777894974, -215.6575910449028, -177.121661901474, 322.8880025744438
 1.7054295988072913E9, 58.40227770805359, -92.15113490819931, -93.34790289402008, 432.5119500756264
 1.7054295988072913E9, -37.81786835193634, -252.51804500818253, -205.60473996400833, 318.8189914226532
 1.7054295988079233E9, -78.26862627267838, -262.570896089077, -202.49314320087433, 295.12298530340195
 1.7054295988079233E9, 47.3920122385025, -90.47565972805023, -84.49181979894638, 429.8790605068207
 1.7054295988215604E9, 20.823762953281403, -177.6003690958023, -143.85151189565659, 387.5134738087654
 1.7054295988215604E9, -84.01311260461807, -287.463670194149, -217.09371262788773, 285.78819501399994
 1.705429598838184E9, 11.488972663879395, -132.8412464261055, -106.03364354372025, 397.80567848682404
 1.705429598838184E9, 49.54619461297989, -121.83098095655441, -106.03364354372025, 424.85263496637344
 1.7054295988387067E9, -79.22604066133499, -297.9952284693718, -235.5239396095276, 281.9585374593735
 1.7054295988387067E9, -51.700376987457275, -217.09371262788773, -172.33458995819092, 328.1537817120552
 1.7054295988523638E9, 44.519769072532654, -106.03364354372025, -98.85303562879562, 427.7248781323433
 1.7054295988523638E9, -58.40227770805359, -267.59732162952423, -224.27432054281235, 304.45777559280396
 1.705429598867273E9, -99.57109642028809, -286.9849629998207, -230.7368676662445, 267.1186144351959
 1.705429598867273E9, 25.37148129940033, -116.32584822177887, -103.6401075720787, 408.3372367620468
 1.705429598867959E9, -11.010265469551086, -205.60473996400833, -182.3874410390854, 353.0465558171272
 1.705429598867959E9, -112.0174834728241, -320.4944666028023, -249.40644824504852, 257.54447054862976
 1.705429598882213E9, -16.994105398654938, -160.84561729431152, -137.62831836938858, 367.1684180498123
 1.705429598882213E9, 36.381746768951416, -137.38896477222443, -125.18193131685257, 407.61917597055435
 1.7054295988972497E9, -92.39048850536346, -308.7661403417587, -246.77355867624283, 269.99085760116577
 1.7054295988972497E9, -61.51387447118759, -221.16272377967834, -178.79713708162308, 318.57963782548904
 1.7054295988979504E9, 51.700376987457275, -102.20398598909378, -96.69885325431824, 433.23001086711884
 1.7054295988979504E9, -44.2804154753685, -256.10834896564484, -207.04086154699326, 321.69123458862305
 1.7054295989115465E9, -90.23630613088608, -274.5385759472847, -216.37565183639526, 281.00112307071686
 1.7054295989115465E9, 36.62110036611557, -100.28915721178055, -90.71501332521439, 420.7836238145828
 1.7054295989272397E9, 13.403801441192627, -186.456452190876, -155.8191917538643, 376.024501144886
 1.7054295989272397E9, -92.62984210252762, -293.44751012325287, -228.1039780974388, 276.45340472459793
 1.705429598927907E9, 7.419961512088776, -137.86767196655273, -109.14524030685425, 393.01860654354095
 1.705429598927907E9, 48.82813382148743, -124.94257771968842, -108.9058867096901, 418.8687950372696
 1.705429598941728E9, -71.32737195491791, -283.8733662366867, -226.42850291728973, 291.2933277487755
 1.705429598941728E9, -42.12623310089111, -200.33896082639694, -163.71786046028137, 339.1640471816063
 1.705429598957916E9, 44.99847626686096, -103.6401075720787, -97.89562124013901, 434.18742525577545
 1.705429598957916E9, -56.487448930740356, -268.794089615345, -225.94979572296143, 309.72355473041534
 1.7054295989586456E9, -85.20988059043884, -267.3579680323601, -211.82793349027634, 293.2081565260887
 1.7054295989586456E9, 32.55208921432495, -110.10265469551086, -93.82661008834839, 418.15073424577713
 1.7054295989719477E9, 1.9148287773132324, -197.70607125759125, -173.05265074968338, 363.81746768951416
 1.7054295989719477E9, -95.50208526849747, -303.02165400981903, -228.82203888893127, 280.7617694735527
 1.7054295989874551E9, -4.787071943283081, -151.98953419923782, -132.3625392317772, 378.1786835193634
 1.7054295989874551E9, 60.07775288820267, -112.4961906671524, -104.35816836357117, 428.44293892383575
 1.7054295989880407E9, -79.94410145282745, -296.3197532892227, -237.19941478967667, 285.78819501399994
 1.7054295989880407E9, -50.503609001636505, -211.82793349027634, -167.06881082057953, 340.36081516742706
 1.7054295990017931E9, 64.6254712343216, -90.23630613088608, -79.94410145282745, 452.138945043087
 1.7054295990017931E9, -35.90303957462311, -257.06576335430145, -207.04086154699326, 327.43572092056274
 1.705429599017495E9, -86.64600217342377, -273.1024543642998, -219.00854140520096, 291.0539741516113
 1.705429599017495E9, 50.26425540447235, -92.62984210252762, -88.08212375640869, 422.9378061890602
 1.7054295990179849E9, 4.787071943283081, -196.50930327177048, -170.18040758371353, 358.3123349547386
 1.7054295990179849E9, -97.65626764297485, -305.8938971757889, -238.39618277549744, 273.3418079614639
 1.705429599048172E9, 4.787071943283081, -140.26120793819427, -123.02774894237518, 388.2315346002579
 1.705429599048172E9, 41.1688187122345, -129.96900326013565, -118.95873779058456, 416.7146126627922
 1.7054295990487423E9, -77.31121188402176, -292.2507421374321, -233.60911083221436, 284.352073431015
 1.7054295990487423E9, -49.54619461297989, -216.1362982392311, -170.898468375206, 330.54731768369675
 1.7054295990493972E9, 57.44486331939697, -95.50208526849747, -86.16729497909546, 440.88932597637177
 1.7054295990493972E9, -35.90303957462311, -248.68838745355606, -199.38154643774033, 326.4783065319061
 1.7054295990618E9, -79.7047478556633, -265.2037856578827, -207.04086154699326, 289.6178525686264
 1.7054295990618E9, 27.046956479549408, -115.84714102745056, -102.68269318342209, 405.9437007904053
 1.7054295990769866E9, 5.744486331939697, -187.89257377386093, -167.06881082057953, 366.2110036611557
 1.7054295990769866E9, -105.07622915506363, -312.83515149354935, -249.88515543937683, 253.7148129940033
 1.7054295990943277E9, -14.600569427013397, -165.87204283475876, -143.37280470132828, 356.63685977458954
 1.7054295990943277E9, 32.3127356171608, -141.93668311834335, -130.44771045446396, 395.17278891801834
 1.7054295990950067E9, -85.9279413819313, -306.3726043701172, -244.8587298989296, 269.7515040040016
 1.7054295990950067E9, -56.72680252790451, -219.96595579385757, -180.95131945610046, 317.8615770339966
 1.705429599095747E9, 48.82813382148743, -107.46976512670517, -107.23041152954102, 415.51784467697144
 1.705429599095747E9, -52.65779137611389, -275.9746975302696, -226.6678565144539, 291.53268134593964
 1.7054295991067204E9, -96.93820685148239, -285.5488414168358, -230.97622126340866, 266.1612000465393
 1.7054295991067204E9, 37.09980756044388, -105.07622915506363, -100.76786440610886, 408.57659035921097
 1.7054295991216495E9, 3.590303957462311, -195.79124248027802, -165.87204283475876, 360.22716373205185
 1.7054295991216495E9, -108.18782591819763, -317.3828698396683, -249.40644824504852, 252.75739860534668
 1.7054295991377432E9, -9.813497483730316, -159.64884930849075, -133.55930721759796, 368.3651860356331
 1.7054295991377432E9, 35.90303957462311, -135.23478239774704, -123.9851633310318, 406.1830543875694
 1.7054295991380672E9, -92.15113490819931, -311.87773710489273, -250.36386263370514, 272.8631007671356
 1.7054295991380672E9, -68.93383598327637, -231.45492845773697, -190.76481693983078, 306.13325077295303
 1.7054295991515656E9, 44.519769072532654, -107.46976512670517, -104.83687555789948, 416.47525906562805
 1.7054295991515656E9, -52.65779137611389, -266.87926083803177, -225.23173493146896, 300.86747163534164
 1.7054295991672666E9, -100.28915721178055, -287.70302379131317, -235.04523241519928, 270.4695647954941
 1.7054295991672666E9, 20.345055758953094, -120.39485937356949, -105.07622915506363, 408.8159439563751
 1.7054295991679745E9, -7.65931510925293, -208.71633672714233, -177.121661901474, 352.32849502563477
 1.7054295991679745E9, -121.11292016506195, -320.2551130056381, -254.1935201883316, 251.5606306195259
 1.7054295991819186E9, -23.935359716415405, -176.40360110998154, -144.09086549282074, 359.74845653772354
 1.7054295991819186E9, 22.49923813343048, -150.0747054219246, -140.26120793819427, 386.31670582294464
 1.7054295991972976E9, -94.784024477005, -313.0745050907135, -258.02317774295807, 254.43287378549576
 1.7054295991972976E9, -65.58288562297821, -233.13040363788605, -194.8338280916214, 302.7823004126549
 1.70542959919796E9, 48.58878022432327, -104.83687555789948, -106.99105793237686, 414.799783885479
 1.70542959919796E9, -49.54619461297989, -262.81024968624115, -221.64143097400665, 305.1758363842964
 1.70542959921171E9, -94.06596368551254, -288.42108458280563, -229.54009968042374, 275.4959903359413
 1.70542959921171E9, 39.253989934921265, -100.76786440610886, -92.39048850536346, 417.911380648613
 1.705429599227255E9, 1.4361215829849243, -191.96158492565155, -169.94105398654938, 364.29617488384247
 1.705429599227255E9, -101.48592519760132, -307.8087259531021, -245.57679069042206, 264.7250784635544
 1.7054295992279272E9, -5.744486331939697, -150.79276621341705, -130.6870640516281, 376.024501144886
 1.7054295992279272E9, 38.77528274059296, -132.8412464261055, -116.56520181894302, 409.29465115070343
 1.7054295992418337E9, -85.20988059043884, -303.97906839847565, -247.25226587057114, 270.70891839265823
 1.7054295992418337E9, -51.93973058462143, -219.72660219669342, -177.36101549863815, 319.53705221414566
 1.705429599257305E9, 56.72680252790451, -99.57109642028809, -98.61368203163147, 424.134574174881
 1.705429599257305E9, -42.36558669805527, -254.6722273826599, -213.26405507326126, 309.72355473041534
 1.7054295992579873E9, -92.15113490819931, -278.84694069623947, -225.71044212579727, 273.82051515579224
 1.7054295992579873E9, 32.55208921432495, -111.29942268133163, -97.65626764297485, 412.6456015110016
 1.7054295992720077E9, -2.3935359716415405, -200.33896082639694, -173.05265074968338, 356.15815258026123
 1.7054295992720077E9, -112.73554426431656, -320.2551130056381, -261.6134817004204, 247.01291227340698
 1.7054295993036456E9, -17.233458995819092, -163.47850686311722, -145.2876334786415, 350.41366624832153
 1.7054295993036456E9, 31.83402842283249, -145.2876334786415, -133.79866081476212, 393.97602093219757
 1.7054295993044176E9, -96.45949965715408, -311.3990299105644, -259.69865292310715, 266.6399072408676
 1.7054295993044176E9, -58.64163130521774, -227.38591730594635, -192.679645717144, 312.83515149354935
 1.7054295993051403E9, 47.3920122385025, -113.21425145864487, -108.9058867096901, 420.7836238145828
 1.7054295993051403E9, -50.503609001636505, -265.682492852211, -220.9233701825142, 305.41518998146057
 1.7054295993059154E9, -97.65626764297485, -287.9423773884773, -232.8910500407219, 272.14503997564316
 1.7054295993059154E9, 22.49923813343048, -119.91615217924118, -109.86330109834671, 401.6353360414505
 1.705429599317099E9, -8.8560830950737, -203.6899111866951, -187.17451298236847, 342.51499754190445
 1.705429599317099E9, -137.86767196655273, -340.83952236175537, -285.78819501399994, 213.74276226758957
 1.705429599332254E9, -33.03079640865326, -186.93515938520432, -162.9997996687889, 348.25948387384415
 1.705429599332254E9, 10.05285108089447, -165.1539820432663, -147.20246225595474, 395.65149611234665
 1.7054295993474965E9, -149.35664463043213, -371.4767827987671, -303.02165400981903, 233.3697572350502
 1.7054295993474965E9, -138.1070255637169, -307.8087259531021, -252.75739860534668, 263.5283104777336
 1.705429599348088E9, -51.22166979312897, -210.87051910161972, -183.58420902490616, 361.4239317178726
 1.705429599348088E9, -171.13782197237015, -387.27412021160126, -320.9731737971306, 227.38591730594635
 1.705429599361524E9, -252.03933781385422, -448.30928748846054, -365.49294286966324, 159.4094957113266
 1.705429599361524E9, -142.89409750699997, -296.08039969205856, -255.62964177131653, 282.9159518480301
 1.7054295993772368E9, -192.679645717144, -397.5663248896599, -336.5311576128006, 224.5136741399765
 1.7054295993772368E9, -322.16994178295135, -542.3752511739731, -431.07582849264145, 104.35816836357117
 1.7054295993779576E9, -247.9703266620636, -405.46499359607697, -337.24921840429306, 195.07318168878555
 1.7054295993779576E9, -205.12603276968002, -390.1463633775711, -335.3343896269798, 228.82203888893127
 1.7054295993916268E9, -336.5311576128006, -567.2680252790451, -463.6279177069664, 88.08212375640869
 1.7054295993916268E9, -314.0319194793701, -496.65871411561966, -406.1830543875694, 131.64447844028473
 1.7054295994073744E9, -206.8015079498291, -375.5457939505577, -320.2551130056381, 246.53420507907867
 1.7054295994073744E9, -297.5165212750435, -529.2108033299446, -436.34160763025284, 125.66063851118088
 1.7054295994079688E9, -355.9187989830971, -561.0448317527771, -446.3944587111473, 89.75759893655777
 1.7054295994079688E9, -230.7368676662445, -389.1889489889145, -320.01575940847397, 240.31101155281067
 1.7054295994219587E9, -259.69865292310715, -474.39882957935333, -395.4121425151825, 177.83972269296646
 1.7054295994219587E9, -363.57811409235, -588.0917882323265, -474.39882957935333, 72.76349353790283
 1.705429599437448E9, -267.1186144351959, -435.6235468387604, -359.26974934339523, 181.90873384475708
 1.705429599437448E9, -219.48724859952927, -407.61917597055435, -341.796936750412, 226.18914932012558
 1.7054295994379952E9, -339.88210797309875, -576.6028155684471, -467.696928858757, 90.47565972805023
 1.7054295994379952E9, -309.4842011332512, -488.28133821487427, -392.53989934921265, 143.37280470132828
 1.7054295994680114E9, -188.84998816251755, -356.8762133717537, -308.04807955026627, 251.32127702236176
 1.7054295994680114E9, -281.240476667881, -509.10510116815567, -413.84236949682236, 140.50056153535843
 1.7054295994686995E9, -320.01575940847397, -515.5676482915878, -417.1933198571205, 114.17166584730148
 1.7054295994686995E9, -185.9777449965477, -341.0788759589195, -284.8307806253433, 265.2037856578827
 1.7054295994694393E9, -216.1362982392311, -417.911380648613, -352.8072022199631, 215.89694464206696
 1.7054295994694393E9, -323.6060633659363, -546.4442623257637, -435.6235468387604, 103.6401075720787
 1.7054295994819849E9, -220.68401658535004, -385.359291434288, -316.1861018538475, 223.55625975131989
 1.7054295994819849E9, -164.43592125177383, -351.84978783130646, -298.23458206653595, 267.59732162952423
 1.7054295994976192E9, -290.8146205544472, -518.4398914575577, -419.10814863443375, 132.60189282894135
 1.7054295994976192E9, -259.459299325943, -437.77772921323776, -352.32849502563477, 179.99390506744385
 1.7054295994980886E9, -145.52698707580566, -314.98933386802673, -269.7515040040016, 285.0701342225075
 1.7054295994980886E9, -241.50777953863144, -469.13305044174194, -386.5560594201088, 170.898468375206
 1.7054295995117228E9, -290.8146205544472, -489.7174597978592, -402.1140432357788, 131.40512484312057
 1.7054295995117228E9, -158.69143491983414, -312.83515149354935, -267.8366752266884, 271.905686378479
 1.705429599527424E9, -182.3874410390854, -393.49731373786926, -329.58990329504013, 227.1465637087822
 1.705429599527424E9, -301.34617882966995, -522.03019541502, -413.84236949682236, 116.08649462461472
 1.705429599528076E9, -200.81766802072525, -366.45035725831985, -302.7823004126549, 224.27432054281235
 1.705429599528076E9, -142.65474390983582, -332.46214646101, -279.56500148773193, 282.4372446537018
 1.70542959954158E9, -267.1186144351959, -502.6425540447235, -393.7366673350334, 157.2553133368492
 1.70542959954158E9, -247.9703266620636, -418.3900878429413, -330.06861048936844, 203.92926478385925
 1.705429599557596E9, -135.4741359949112, -293.9262173175812, -241.50777953863144, 318.10093063116074
 1.705429599557596E9, -232.65169644355774, -451.6602378487587, -347.78077667951584, 215.89694464206696
 1.705429599558055E9, -281.9585374593735, -475.35624396800995, -362.6206997036934, 173.77071154117584
 1.705429599558055E9, -153.1863021850586, -297.9952284693718, -239.1142435669899, 308.04807955026627
 1.7054295995717485E9, -173.05265074968338, -377.6999763250351, -301.1068252325058, 268.794089615345
 1.7054295995717485E9, -281.00112307071686, -499.0522500872612, -378.89674431085587, 163.23915326595306
 1.70542959958762E9, -177.6003690958023, -328.1537817120552, -259.69865292310715, 280.04370868206024
 1.70542959958762E9, -134.03801441192627, -309.0054939389229, -252.99675220251083, 314.98933386802673
 1.7054295995880625E9, -252.51804500818253, -474.1594759821892, -365.01423567533493, 186.69580578804016
 1.7054295995880625E9, -222.35949176549911, -394.2153745293617, -306.61195796728134, 226.6678565144539
 1.705429599618287E9, -103.6401075720787, -268.07602882385254, -217.8117734193802, 344.1904727220535
 1.705429599618287E9, -205.84409356117249, -422.4590989947319, -334.13762164115906, 224.75302773714066
 1.7054295996188493E9, -242.94390112161636, -440.88932597637177, -336.29180401563644, 195.3125352859497
 1.7054295996188493E9, -121.3522737622261, -266.1612000465393, -214.93953025341034, 323.12735617160797
 1.7054295996196573E9, -143.13345110416412, -349.21689826250076, -279.3256478905678, 279.0862942934036
 1.7054295996196573E9, -246.05549788475037, -458.12278497219086, -354.7220309972763, 178.31842988729477
 1.7054295996471636E9, -152.22888779640198, -305.8938971757889, -240.55036514997482, 291.53268134593964
 1.7054295996471636E9, -96.69885325431824, -274.5385759472847, -224.5136741399765, 336.77051120996475
 1.7054295996644652E9, -218.52983421087265, -443.7615691423416, -348.9775446653366, 194.8338280916214
 1.7054295996644652E9, -195.07318168878555, -365.49294286966324, -285.78819501399994, 243.66196191310883
 1.7054295996653545E9, -82.337637424469, -234.80587881803513, -191.96158492565155, 359.74845653772354
 1.7054295996653545E9, -177.36101549863815, -392.3005457520485, -309.72355473041534, 238.87488996982574
 1.7054295996658945E9, -219.00854140520096, -412.6456015110016, -313.0745050907135, 208.9556903243065
 1.7054295996658945E9, -91.672427713871, -234.08781802654266, -183.58420902490616, 348.9775446653366
 1.7054295996666884E9, -115.36843383312225, -309.24484753608704, -249.16709464788437, 307.56937235593796
 1.7054295996666884E9, -222.83819895982742, -433.469364464283, -329.1111961007118, 201.29637521505356
 1.705429599692865E9, -75.87509030103683, -246.29485148191452, -200.81766802072525, 353.52526301145554
 1.705429599692865E9, -205.12603276968002, -417.43267345428467, -320.4944666028023, 215.89694464206696
 1.7054295996931121E9, -165.1539820432663, -328.1537817120552, -253.7148129940033, 264.2463712692261
 1.7054295996931121E9, -45.716537058353424, -205.60473996400833, -170.65911477804184, 374.34902596473694
 1.7054295997066963E9, -142.65474390983582, -354.7220309972763, -283.8733662366867, 263.28895688056946
 1.7054295997066963E9, -196.98801046609879, -384.4018770456314, -292.49009573459625, 220.20530939102173
 1.7054295997220623E9, -63.66805684566498, -201.77508240938187, -164.675274848938, 363.33876049518585
 1.7054295997220623E9, -91.1937205195427, -287.70302379131317, -233.8484644293785, 313.0745050907135
 1.705429599737475E9, -195.07318168878555, -401.6353360414505, -311.87773710489273, 208.71633672714233
 1.705429599737475E9, -98.61368203163147, -246.53420507907867, -191.2435241341591, 326.95701372623444
 1.7054295997379649E9, -50.26425540447235, -220.68401658535004, -190.04675614833832, 358.07298135757446
 1.7054295997379649E9, -170.18040758371353, -389.42830258607864, -305.1758363842964, 232.65169644355774
 1.7054295997522683E9, -146.9631086587906, -306.3726043701172, -241.98648673295975, 272.14503997564316
 1.7054295997522683E9, -28.004370868206024, -185.02033060789108, -153.90436297655106, 384.8805842399597
 1.705429599752946E9, -123.9851633310318, -341.55758315324783, -268.3153824210167, 274.5385759472847
 1.705429599752946E9, -171.3771755695343, -362.38134610652924, -279.3256478905678, 238.15682917833328
 1.7054295997670443E9, -44.2804154753685, -190.76481693983078, -152.46824139356613, 376.024501144886
 1.7054295997670443E9, -66.54030001163483, -264.4857248663902, -212.5459942817688, 331.50473207235336
 1.7054295997822812E9, -176.88230830430984, -382.247694671154, -297.75587487220764, 221.16272377967834
 1.7054295997822812E9, -79.22604066133499, -227.1465637087822, -183.344855427742, 335.0950360298157
 1.705429599782992E9, -31.35532122850418, -200.0996072292328, -168.02622520923615, 378.6573907136917
 1.705429599782992E9, -159.17014211416245, -369.3226004242897, -287.70302379131317, 247.25226587057114
 1.7054295997967196E9, -131.64447844028473, -293.44751012325287, -224.5136741399765, 289.1391453742981
 1.7054295997967196E9, -19.626994967460632, -163.71786046028137, -138.1070255637169, 399.4811536669731
 1.705429599812432E9, -117.04390901327133, -320.2551130056381, -251.32127702236176, 290.8146205544472
 1.705429599812432E9, -157.73402053117752, -341.796936750412, -260.17736011743546, 260.8954209089279
 1.7054295998129933E9, -27.046956479549408, -167.06881082057953, -138.1070255637169, 391.1037777662277
 1.7054295998129933E9, -56.487448930740356, -249.88515543937683, -196.26994967460632, 346.10530149936676
 1.705429599826775E9, -168.7442860007286, -373.87031877040863, -289.85720616579056, 227.1465637087822
 1.705429599826775E9, -74.43896871805191, -217.57241982221603, -176.16424751281738, 342.03629034757614
 1.7054295998420603E9, -31.594674825668335, -202.25378960371017, -168.50493240356445, 377.46062272787094
 1.7054295998420603E9, -160.12755650281906, -375.5457939505577, -295.3623389005661, 234.56652522087097
 1.7054295998575325E9, -127.81482088565826, -290.33591336011887, -226.6678565144539, 285.0701342225075
 1.7054295998575325E9, 1.6754751801490784, -148.3992302417755, -127.81482088565826, 409.5340047478676
 1.7054295998579988E9, -97.89562124013901, -306.13325077295303, -247.01291227340698, 291.2933277487755
 1.7054295998579988E9, -141.93668311834335, -321.21252739429474, -245.8161442875862, 271.18762558698654
 1.705429599872236E9, -14.361215829849243, -153.42565578222275, -123.74580973386765, 402.83210402727127
 1.705429599872236E9, -41.647525906562805, -230.97622126340866, -188.13192737102509, 355.44009178876877
 1.7054295998729622E9, -146.9631086587906, -342.03629034757614, -266.40055364370346, 253.47545939683914
 1.7054295998729622E9, -53.61520576477051, -191.48287773132324, -151.51082700490952, 364.0568212866783
 1.70542959988666E9, -3.1115967631340027, -169.22299319505692, -142.89409750699997, 400.1992144584656
 1.70542959988666E9, -128.05417448282242, -337.24921840429306, -264.96443206071854, 264.2463712692261
 1.705429599902762E9, -98.85303562879562, -257.7838241457939, -202.01443600654602, 309.72355473041534
 1.705429599902762E9, 12.685740649700165, -134.03801441192627, -119.67679858207703, 417.1933198571205
 1.7054295999172783E9, -83.05569821596146, -289.6178525686264, -232.41234284639359, 303.02165400981903
 1.7054295999172783E9, -137.14961117506027, -319.05834501981735, -244.61937630176544, 264.7250784635544
 1.7054295999179688E9, -11.488972663879395, -145.52698707580566, -119.67679858207703, 406.1830543875694
 1.7054295999179688E9, -42.12623310089111, -230.97622126340866, -190.76481693983078, 356.15815258026123
 1.7054295999493945E9, -145.52698707580566, -348.02013027668, -270.2302111983299, 249.64580184221268
 1.7054295999493945E9, -53.61520576477051, -201.29637521505356, -158.9307885169983, 351.6104342341423
 1.7054295999501104E9, 0.23935359716415405, -167.30816441774368, -146.48440146446228, 394.69408172369003
 1.7054295999501104E9, -124.94257771968842, -339.1640471816063, -273.3418079614639, 252.75739860534668
 1.70542959995082E9, -100.0498036146164, -254.91158097982407, -203.92926478385925, 299.4313500523567
 1.70542959995082E9, 17.7121661901474, -125.89999210834503, -118.95873779058456, 411.68818712234497
 1.7054295999515684E9, -72.76349353790283, -281.9585374593735, -226.6678565144539, 308.7661403417587
 1.7054295999515684E9, -121.3522737622261, -309.24484753608704, -248.20968025922775, 263.28895688056946
 1.7054295999619436E9, 0.7180607914924622, -137.38896477222443, -122.30968815088272, 402.5927504301071
 1.7054295999619436E9, -28.722431659698486, -217.8117734193802, -185.25968420505524, 358.07298135757446
 1.7054295999766529E9, -137.38896477222443, -341.3182295560837, -264.7250784635544, 250.6032162308693
 1.7054295999766529E9, -37.578514754772186, -180.7119658589363, -146.24504786729813, 367.6471252441406
 1.7054295999923005E9, 17.233458995819092, -151.98953419923782, -135.23478239774704, 408.3372367620468
 1.7054295999923005E9, -110.82071548700333, -321.4518809914589, -252.03933781385422, 277.41081911325455
 1.7054295999930644E9, -83.29505181312561, -245.8161442875862, -185.25968420505524, 323.12735617160797
 1.7054295999930644E9, 28.96178525686264, -117.04390901327133, -104.35816836357117, 428.2035853266716
 1.7054296000066214E9, -65.34353202581406, -271.18762558698654, -218.52983421087265, 318.8189914226532
 1.7054296000066214E9, -114.41101944446564, -296.08039969205856, -226.42850291728973, 285.30948781967163
 1.705429600022417E9, 11.488972663879395, -124.22451692819595, -104.11881476640701, 418.8687950372696
 1.705429600022417E9, -17.7121661901474, -208.9556903243065, -165.1539820432663, 374.1096723675728
 1.7054296000230901E9, -130.92641764879227, -325.9995993375778, -252.03933781385422, 263.28895688056946
 1.7054296000230901E9, -38.5359291434288, -179.03649067878723, -139.5431471467018, 370.5193684101105
 1.7054296000367768E9, 12.685740649700165, -156.53725254535675, -130.92641764879227, 403.7895184159279
 1.7054296000367768E9, -111.06006908416748, -321.69123458862305, -252.03933781385422, 272.14503997564316
 1.7054296000523243E9, -80.42280864715576, -241.02907234430313, -195.79124248027802, 314.98933386802673
 1.7054296000523243E9, 28.96178525686264, -118.00132340192795, -108.18782591819763, 415.51784467697144
 1.7054296000529993E9, -61.51387447118759, -276.45340472459793, -222.59884536266327, 314.98933386802673
 1.7054296000529993E9, -121.3522737622261, -301.82488602399826, -239.1142435669899, 275.017283141613
 1.7054296000829537E9, 16.994105398654938, -122.78839534521103, -111.06006908416748, 408.8159439563751
 1.7054296000829537E9, -13.403801441192627, -202.25378960371017, -169.22299319505692, 370.04066121578217
 1.7054296000836504E9, -124.46387052536011, -323.12735617160797, -251.32127702236176, 263.5283104777336
 1.7054296000836504E9, -23.217298924922943, -166.82945722341537, -136.4315503835678, 375.30644035339355
 1.705429600084402E9, 25.37148129940033, -139.30379354953766, -122.30968815088272, 415.99655187129974
 1.705429600084402E9, -99.09238922595978, -312.83515149354935, -245.3374370932579, 281.9585374593735
 1.7054296000969992E9, -76.83250468969345, -232.65169644355774, -184.78097701072693, 324.32412415742874
 1.7054296000969992E9, 40.450757920742035, -104.11881476640701, -94.784024477005, 437.77772921323776
 1.7054296001124513E9, -51.93973058462143, -260.17736011743546, -203.6899111866951, 331.50473207235336
 1.7054296001124513E9, -111.53877627849579, -287.70302379131317, -217.8117734193802, 291.7720349431038
 1.7054296001130223E9, -6.9412543177604675, -134.03801441192627, -115.1290802359581, 402.35339683294296
 1.7054296001130223E9, -0.4787071943283081, -179.7545514702797, -142.41539031267166, 393.97602093219757
 1.7054296001267672E9, -108.18782591819763, -294.4049245119095, -225.47108852863312, 283.3946590423584
 1.7054296001267672E9, 2.8722431659698486, -122.54904174804688, -95.26273167133331, 410.4914191365242
 1.705429600142398E9, 50.503609001636505, -99.33174282312393, -85.449234187603, 451.1815306544304
 1.705429600142398E9, -68.93383598327637, -265.92184644937515, -203.6899111866951, 316.90416264533997
 1.7054296001429782E9, -37.09980756044388, -183.344855427742, -134.75607520341873, 370.5193684101105
 1.7054296001429782E9, 75.63573670387268, -56.487448930740356, -44.041061878204346, 479.9039623141289
 1.7054296001566768E9, -19.626994967460632, -209.19504392147064, -162.5210924744606, 366.2110036611557
 1.7054296001566768E9, -74.67832231521606, -247.73097306489944, -191.2435241341591, 312.35644429922104
 1.705429600172246E9, 52.41843777894974, -68.2157751917839, -63.90741044282913, 451.42088425159454
 1.705429600172246E9, 22.738591730594635, -153.42565578222275, -131.64447844028473, 397.80567848682404
 1.7054296001729832E9, -87.84277015924454, -275.017283141613, -212.78534787893295, 291.2933277487755
 1.7054296001729832E9, 6.462547123432159, -124.94257771968842, -103.6401075720787, 396.3695569038391
 1.7054296002029693E9, 63.428703248500824, -89.99695253372192, -89.27889174222946, 438.7351436018944
 1.7054296002029693E9, -65.82223922014236, -266.6399072408676, -213.26405507326126, 301.34617882966995
 1.7054296002037032E9, -41.647525906562805, -186.93515938520432, -147.68116945028305, 349.4562518596649
 1.7054296002037032E9, 68.69448238611221, -64.38611763715744, -66.30094641447067, 454.53248101472855
 1.705429600204487E9, -27.525663673877716, -223.07755255699158, -182.14808744192123, 342.51499754190445
 1.705429600204487E9, -78.26862627267838, -248.20968025922775, -195.55188888311386, 303.50036120414734
 1.705429600216846E9, 41.40817230939865, -79.7047478556633, -79.46539425849915, 430.357767701149
 1.705429600216846E9, 17.7121661901474, -159.8882029056549, -140.26120793819427, 387.75282740592957
 1.7054296002322893E9, -95.26273167133331, -287.463670194149, -225.23173493146896, 281.9585374593735
 1.7054296002322893E9, 0.23935359716415405, -133.55930721759796, -121.59162735939026, 384.4018770456314
 1.705429600233014E9, 44.99847626686096, -114.41101944446564, -106.51235073804855, 417.1933198571205
 1.705429600233014E9, -80.90151584148407, -284.352073431015, -230.97622126340866, 284.11271983385086
 1.7054296002470036E9, -60.79581367969513, -217.57241982221603, -174.9674795269966, 324.32412415742874
 1.7054296002470036E9, 57.20550972223282, -84.73117339611053, -88.08212375640869, 439.2138507962227
 1.7054296002623096E9, -34.94562518596649, -235.04523241519928, -196.26994967460632, 330.54731768369675
 1.7054296002623096E9, -86.40664857625961, -263.76766407489777, -206.3228007555008, 290.575266957283
 1.7054296002630062E9, 45.237829864025116, -84.25246620178223, -74.67832231521606, 438.0170828104019
 1.7054296002630062E9, 17.7121661901474, -170.18040758371353, -147.68116945028305, 383.68381625413895
 1.7054296003096356E9, -90.95436692237854, -293.9262173175812, -228.58268529176712, 275.25663673877716
 1.7054296003096356E9, -2.8722431659698486, -141.45797592401505, -122.54904174804688, 382.9657554626465
 1.7054296003100936E9, 45.47718346118927, -111.06006908416748, -105.79428994655609, 423.6558669805527
 1.7054296003100936E9, -78.98668706417084, -288.42108458280563, -233.3697572350502, 285.30948781967163
 1.7054296003108225E9, -56.2480953335762, -212.78534787893295, -167.786871612072, 328.1537817120552
 1.7054296003108225E9, 56.00874173641205, -86.16729497909546, -83.77375900745392, 439.93191158771515
 1.7054296003115363E9, -34.22756439447403, -236.72070759534836, -192.679645717144, 335.81309682130814
 1.7054296003115363E9, -91.1937205195427, -263.5283104777336, -210.15245831012726, 296.798460483551
 1.7054296003227108E9, 37.09980756044388, -89.75759893655777, -81.38022303581238, 432.7513036727905
 1.7054296003227108E9, 12.207033455371857, -170.65911477804184, -139.30379354953766, 393.7366673350334
 1.7054296003230748E9, -96.69885325431824, -291.2933277487755, -224.75302773714066, 284.352073431015
 1.7054296003230748E9, 0.0, -134.75607520341873, -109.14524030685425, 397.5663248896599
 1.705429600336706E9, 50.98231619596481, -110.34200829267502, -100.5285108089447, 432.03324288129807
 1.705429600336706E9, -76.83250468969345, -288.6604381799698, -231.45492845773697, 289.85720616579056
 1.7054296003523629E9, -55.05132734775543, -214.70017665624619, -171.8558827638626, 329.1111961007118
 1.7054296003523629E9, 55.290680944919586, -86.40664857625961, -84.73117339611053, 440.41061878204346
 1.7054296003530393E9, -35.663685977458954, -235.28458601236343, -192.91899931430817, 336.29180401563644
 1.7054296003530393E9, -86.88535577058792, -267.59732162952423, -211.82793349027634, 292.2507421374321
 1.70542960036664E9, 36.62110036611557, -95.98079246282578, -84.49181979894638, 426.28875654935837
 1.70542960036664E9, 16.754751801490784, -168.98363959789276, -144.56957268714905, 385.11993783712387
 1.7054296003826363E9, -97.89562124013901, -295.3623389005661, -229.54009968042374, 281.7191838622093
 1.7054296003826363E9, -7.180607914924622, -147.4418158531189, -123.74580973386765, 381.05092668533325
 1.7054296003830993E9, 43.32300108671188, -120.8735665678978, -111.77812987565994, 428.2035853266716
 1.7054296003830993E9, -87.12470936775208, -290.8146205544472, -233.8484644293785, 291.2933277487755
 1.705429600396623E9, -66.54030001163483, -219.72660219669342, -178.07907629013062, 324.32412415742874
 1.705429600396623E9, 52.17908418178558, -91.43307411670685, -91.1937205195427, 434.18742525577545
 1.7054296004123185E9, -40.69011151790619, -240.31101155281067, -199.62090003490448, 328.39313530921936
 1.7054296004123185E9, -88.560830950737, -270.4695647954941, -212.78534787893295, 288.1817309856415
 1.7054296004130993E9, 31.115967631340027, -103.40075397491455, -93.58725649118423, 419.3475022315979
 1.7054296004130993E9, 5.026425540447235, -180.7119658589363, -156.2978989481926, 376.98191553354263
 1.7054296004270396E9, -100.5285108089447, -299.910057246685, -234.08781802654266, 274.29922235012054
 1.7054296004270396E9, -15.557983815670013, -151.98953419923782, -127.0967600941658, 377.2212691307068
 1.7054296004425254E9, 42.844293892383575, -121.59162735939026, -109.62394750118256, 419.58685582876205
 1.7054296004425254E9, -84.49181979894638, -290.33591336011887, -230.01880687475204, 294.8836317062378
 1.70542960044312E9, -58.40227770805359, -216.61500543355942, -174.72812592983246, 330.06861048936844
 1.70542960044312E9, 60.31710648536682, -82.8163446187973, -80.90151584148407, 450.7028234601021
 1.7054296004569936E9, -43.08364748954773, -244.14066910743713, -192.91899931430817, 335.81309682130814
 1.7054296004569936E9, -106.2729971408844, -292.49009573459625, -236.4813539981842, 265.44313925504684
 1.7054296004723012E9, 53.61520576477051, -80.42280864715576, -72.28478634357452, 436.82031482458115
 1.7054296004723012E9, 39.49334353208542, -151.27147340774536, -137.14961117506027, 390.6250705718994
 1.7054296004730167E9, -55.53003454208374, -253.236105799675, -198.66348564624786, 300.6281180381775
 1.7054296004730167E9, 44.519769072532654, -99.33174282312393, -94.54467087984085, 400.1992144584656
 1.7054296004865887E9, 110.34200829267502, -50.0249018073082, -55.05132734775543, 458.12278497219086
 1.7054296004865887E9, 0.7180607914924622, -215.1788838505745, -174.9674795269966, 320.9731737971306
 1.705429600502743E9, 24.89277410507202, -132.3625392317772, -104.35816836357117, 368.60453963279724
 1.705429600502743E9, 150.79276621341705, 9.095436692237854, -9.095436692237854, 492.11099576950073
 1.7054296005031824E9, 64.14676403999329, -136.4315503835678, -112.97489786148071, 387.75282740592957
 1.7054296005031824E9, 14.600569427013397, -169.94105398654938, -135.4741359949112, 334.3769752383232
 1.7054296005165708E9, 130.6870640516281, -2.6328895688056946, -16.276044607162476, 471.28723281621933
 1.7054296005165708E9, 115.60778743028641, -74.67832231521606, -69.17318958044052, 437.5383756160736
 1.7054296005323484E9, 0.9574143886566162, -203.45055758953094, -156.7766061425209, 324.80283135175705
 1.7054296005323484E9, 85.20988059043884, -58.64163130521774, -54.572620153427124, 422.4590989947319
 1.7054296005330255E9, 128.05417448282242, -41.647525906562805, -47.3920122385025, 452.37829864025116
 1.7054296005330255E9, -7.65931510925293, -225.94979572296143, -182.62679463624954, 310.20226192474365
 1.705429600546965E9, 11.24961906671524, -154.86177736520767, -122.54904174804688, 354.00397020578384
 1.705429600546965E9, 120.63421297073364, -34.466917991638184, -43.32300108671188, 458.8408457636833
 1.7054296005622668E9, 28.243724465370178, -187.65322017669678, -158.69143491983414, 343.2330583333969
 1.7054296005622668E9, -33.988210797309875, -225.71044212579727, -180.95131945610046, 291.53268134593964
 1.7054296005630064E9, 85.449234187603, -57.68421691656113, -64.86482483148575, 426.28875654935837
 1.7054296005630064E9, 61.51387447118759, -134.27736800909042, -126.85740649700165, 387.5134738087654
 1.7054296005765922E9, -50.98231619596481, -268.55473601818085, -215.89694464206696, 271.66633278131485
 1.7054296005765922E9, 38.29657554626465, -119.19809138774872, -113.45360505580902, 371.4767827987671
 1.705429600592392E9, 75.15702950954437, -101.48592519760132, -102.68269318342209, 407.3798223733902
 1.705429600592392E9, -50.74296259880066, -271.905686378479, -219.96595579385757, 276.2140511274338
 1.7054296005932703E9, -11.728326261043549, -185.9777449965477, -155.57983815670013, 329.58990329504013
 1.7054296005932703E9, 103.1614003777504, -51.93973058462143, -60.79581367969513, 448.5486410856247
 1.705429600606908E9, 9.334790289402008, -207.75892233848572, -175.20683312416077, 336.77051120996475
 1.705429600606908E9, -56.00874173641205, -247.4916194677353, -200.33896082639694, 283.3946590423584
 1.7054296006387756E9, 61.03516727685928, -85.449234187603, -91.43307411670685, 407.3798223733902
 1.7054296006387756E9, 33.988210797309875, -163.71786046028137, -151.51082700490952, 362.1419925093651
 1.7054296006394436E9, -87.36406296491623, -297.9952284693718, -243.18325471878052, 254.6722273826599
 1.7054296006394436E9, 11.010265469551086, -141.45797592401505, -126.85740649700165, 365.49294286966324
 1.705429600640148E9, 56.00874173641205, -115.36843383312225, -112.4961906671524, 401.6353360414505
 1.705429600640148E9, -60.79581367969513, -281.9585374593735, -231.21557486057281, 271.905686378479
 1.705429600640934E9, -45.95589065551758, -220.44466298818588, -184.54162341356277, 302.5429468154907
 1.705429600640934E9, 66.06159281730652, -92.39048850536346, -96.69885325431824, 410.73077273368835
 1.7054296006519532E9, -26.328895688056946, -245.57679069042206, -206.3228007555008, 302.7823004126549
 1.7054296006519532E9, -84.25246620178223, -279.3256478905678, -230.2581604719162, 260.65606731176376
 1.7054296006666265E9, 37.578514754772186, -110.34200829267502, -107.94847232103348, 391.58248496055603
 1.7054296006666265E9, 12.685740649700165, -193.87641370296478, -167.06881082057953, 354.7220309972763
 1.705429600681602E9, -100.5285108089447, -317.6222234368324, -253.236105799675, 249.40644824504852
 1.705429600681602E9, 1.6754751801490784, -153.42565578222275, -126.6180528998375, 367.6471252441406
 1.7054296006973028E9, -66.77965360879898, -290.8146205544472, -232.65169644355774, 276.2140511274338
 1.7054296006973028E9, -47.87071943283081, -214.22146946191788, -173.5313579440117, 313.0745050907135
 1.705429600697958E9, 62.71064245700836, -90.95436692237854, -93.10854929685593, 421.022977411747
 1.705429600697958E9, -30.397906839847565, -248.4490338563919, -203.45055758953094, 310.4416155219078
 1.7054296007117324E9, -80.18345504999161, -274.77792954444885, -221.64143097400665, 273.1024543642998
 1.7054296007117324E9, 44.041061878204346, -100.28915721178055, -95.50208526849747, 404.7469328045845
 1.7054296007272353E9, 22.020530939102173, -169.46234679222107, -145.2876334786415, 371.4767827987671
 1.7054296007272353E9, -94.3053172826767, -298.23458206653595, -234.80587881803513, 269.7515040040016
 1.7054296007279384E9, -2.6328895688056946, -157.01595973968506, -132.3625392317772, 370.04066121578217
 1.7054296007279384E9, 47.15265864133835, -126.6180528998375, -123.26710253953934, 402.83210402727127
 1.7054296007416594E9, -71.56672555208206, -297.5165212750435, -240.07165795564651, 272.3843935728073
 1.7054296007416594E9, -56.966156125068665, -228.1039780974388, -186.456452190876, 307.8087259531021
 1.7054296007574792E9, 53.85455936193466, -103.40075397491455, -97.89562124013901, 424.6132813692093
 1.7054296007574792E9, -30.876614034175873, -247.25226587057114, -204.40797197818756, 317.3828698396683
 1.7054296007579608E9, -87.12470936775208, -283.8733662366867, -223.31690615415573, 270.2302111983299
 1.7054296007579608E9, 37.33916115760803, -110.34200829267502, -102.20398598909378, 400.1992144584656
 1.7054296007716112E9, 11.010265469551086, -185.02033060789108, -157.01595973968506, 363.81746768951416
 1.7054296007716112E9, -91.91178131103516, -304.6971291899681, -243.90131551027298, 252.75739860534668
 1.7054296007872756E9, -8.377375900745392, -162.5210924744606, -145.52698707580566, 348.25948387384415
 1.7054296007872756E9, 50.74296259880066, -123.9851633310318, -122.30968815088272, 404.2682256102562
 1.7054296007879517E9, -72.76349353790283, -296.55910688638687, -236.72070759534836, 276.2140511274338
 1.7054296007879517E9, -57.20550972223282, -230.97622126340866, -182.8661482334137, 314.27127307653427
 1.705429600801646E9, 53.85455936193466, -100.28915721178055, -100.28915721178055, 419.10814863443375
 1.705429600801646E9, -44.519769072532654, -257.3051169514656, -218.05112701654434, 304.45777559280396
 1.7054296008172596E9, -89.99695253372192, -278.36823350191116, -218.52983421087265, 277.1714655160904
 1.7054296008172596E9, 36.860453963279724, -105.07622915506363, -91.43307411670685, 414.0817230939865
 1.705429600818052E9, 12.925094246864319, -180.47261226177216, -159.64884930849075, 369.56195402145386
 1.705429600818052E9, -108.42717951536179, -310.68096911907196, -250.6032162308693, 257.3051169514656
 1.7054296008320072E9, -18.669580578804016, -165.39333564043045, -141.93668311834335, 354.7220309972763
 1.7054296008320072E9, 36.381746768951416, -131.88383203744888, -122.54904174804688, 403.0714576244354
 1.7054296008477523E9, -82.8163446187973, -303.02165400981903, -244.14066910743713, 273.5811615586281
 1.7054296008477523E9, -46.19524425268173, -213.0247014760971, -175.20683312416077, 324.80283135175705
 1.7054296008480024E9, 69.65189677476883, -79.94410145282745, -80.66216224431992, 438.97449719905853
 1.7054296008480024E9, -29.679846048355103, -243.90131551027298, -194.11576730012894, 320.73382019996643
 1.7054296008617244E9, -87.84277015924454, -276.93211191892624, -218.7691878080368, 278.84694069623947
 1.7054296008617244E9, 36.860453963279724, -103.40075397491455, -94.784024477005, 420.3049166202545
 1.705429600877262E9, 7.65931510925293, -180.7119658589363, -153.1863021850586, 376.98191553354263
 1.705429600877262E9, -101.48592519760132, -305.41518998146057, -238.6355363726616, 264.96443206071854
 1.7054296008779604E9, -14.121862232685089, -162.9997996687889, -129.96900326013565, 370.7587220072746
 1.7054296008779604E9, 43.32300108671188, -123.02774894237518, -116.08649462461472, 416.47525906562805
 1.7054296008917956E9, -77.31121188402176, -289.37849897146225, -236.4813539981842, 280.52241587638855
 1.7054296008917956E9, -59.359692096710205, -223.55625975131989, -176.88230830430984, 317.1435162425041
 1.7054296009077327E9, 61.03516727685928, -90.71501332521439, -86.88535577058792, 433.9480716586113
 1.7054296009077327E9, -27.76501727104187, -241.98648673295975, -199.62090003490448, 322.16994178295135
 1.7054296009079645E9, -84.01311260461807, -272.8631007671356, -218.7691878080368, 280.04370868206024
 1.7054296009079645E9, 38.29657554626465, -103.1614003777504, -93.82661008834839, 415.2784910798073
 1.7054296009216125E9, 16.754751801490784, -175.20683312416077, -158.69143491983414, 373.6309651732445
 1.7054296009216125E9, -95.98079246282578, -305.41518998146057, -245.57679069042206, 256.347702562809
 1.7054296009376628E9, -5.744486331939697, -154.62242376804352, -131.64447844028473, 364.29617488384247
 1.7054296009376628E9, 46.67395144701004, -123.50645613670349, -121.11292016506195, 410.25206553936005
 1.70542960093806E9, -77.0718582868576, -294.8836317062378, -238.15682917833328, 276.6927583217621
 1.70542960093806E9, -50.503609001636505, -221.8807845711708, -181.19067305326462, 315.7073946595192
 1.7054296009515843E9, 52.897144973278046, -100.28915721178055, -99.81045001745224, 423.4165133833885
 1.7054296009515843E9, -35.4243323802948, -246.05549788475037, -200.81766802072525, 320.73382019996643
 1.7054296009839363E9, -91.1937205195427, -278.128879904747, -218.52983421087265, 282.67659825086594
 1.7054296009839363E9, 37.33916115760803, -101.00721800327301, -88.560830950737, 425.33134216070175
 1.7054296009844117E9, 13.643155038356781, -180.47261226177216, -151.98953419923782, 384.16252344846725
 1.7054296009844117E9, -100.76786440610886, -300.38876444101334, -240.31101155281067, 271.905686378479
 1.7054296009851415E9, -12.685740649700165, -157.73402053117752, -131.64447844028473, 368.60453963279724
 1.7054296009851415E9, 48.58878022432327, -119.67679858207703, -109.62394750118256, 417.6720270514488
 1.705429600985894E9, -80.42280864715576, -298.9526428580284, -237.67812198400497, 274.77792954444885
 1.705429600985894E9, -58.162924110889435, -225.23173493146896, -178.07907629013062, 321.4518809914589
 1.7054296009969263E9, 54.33326655626297, -99.09238922595978, -91.43307411670685, 430.357767701149
 1.7054296009969263E9, -40.450757920742035, -248.68838745355606, -205.36538636684418, 321.21252739429474
 1.7054296010118775E9, -93.58725649118423, -285.5488414168358, -223.79561334848404, 275.4959903359413
 1.7054296010118775E9, 31.115967631340027, -109.3845939040184, -98.37432843446732, 409.77335834503174
 1.7054296010274756E9, 19.38764137029648, -173.29200434684753, -146.48440146446228, 384.8805842399597
 1.7054296010274756E9, -106.75170433521271, -306.8513115644455, -246.05549788475037, 258.2625313401222
 1.7054296010280287E9, -13.882508635520935, -160.36691009998322, -138.34637916088104, 353.0465558171272
 1.7054296010280287E9, 39.253989934921265, -127.57546728849411, -118.00132340192795, 407.14046877622604
 1.705429601041607E9, -83.53440541028976, -295.60169249773026, -238.15682917833328, 282.1978910565376
 1.705429601041607E9, -61.9925816655159, -222.59884536266327, -177.6003690958023, 325.9995993375778
 1.705429601058149E9, 56.72680252790451, -91.43307411670685, -79.7047478556633, 445.67639791965485
 1.705429601058149E9, -34.466917991638184, -236.72070759534836, -186.93515938520432, 342.99370473623276
 1.7054296010586796E9, -91.672427713871, -272.3843935728073, -205.36538636684418, 298.23458206653595
 1.7054296010586796E9, 32.791442811489105, -100.76786440610886, -85.449234187603, 424.37392777204514
 1.7054296010717175E9, 5.265779137611389, -178.07907629013062, -145.04827988147736, 385.83799862861633
 1.7054296010717175E9, -106.51235073804855, -307.09066516160965, -234.80587881803513, 272.8631007671356
 1.7054296010875022E9, -20.10570216178894, -160.60626369714737, -126.85740649700165, 370.04066121578217
 1.7054296010875022E9, 46.913305044174194, -114.88972663879395, -97.65626764297485, 433.9480716586113
 1.70542960108802E9, -79.7047478556633, -292.01138854026794, -231.45492845773697, 296.798460483551
 1.70542960108802E9, -66.77965360879898, -225.23173493146896, -175.68554031848907, 329.58990329504013
 1.7054296011022067E9, 48.58878022432327, -95.02337807416916, -87.84277015924454, 441.8467403650284
 1.7054296011022067E9, -44.75912266969681, -249.64580184221268, -201.0570216178894, 327.1963673233986
 1.7054296011175094E9, -99.81045001745224, -285.5488414168358, -228.1039780974388, 260.65606731176376
 1.7054296011175094E9, 22.49923813343048, -117.52261620759964, -94.784024477005, 416.47525906562805
 1.7054296011180646E9, 15.557983815670013, -179.7545514702797, -144.56957268714905, 389.42830258607864
 1.7054296011180646E9, -95.02337807416916, -295.3623389005661, -224.5136741399765, 281.240476667881
 1.705429601132094E9, -8.377375900745392, -149.59599822759628, -123.9851633310318, 384.64123064279556
 1.705429601132094E9, 45.716537058353424, -118.2406769990921, -105.55493634939194, 421.5016846060753
 1.705429601147674E9, -71.08801835775375, -285.5488414168358, -224.75302773714066, 292.01138854026794
 1.705429601147674E9, -57.92357051372528, -224.5136741399765, -187.17451298236847, 299.19199645519257
 1.70542960114801E9, 56.2480953335762, -92.15113490819931, -96.45949965715408, 413.1243087053299
 1.70542960114801E9, -31.35532122850418, -236.4813539981842, -195.3125352859497, 332.2227928638458
 1.7054296011620252E9, -98.85303562879562, -285.30948781967163, -219.2478950023651, 287.463670194149
 1.7054296011620252E9, 48.58878022432327, -87.36406296491623, -74.67832231521606, 441.3680331707001
 1.7054296011772757E9, 32.07338201999664, -157.2553133368492, -133.79866081476212, 394.4547281265259
 1.7054296011772757E9, -90.23630613088608, -295.3623389005661, -232.17298924922943, 270.2302111983299
 1.7054296011779757E9, 16.754751801490784, -129.7296496629715, -115.1290802359581, 379.3754515051842
 1.7054296011779757E9, 61.9925816655159, -108.18782591819763, -94.54467087984085, 419.10814863443375
 1.7054296011915927E9, -52.897144973278046, -269.7515040040016, -216.85435903072357, 291.53268134593964
 1.7054296011915927E9, -25.610834896564484, -190.28610974550247, -151.98953419923782, 327.43572092056274
 1.7054296012075207E9, 110.58136188983917, -40.21140432357788, -47.87071943283081, 458.60149216651917
 1.7054296012075207E9, 14.361215829849243, -191.00417053699493, -162.28173887729645, 353.0465558171272
 1.705429601208068E9, -35.184978783130646, -226.90721011161804, -185.25968420505524, 292.49009573459625
 1.705429601208068E9, 80.90151584148407, -55.290680944919586, -56.00874173641205, 443.7615691423416
 1.7054296012218134E9, 62.71064245700836, -125.89999210834503, -108.42717951536179, 416.95396625995636
 1.7054296012218134E9, -59.83839929103851, -263.28895688056946, -211.34922629594803, 287.463670194149
 1.7054296012373376E9, 27.525663673877716, -118.95873779058456, -106.03364354372025, 381.05092668533325
 1.7054296012373376E9, 80.42280864715576, -90.47565972805023, -91.91178131103516, 427.48552453517914
 1.70542960123798E9, -44.99847626686096, -270.9482719898224, -221.64143097400665, 286.74560940265656
 1.70542960123798E9, -29.919199645519257, -197.9454248547554, -160.84561729431152, 312.35644429922104
 1.7054296012516057E9, 80.42280864715576, -74.19961512088776, -80.18345504999161, 433.469364464283
 1.7054296012516057E9, -12.685740649700165, -229.54009968042374, -187.89257377386093, 326.238952934742
 1.7054296012673135E9, -68.69448238611221, -262.570896089077, -213.74276226758957, 281.9585374593735
 1.7054296012673135E9, 48.34942662715912, -98.85303562879562, -92.15113490819931, 411.4488335251808
 1.7054296012680347E9, 25.37148129940033, -170.898468375206, -149.35664463043213, 367.1684180498123
 1.7054296012680347E9, -86.16729497909546, -301.1068252325058, -242.2258403301239, 255.15093457698822
 1.705429601281684E9, 1.6754751801490784, -153.42565578222275, -137.86767196655273, 357.354920566082
 1.705429601281684E9, 58.64163130521774, -123.02774894237518, -121.3522737622261, 401.87468963861465
 1.7054296012977753E9, -66.06159281730652, -290.575266957283, -240.55036514997482, 269.7515040040016
 1.7054296012977753E9, -42.844293892383575, -213.98211586475372, -176.6429547071457, 309.0054939389229
 1.7054296012981105E9, 76.11444389820099, -77.0718582868576, -82.337637424469, 432.5119500756264
 1.7054296012981105E9, -16.03669100999832, -230.97622126340866, -195.07318168878555, 325.28153854608536
 1.7054296013116791E9, -73.00284713506699, -264.7250784635544, -211.34922629594803, 282.9159518480301
 1.7054296013116791E9, 52.41843777894974, -94.54467087984085, -86.64600217342377, 411.9275407195091
 1.705429601327432E9, 31.594674825668335, -163.71786046028137, -136.4315503835678, 387.9921810030937
 1.705429601327432E9, -84.25246620178223, -291.53268134593964, -225.23173493146896, 278.36823350191116
 1.705429601328054E9, 3.3509503602981567, -149.11729103326797, -121.59162735939026, 376.7425619363785
 1.705429601328054E9, 59.12033849954605, -114.41101944446564, -104.11881476640701, 426.28875654935837
 1.7054296013417108E9, -60.79581367969513, -282.67659825086594, -219.96595579385757, 293.686863720417
 1.7054296013417108E9, -41.40817230939865, -209.19504392147064, -163.95721405744553, 325.28153854608536
 1.7054296013575768E9, 74.19961512088776, -77.78991907835007, -75.15702950954437, 438.4957900047302
 1.7054296013575768E9, -22.97794532775879, -232.65169644355774, -179.03649067878723, 343.47241193056107
 1.7054296013580115E9, -85.449234187603, -275.73534393310547, -219.96595579385757, 280.04370868206024
 1.7054296013580115E9, 45.237829864025116, -100.76786440610886, -85.449234187603, 420.7836238145828
 1.7054296013716264E9, 10.292204678058624, -185.9777449965477, -161.32432448863983, 362.38134610652924
 1.7054296013716264E9, -97.4169140458107, -306.3726043701172, -246.29485148191452, 248.20968025922775
 1.7054296013877945E9, 16.03669100999832, -132.60189282894135, -103.1614003777504, 392.7792529463768
 1.7054296013877945E9, 77.78991907835007, -89.27889174222946, -80.42280864715576, 443.2828619480133
 1.7054296013881557E9, -47.63136583566666, -258.02317774295807, -202.73249679803848, 308.7661403417587
 1.7054296013881557E9, -11.488972663879395, -172.81329715251923, -127.81482088565826, 361.18457812070847
 1.705429601401638E9, 113.69295865297318, -27.525663673877716, -35.663685977458954, 485.4090950489044
 1.705429601401638E9, 24.414066910743713, -174.4887723326683, -142.1760367155075, 371.71613639593124
 1.7054296014175344E9, -22.738591730594635, -195.79124248027802, -146.24504786729813, 346.8233622908592
 1.7054296014175344E9, 101.96463239192963, -22.020530939102173, -20.10570216178894, 487.5632774233818
 1.705429601417982E9, 83.29505181312561, -94.06596368551254, -84.73117339611053, 443.52221554517746
 1.705429601417982E9, -34.22756439447403, -230.2581604719162, -172.09523636102676, 327.6750745177269
 1.7054296014318376E9, 51.22166979312897, -83.53440541028976, -70.36995756626129, 424.6132813692093
 1.7054296014318376E9, 103.87946116924286, -44.519769072532654, -51.46102339029312, 469.61175763607025
 1.705429601447574E9, -26.328895688056946, -229.06139248609543, -178.79713708162308, 328.39313530921936
 1.705429601447574E9, -11.728326261043549, -161.08497089147568, -129.96900326013565, 358.7910421490669
 1.7054296014480827E9, 99.09238922595978, -41.40817230939865, -48.58878022432327, 468.1756360530853
 1.7054296014480827E9, 4.787071943283081, -191.00417053699493, -156.05854535102844, 360.70587092638016
 1.705429601478162E9, -42.844293892383575, -219.00854140520096, -171.8558827638626, 318.3402842283249
 1.705429601478162E9, 67.97642159461975, -63.428703248500824, -54.33326655626297, 457.8834313750267
 1.7054296014787073E9, 47.15265864133835, -131.40512484312057, -111.53877627849579, 415.0391374826431
 1.7054296014787073E9, -65.82223922014236, -259.69865292310715, -203.6899111866951, 297.5165212750435
 1.7054296014794388E9, 17.951519787311554, -120.63421297073364, -95.74143886566162, 402.35339683294296
 1.7054296014794388E9, 77.0718582868576, -81.14086943864822, -75.15702950954437, 451.42088425159454
 1.705429601491579E9, -45.47718346118927, -251.5606306195259, -198.90283924341202, 316.1861018538475
 1.705429601491579E9, -25.132127702236176, -183.10550183057785, -141.2186223268509, 355.44009178876877
 1.7054296015236716E9, 88.08212375640869, -55.05132734775543, -47.15265864133835, 469.13305044174194
 1.7054296015236716E9, -4.069011151790619, -202.97185039520264, -164.91462844610214, 356.8762133717537
 1.7054296015244284E9, -66.30094641447067, -244.61937630176544, -188.6106345653534, 309.0054939389229
 1.7054296015244284E9, 57.68421691656113, -71.80607914924622, -64.14676403999329, 441.6073867678642
 1.7054296015252104E9, 41.40817230939865, -137.38896477222443, -126.13934570550919, 402.83210402727127
 1.7054296015252104E9, -76.35379749536514, -272.3843935728073, -213.0247014760971, 289.6178525686264
 1.7054296015258095E9, 4.547718346118927, -130.44771045446396, -113.21425145864487, 391.3431313633919
 1.7054296015258095E9, 63.66805684566498, -94.06596368551254, -83.29505181312561, 440.41061878204346
 1.7054296015366266E9, -57.92357051372528, -266.1612000465393, -201.77508240938187, 315.7073946595192
 1.7054296015366266E9, -40.92946511507034, -198.18477845191956, -152.46824139356613, 347.30206948518753
 1.7054296015516853E9, 70.60931116342545, -73.9602615237236, -61.9925816655159, 463.6279177069664
 1.7054296015516853E9, -18.430226981639862, -216.85435903072357, -168.7442860007286, 354.96138459444046
 1.7054296015673084E9, -71.08801835775375, -254.43287378549576, -186.456452190876, 313.31385868787766
