 Timestamp, EXG Channel 0, EXG Channel 1, EXG Channel 2, EXG Channel 3
 1.7063890308954265E9, -477.51042634248734, -413.36366230249405, -330.06861048936844, -265.2037856578827
 1.7063890308954265E9, -357.59427416324615, -413.36366230249405, -362.6206997036934, -200.5783144235611
 1.706389030909305E9, -381.2902802824974, -416.7146126627922, -369.08324682712555, -174.24941873550415
 1.706389030909305E9, -476.5530119538307, -401.39598244428635, -319.53705221414566, -243.18325471878052
 1.7063890309235287E9, -391.3431313633919, -404.2682256102562, -339.1640471816063, -219.96595579385757
 1.7063890309235287E9, -353.0465558171272, -416.2359054684639, -371.71613639593124, -159.64884930849075
 1.7063890309390929E9, -457.4047241806984, -403.7895184159279, -333.8982680439949, -219.72660219669342
 1.7063890309390929E9, -420.54427021741867, -386.31670582294464, -310.68096911907196, -234.08781802654266
 1.7063890309396155E9, -319.2976986169815, -397.3269712924957, -352.0891414284706, -154.38307017087936
 1.7063890309396155E9, -407.14046877622604, -397.80567848682404, -339.40340077877045, -180.233258664608
 1.7063890309538405E9, -451.6602378487587, -389.6676561832428, -306.3726043701172, -241.50777953863144
 1.7063890309538405E9, -329.58990329504013, -388.94959539175034, -342.2756439447403, -179.27584427595139
 1.7063890309546068E9, -363.0994068980217, -405.7043471932411, -355.9187989830971, -164.675274848938
 1.7063890309546068E9, -474.6381831765175, -401.87468963861465, -321.4518809914589, -244.61937630176544
 1.7063890309682884E9, -376.98191553354263, -398.0450320839882, -342.2756439447403, -220.44466298818588
 1.7063890309682884E9, -340.83952236175537, -409.0552975535393, -367.1684180498123, -153.90436297655106
 1.70638903098441E9, -467.9362824559212, -418.3900878429413, -342.2756439447403, -230.2581604719162
 1.70638903098441E9, -444.00092273950577, -414.0817230939865, -334.13762164115906, -250.36386263370514
 1.7063890309845269E9, -332.46214646101, -421.5016846060753, -377.6999763250351, -179.03649067878723
 1.7063890309845269E9, -419.10814863443375, -422.69845259189606, -358.7910421490669, -200.81766802072525
 1.7063890309981425E9, -462.90985691547394, -404.98628640174866, -319.53705221414566, -255.15093457698822
 1.7063890309981425E9, -335.3343896269798, -393.01860654354095, -343.9511191248894, -177.83972269296646
 1.706389031013804E9, -368.3651860356331, -405.46499359607697, -357.354920566082, -167.786871612072
 1.706389031013804E9, -477.031719148159, -394.2153745293617, -310.68096911907196, -241.50777953863144
 1.7063890310145016E9, -371.23742920160294, -385.359291434288, -320.2551130056381, -207.2802151441574
 1.7063890310145016E9, -319.05834501981735, -390.6250705718994, -350.41366624832153, -152.94694858789444
 1.7063890310281465E9, -438.25643640756607, -390.1463633775711, -319.53705221414566, -219.2478950023651
 1.7063890310281465E9, -405.7043471932411, -378.89674431085587, -307.09066516160965, -229.06139248609543
 1.7063890310442257E9, -313.0745050907135, -396.3695569038391, -365.01423567533493, -163.71786046028137
 1.7063890310442257E9, -403.0714576244354, -400.91727524995804, -348.73819106817245, -198.90283924341202
 1.7063890310587873E9, -455.01118820905685, -397.80567848682404, -318.10093063116074, -255.62964177131653
 1.7063890310587873E9, -330.54731768369675, -389.42830258607864, -337.72792559862137, -178.31842988729477
 1.70638903105952E9, -370.9980756044388, -412.1668943166733, -366.45035725831985, -167.06881082057953
 1.70638903105952E9, -464.585332095623, -394.4547281265259, -316.42545545101166, -242.7045475244522
 1.706389031074182E9, -371.9554899930954, -389.1889489889145, -337.4885720014572, -221.8807845711708
 1.706389031074182E9, -341.796936750412, -410.0127119421959, -369.801307618618, -165.39333564043045
 1.7063890310745642E9, -453.57506662607193, -403.7895184159279, -340.1214615702629, -230.2581604719162
 1.7063890310745642E9, -427.96423172950745, -401.6353360414505, -331.50473207235336, -249.40644824504852
 1.7063890310885272E9, -322.8880025744438, -406.1830543875694, -367.40777164697647, -167.786871612072
 1.7063890310885272E9, -411.20947992801666, -404.98628640174866, -350.1743126511574, -192.91899931430817
 1.7063890311038268E9, -465.7821000814438, -399.9598608613014, -320.73382019996643, -257.3051169514656
 1.7063890311038268E9, -341.55758315324783, -400.43856805562973, -354.243323802948, -192.2009385228157
 1.7063890311048276E9, -363.0994068980217, -403.0714576244354, -357.354920566082, -167.54751801490784
 1.7063890311048276E9, -462.43114972114563, -390.6250705718994, -320.4944666028023, -247.73097306489944
 1.7063890311180646E9, -360.70587092638016, -383.9231698513031, -333.18020725250244, -219.2478950023651
 1.7063890311180646E9, -323.12735617160797, -393.01860654354095, -360.9452245235443, -158.45208132266998
 1.7063890311344736E9, -449.027348279953, -400.1992144584656, -332.9408536553383, -219.72660219669342
 1.7063890311344736E9, -414.5604302883148, -378.41803711652756, -311.3990299105644, -227.6252709031105
 1.7063890311351757E9, -313.31385868787766, -391.3431313633919, -359.5091029405594, -160.12755650281906
 1.7063890311351757E9, -414.799783885479, -403.7895184159279, -347.78077667951584, -190.76481693983078
 1.7063890311480415E9, -449.027348279953, -393.49731373786926, -311.6383835077286, -248.20968025922775
 1.7063890311480415E9, -337.72792559862137, -399.9598608613014, -346.3446550965309, -180.95131945610046
 1.706389031163844E9, -372.4341971874237, -409.29465115070343, -364.0568212866783, -170.65911477804184
 1.706389031163844E9, -466.02145367860794, -389.1889489889145, -322.8880025744438, -248.92774105072021
 1.706389031164523E9, -372.19484359025955, -396.60891050100327, -337.9672791957855, -215.6575910449028
 1.706389031164523E9, -331.2653784751892, -402.1140432357788, -357.8336277604103, -151.51082700490952
 1.706389031178464E9, -455.48989540338516, -403.7895184159279, -342.51499754190445, -230.01880687475204
 1.706389031178464E9, -428.2035853266716, -396.3695569038391, -323.3667097687721, -240.31101155281067
 1.7063890311939964E9, -333.65891444683075, -415.51784467697144, -375.5457939505577, -170.41976118087769
 1.7063890311939964E9, -427.96423172950745, -419.8262094259262, -358.07298135757446, -202.01443600654602
 1.7063890311947072E9, -450.7028234601021, -394.9334353208542, -316.90416264533997, -258.02317774295807
 1.7063890311947072E9, -341.3182295560837, -407.8585295677185, -359.26974934339523, -196.26994967460632
 1.7063890312080832E9, -377.2212691307068, -411.4488335251808, -366.2110036611557, -172.57394355535507
 1.7063890312080832E9, -482.53685188293457, -407.8585295677185, -334.8556824326515, -257.06576335430145
 1.7063890312238228E9, -389.6676561832428, -409.5340047478676, -352.32849502563477, -231.21557486057281
 1.7063890312238228E9, -346.10530149936676, -413.6030158996582, -374.1096723675728, -168.50493240356445
 1.7063890312245383E9, -459.3195529580116, -403.0714576244354, -330.7866712808609, -218.05112701654434
 1.7063890312245383E9, -427.96423172950745, -400.91727524995804, -323.6060633659363, -237.91747558116913
 1.7063890312384508E9, -320.01575940847397, -406.9011151790619, -365.97165006399155, -167.30816441774368
 1.7063890312384508E9, -413.1243087053299, -406.66176158189774, -345.3872407078743, -192.679645717144
 1.7063890312538753E9, -460.27696734666824, -395.8908497095108, -317.6222234368324, -249.40644824504852
 1.7063890312538753E9, -337.72792559862137, -402.83210402727127, -354.48267740011215, -185.25968420505524
 1.7063890312545545E9, -371.23742920160294, -406.1830543875694, -360.9452245235443, -169.46234679222107
 1.7063890312545545E9, -469.13305044174194, -396.13020330667496, -320.2551130056381, -250.36386263370514
 1.706389031268247E9, -387.75282740592957, -415.0391374826431, -355.2007381916046, -235.04523241519928
 1.706389031268247E9, -374.1096723675728, -440.41061878204346, -393.97602093219757, -185.25968420505524
 1.7063890312839696E9, -482.05814468860626, -430.59712129831314, -356.3975061774254, -247.73097306489944
 1.7063890312839696E9, -444.9583371281624, -419.8262094259262, -349.21689826250076, -264.7250784635544
 1.7063890312845376E9, -350.41366624832153, -430.357767701149, -388.2315346002579, -193.39770650863647
 1.7063890312845376E9, -449.74540907144547, -441.6073867678642, -376.98191553354263, -230.2581604719162
 1.7063890312983465E9, -486.6058630347252, -428.6822925209999, -345.14788711071014, -280.52241587638855
 1.7063890312983465E9, -368.60453963279724, -430.357767701149, -380.3328658938408, -208.23762953281403
 1.7063890313137932E9, -406.1830543875694, -443.2828619480133, -387.9921810030937, -199.14219284057617
 1.7063890313137932E9, -511.0199299454689, -432.2725964784622, -345.14788711071014, -274.29922235012054
 1.7063890313146496E9, -405.2256399989128, -424.37392777204514, -354.96138459444046, -230.2581604719162
 1.7063890313146496E9, -369.56195402145386, -433.70871806144714, -384.16252344846725, -168.7442860007286
 1.7063890313281555E9, -475.83495116233826, -417.43267345428467, -347.0627158880234, -236.4813539981842
 1.7063890313281555E9, -439.45320439338684, -413.6030158996582, -341.796936750412, -262.33154249191284
 1.7063890313437996E9, -345.14788711071014, -429.6397069096565, -381.2902802824974, -185.02033060789108
 1.7063890313437996E9, -439.692557990551, -436.1022540330887, -368.3651860356331, -221.64143097400665
 1.7063890313445306E9, -488.7600454092026, -427.48552453517914, -342.2756439447403, -281.240476667881
 1.7063890313445306E9, -369.801307618618, -432.5119500756264, -375.30644035339355, -203.92926478385925
 1.7063890313582523E9, -405.7043471932411, -440.1712651848793, -389.42830258607864, -197.22736406326294
 1.7063890313582523E9, -500.0096644759178, -427.246170938015, -344.4298263192177, -271.66633278131485
 1.7063890313739617E9, -404.7469328045845, -433.469364464283, -361.9026389122009, -240.55036514997482
 1.7063890313739617E9, -380.8115730881691, -451.42088425159454, -404.02887201309204, -194.11576730012894
 1.7063890313748097E9, -488.7600454092026, -436.580961227417, -365.7322964668274, -263.28895688056946
 1.7063890313748097E9, -455.01118820905685, -434.4267788529396, -357.11556696891785, -275.9746975302696
 1.7063890313882132E9, -365.97165006399155, -445.67639791965485, -402.5927504301071, -202.25378960371017
 1.7063890313882132E9, -463.86727130413055, -452.138945043087, -384.8805842399597, -235.5239396095276
 1.7063890314039304E9, -509.82316195964813, -452.138945043087, -360.70587092638016, -297.9952284693718
 1.7063890314039304E9, -381.05092668533325, -442.08609396219254, -386.31670582294464, -223.07755255699158
 1.706389031404729E9, -401.39598244428635, -437.0596684217453, -387.9921810030937, -197.70607125759125
 1.706389031404729E9, -497.3767749071121, -423.4165133833885, -334.61632883548737, -266.40055364370346
 1.7063890314181705E9, -396.13020330667496, -419.8262094259262, -350.89237344264984, -232.17298924922943
 1.7063890314181705E9, -371.4767827987671, -439.93191158771515, -391.8218385577202, -182.3874410390854
 1.7063890314337957E9, -483.73361986875534, -421.74103820323944, -338.92469358444214, -232.41234284639359
 1.7063890314337957E9, -455.96860259771347, -425.5706957578659, -340.1214615702629, -256.347702562809
 1.7063890314345424E9, -357.59427416324615, -436.1022540330887, -377.6999763250351, -173.77071154117584
 1.7063890314345424E9, -431.55453568696976, -422.4590989947319, -360.9452245235443, -204.40797197818756
 1.7063890314483058E9, -475.83495116233826, -422.4590989947319, -334.8556824326515, -269.7515040040016
 1.7063890314483058E9, -370.04066121578217, -436.580961227417, -371.9554899930954, -201.29637521505356
 1.7063890314637492E9, -408.3372367620468, -441.6073867678642, -379.3754515051842, -188.84998816251755
 1.7063890314637492E9, -499.29160368442535, -429.8790605068207, -339.1640471816063, -274.0598687529564
 1.7063890314645085E9, -404.02887201309204, -434.4267788529396, -366.92906445264816, -245.3374370932579
 1.7063890314645085E9, -371.4767827987671, -443.52221554517746, -397.0876176953316, -187.89257377386093
 1.7063890314947295E9, -494.5045317411423, -439.93191158771515, -360.22716373205185, -255.86899536848068
 1.7063890314947295E9, -463.86727130413055, -440.1712651848793, -353.7646166086197, -268.3153824210167
 1.7063890314953103E9, -358.7910421490669, -447.83058029413223, -400.43856805562973, -196.50930327177048
 1.7063890314953103E9, -451.1815306544304, -447.83058029413223, -378.89674431085587, -227.1465637087822
 1.706389031496099E9, -494.7438853383064, -436.34160763025284, -352.32849502563477, -289.85720616579056
 1.706389031496099E9, -382.247694671154, -442.3254475593567, -380.8115730881691, -214.70017665624619
 1.7063890315081263E9, -421.26233100891113, -454.05377382040024, -392.3005457520485, -202.73249679803848
 1.7063890315081263E9, -505.2754436135292, -434.66613245010376, -349.4562518596649, -276.45340472459793
 1.706389031523793E9, -407.8585295677185, -432.03324288129807, -359.74845653772354, -232.17298924922943
 1.706389031523793E9, -383.4444626569748, -445.4370443224907, -389.1889489889145, -179.03649067878723
 1.7063890315244968E9, -491.8716421723366, -433.469364464283, -345.8659479022026, -240.78971874713898
 1.7063890315244968E9, -449.5060554742813, -423.4165133833885, -338.44598639011383, -252.03933781385422
 1.7063890315383573E9, -353.2859094142914, -433.469364464283, -388.2315346002579, -183.344855427742
 1.7063890315383573E9, -451.6602378487587, -436.82031482458115, -363.57811409235, -213.26405507326126
 1.706389031554119E9, -498.81289649009705, -436.1022540330887, -338.44598639011383, -278.84694069623947
 1.706389031554119E9, -367.6471252441406, -430.11841410398483, -370.9980756044388, -203.6899111866951
 1.7063890315545552E9, -400.1992144584656, -436.34160763025284, -377.6999763250351, -194.3551208972931
 1.7063890315545552E9, -503.8393220305443, -433.469364464283, -340.6001687645912, -273.5811615586281
 1.706389031568136E9, -409.77335834503174, -424.85263496637344, -354.7220309972763, -238.39618277549744
 1.706389031568136E9, -370.5193684101105, -434.9054860472679, -392.3005457520485, -188.84998816251755
 1.7063890315839584E9, -494.5045317411423, -436.34160763025284, -357.59427416324615, -256.347702562809
 1.7063890315839584E9, -463.38856410980225, -434.9054860472679, -357.354920566082, -275.017283141613
 1.7063890315845127E9, -359.9878101348877, -446.63381230831146, -397.80567848682404, -203.6899111866951
 1.7063890315845127E9, -461.473735332489, -451.1815306544304, -377.46062272787094, -230.01880687475204
 1.7063890315982077E9, -486.84521663188934, -431.55453568696976, -346.58400869369507, -284.8307806253433
 1.7063890315982077E9, -370.04066121578217, -433.9480716586113, -384.64123064279556, -219.2478950023651
 1.7063890316143312E9, -417.43267345428467, -448.0699338912964, -393.49731373786926, -204.88667917251587
 1.7063890316143312E9, -512.9347587227821, -439.692557990551, -354.48267740011215, -286.9849629998207
 1.7063890316146383E9, -413.36366230249405, -438.4957900047302, -367.8864788413048, -247.25226587057114
 1.7063890316146383E9, -382.4870482683182, -451.1815306544304, -403.0714576244354, -199.62090003490448
 1.7063890316281264E9, -497.6161285042763, -443.2828619480133, -366.45035725831985, -269.51215040683746
 1.7063890316281264E9, -459.3195529580116, -444.4796299338341, -360.22716373205185, -275.73534393310547
 1.7063890316438365E9, -378.41803711652756, -460.5163209438324, -405.46499359607697, -202.25378960371017
 1.7063890316438365E9, -464.585332095623, -446.63381230831146, -382.00834107398987, -235.5239396095276
 1.7063890316445236E9, -493.54711735248566, -433.469364464283, -349.69560545682907, -286.0275486111641
 1.7063890316445236E9, -375.30644035339355, -435.3841932415962, -379.6148051023483, -214.93953025341034
 1.7063890316583192E9, -417.911380648613, -449.74540907144547, -397.80567848682404, -210.15245831012726
 1.7063890316583192E9, -522.03019541502, -449.26670187711716, -358.3123349547386, -291.7720349431038
 1.7063890316741648E9, -417.43267345428467, -443.2828619480133, -369.801307618618, -249.16709464788437
 1.7063890316741648E9, -389.6676561832428, -455.01118820905685, -398.5237392783165, -196.03059607744217
 1.706389031674736E9, -498.33418929576874, -444.00092273950577, -365.01423567533493, -269.7515040040016
 1.706389031674736E9, -456.4473097920418, -433.70871806144714, -357.59427416324615, -271.905686378479
 1.7063890316880991E9, -355.2007381916046, -437.77772921323776, -392.3005457520485, -196.26994967460632
 1.7063890316880991E9, -450.4634698629379, -436.580961227417, -370.7587220072746, -225.94979572296143
 1.7063890317039287E9, -477.2710727453232, -427.96423172950745, -344.66917991638184, -284.59142702817917
 1.7063890317039287E9, -368.8438932299614, -430.11841410398483, -374.5883795619011, -218.2904806137085
 1.7063890317045622E9, -398.76309287548065, -432.5119500756264, -375.30644035339355, -200.33896082639694
 1.7063890317045622E9, -490.1961669921875, -419.8262094259262, -333.8982680439949, -269.51215040683746
 1.706389031718186E9, -392.3005457520485, -412.40624791383743, -353.7646166086197, -239.83230435848236
 1.706389031718186E9, -365.97165006399155, -428.44293892383575, -382.72640186548233, -181.90873384475708
 1.7063890317338557E9, -490.91422778367996, -433.469364464283, -354.7220309972763, -254.1935201883316
 1.7063890317338557E9, -435.14483964443207, -414.32107669115067, -337.72792559862137, -257.7838241457939
 1.7063890317345507E9, -338.92469358444214, -419.8262094259262, -382.4870482683182, -179.27584427595139
 1.7063890317345507E9, -434.4267788529396, -421.74103820323944, -359.74845653772354, -210.63116550445557
 1.7063890317483392E9, -477.2710727453232, -414.5604302883148, -323.6060633659363, -267.1186144351959
 1.7063890317483392E9, -357.8336277604103, -423.4165133833885, -367.1684180498123, -205.36538636684418
 1.7063890317640202E9, -398.0450320839882, -428.2035853266716, -380.09351229667664, -194.59447449445724
 1.7063890317640202E9, -508.3870403766632, -437.29902201890945, -353.52526301145554, -284.11271983385086
 1.7063890317646687E9, -404.50757920742035, -427.00681734085083, -363.0994068980217, -244.61937630176544
 1.7063890317646687E9, -366.45035725831985, -432.2725964784622, -383.4444626569748, -179.7545514702797
 1.7063890317781887E9, -480.8613767027855, -419.10814863443375, -351.84978783130646, -253.47545939683914
 1.7063890317781887E9, -453.8144202232361, -429.40035331249237, -359.74845653772354, -274.5385759472847
 1.7063890317940702E9, -338.685339987278, -423.6558669805527, -382.72640186548233, -183.344855427742
 1.7063890317940702E9, -440.6499723792076, -430.357767701149, -372.19484359025955, -231.69428205490112
 1.7063890317945127E9, -488.5206918120384, -440.1712651848793, -349.9349590539932, -291.2933277487755
 1.7063890317945127E9, -379.6148051023483, -440.1712651848793, -386.31670582294464, -222.83819895982742
 1.7063890318080657E9, -406.9011151790619, -439.692557990551, -392.53989934921265, -206.8015079498291
 1.7063890318080657E9, -506.47221159935, -434.66613245010376, -350.6530198454857, -291.0539741516113
 1.7063890318242087E9, -400.1992144584656, -427.7248781323433, -366.92906445264816, -238.6355363726616
 1.7063890318242087E9, -370.2800148129463, -441.3680331707001, -400.6779216527939, -196.98801046609879
 1.7063890318245687E9, -489.95681339502335, -437.29902201890945, -362.1419925093651, -260.65606731176376
 1.7063890318245687E9, -447.3518730998039, -428.92164611816406, -356.3975061774254, -267.1186144351959
 1.7063890318384907E9, -345.8659479022026, -428.6822925209999, -393.01860654354095, -192.44029211997986
 1.7063890318384907E9, -448.5486410856247, -435.3841932415962, -371.23742920160294, -229.7794532775879
 1.7063890318539312E9, -484.69103425741196, -431.55453568696976, -341.55758315324783, -279.0862942934036
 1.7063890318539312E9, -365.01423567533493, -432.9906572699547, -386.5560594201088, -218.05112701654434
 1.7063890318546329E9, -408.57659035921097, -443.04350835084915, -396.13020330667496, -209.9131047129631
 1.7063890318546329E9, -503.5999684333801, -439.2138507962227, -362.86005330085754, -294.64427810907364
 1.706389031868144E9, -412.88495510816574, -443.7615691423416, -381.2902802824974, -253.47545939683914
 1.706389031868144E9, -385.359291434288, -454.05377382040024, -412.1668943166733, -201.0570216178894
 1.7063890318834195E9, -508.62639397382736, -459.0801993608475, -384.64123064279556, -274.77792954444885
 1.7063890318834195E9, -465.3033928871155, -448.78799468278885, -371.71613639593124, -290.575266957283
 1.7063890318988569E9, -465.7821000814438, -451.42088425159454, -389.42830258607864, -236.72070759534836
 1.7063890318988569E9, -495.70129972696304, -442.804154753685, -360.70587092638016, -292.7294493317604
 1.7063890318995044E9, -379.6148051023483, -444.71898353099823, -393.01860654354095, -220.44466298818588
 1.7063890318995044E9, -419.3475022315979, -455.250541806221, -401.87468963861465, -208.9556903243065
 1.7063890319136205E9, -512.695405125618, -440.88932597637177, -355.2007381916046, -287.70302379131317
 1.7063890319136205E9, -407.8585295677185, -438.97449719905853, -374.1096723675728, -247.9703266620636
 1.7063890319289143E9, -376.024501144886, -441.6073867678642, -398.0450320839882, -193.63706010580063
 1.7063890319289143E9, -493.54711735248566, -435.86290043592453, -357.8336277604103, -263.28895688056946
 1.706389031929602E9, -449.26670187711716, -433.70871806144714, -355.9187989830971, -274.0598687529564
 1.706389031929602E9, -342.99370473623276, -429.40035331249237, -393.7366673350334, -193.63706010580063
 1.7063890319431372E9, -444.00092273950577, -436.82031482458115, -372.4341971874237, -228.34333169460297
 1.7063890319431372E9, -491.8716421723366, -432.2725964784622, -347.78077667951584, -283.15530544519424
 1.706389031958824E9, -360.70587092638016, -429.40035331249237, -389.6676561832428, -219.48724859952927
 1.706389031958824E9, -414.32107669115067, -449.26670187711716, -404.02887201309204, -217.09371262788773
 1.7063890319595711E9, -496.65871411561966, -428.44293892383575, -348.4988374710083, -282.9159518480301
 1.7063890319595711E9, -397.5663248896599, -433.70871806144714, -374.82773315906525, -251.79998421669006
 1.7063890319732666E9, -374.34902596473694, -442.804154753685, -405.9437007904053, -201.5357288122177
 1.7063890319732666E9, -491.1535813808441, -439.2138507962227, -370.7587220072746, -270.4695647954941
 1.706389031989225E9, -443.52221554517746, -424.37392777204514, -358.3123349547386, -275.25663673877716
 1.706389031989225E9, -341.0788759589195, -431.07582849264145, -393.97602093219757, -196.26994967460632
 1.7063890319898677E9, -441.3680331707001, -427.96423172950745, -380.8115730881691, -234.56652522087097
 1.7063890319898677E9, -481.8187910914421, -430.11841410398483, -355.2007381916046, -286.74560940265656
 1.706389032003128E9, -354.48267740011215, -426.7674637436867, -385.5986450314522, -207.51956874132156
 1.706389032003128E9, -392.7792529463768, -429.40035331249237, -384.64123064279556, -201.5357288122177
 1.7063890320188475E9, -490.43552058935165, -418.3900878429413, -346.3446550965309, -279.0862942934036
 1.7063890320188475E9, -384.16252344846725, -415.51784467697144, -353.0465558171272, -221.16272377967834
 1.70638903201956E9, -349.9349590539932, -415.99655187129974, -384.4018770456314, -174.01006513834
 1.70638903201956E9, -457.16537058353424, -410.4914191365242, -344.908533513546, -238.39618277549744
 1.706389032049723E9, -415.51784467697144, -396.3695569038391, -331.98343926668167, -251.0819234251976
 1.706389032049723E9, -330.3079640865326, -417.911380648613, -389.6676561832428, -186.93515938520432
 1.7063890320502567E9, -426.0494029521942, -416.95396625995636, -363.57811409235, -218.05112701654434
 1.7063890320502567E9, -462.43114972114563, -409.29465115070343, -335.0950360298157, -273.5811615586281
 1.7063890320509377E9, -350.89237344264984, -415.51784467697144, -378.89674431085587, -212.0672870874405
 1.7063890320509377E9, -400.1992144584656, -434.4267788529396, -388.470888197422, -205.60473996400833
 1.7063890320633707E9, -506.9509187936783, -433.23001086711884, -349.4562518596649, -284.11271983385086
 1.7063890320633707E9, -394.69408172369003, -430.11841410398483, -370.2800148129463, -245.09808349609375
 1.7063890320791628E9, -361.9026389122009, -432.03324288129807, -398.28438568115234, -188.13192737102509
 1.7063890320791628E9, -488.0419846177101, -433.469364464283, -365.97165006399155, -264.7250784635544
 1.7063890320797288E9, -445.915751516819, -433.469364464283, -361.9026389122009, -276.93211191892624
 1.7063890320797288E9, -349.9349590539932, -438.0170828104019, -402.5927504301071, -197.9454248547554
 1.7063890320931933E9, -447.83058029413223, -431.3151820898056, -375.78514754772186, -230.97622126340866
 1.7063890320931933E9, -478.7071943283081, -427.00681734085083, -345.8659479022026, -284.59142702817917
 1.706389032108929E9, -360.466517329216, -427.96423172950745, -378.41803711652756, -207.99827593564987
 1.706389032108929E9, -392.7792529463768, -426.5281101465225, -373.3916115760803, -187.17451298236847
 1.706389032109545E9, -486.1271558403969, -418.15073424577713, -330.7866712808609, -267.1186144351959
 1.706389032109545E9, -383.20510905981064, -414.799783885479, -347.0627158880234, -223.07755255699158
 1.7063890321231935E9, -358.3123349547386, -423.8952205777168, -383.4444626569748, -175.20683312416077
 1.7063890321231935E9, -444.2402763366699, -395.65149611234665, -325.28153854608536, -232.65169644355774
 1.7063890321389697E9, -411.4488335251808, -397.5663248896599, -321.69123458862305, -243.66196191310883
 1.7063890321389697E9, -331.50473207235336, -420.7836238145828, -382.247694671154, -181.19067305326462
 1.706389032139568E9, -428.6822925209999, -412.1668943166733, -351.131727039814, -208.71633672714233
 1.706389032139568E9, -466.2608072757721, -413.6030158996582, -333.18020725250244, -268.794089615345
 1.7063890321534057E9, -363.57811409235, -434.18742525577545, -386.5560594201088, -205.84409356117249
 1.7063890321534057E9, -393.7366673350334, -429.8790605068207, -382.4870482683182, -198.4241320490837
 1.706389032168912E9, -501.6851396560669, -435.3841932415962, -354.48267740011215, -282.1978910565376
 1.706389032168912E9, -398.0450320839882, -435.6235468387604, -367.6471252441406, -237.91747558116913
 1.7063890321695127E9, -372.4341971874237, -441.6073867678642, -395.8908497095108, -188.6106345653534
 1.7063890321695127E9, -487.0845702290535, -435.6235468387604, -359.9878101348877, -264.2463712692261
 1.7063890321831646E9, -439.2138507962227, -429.8790605068207, -355.6794453859329, -273.3418079614639
 1.7063890321831646E9, -353.2859094142914, -437.5383756160736, -395.65149611234665, -194.3551208972931
 1.7063890321989708E9, -449.5060554742813, -437.29902201890945, -371.23742920160294, -224.27432054281235
 1.7063890321989708E9, -480.14331591129303, -430.59712129831314, -347.5414230823517, -276.93211191892624
 1.7063890321996484E9, -350.89237344264984, -425.33134216070175, -380.09351229667664, -206.3228007555008
 1.7063890321996484E9, -399.72050726413727, -431.7938892841339, -378.89674431085587, -198.66348564624786
 1.7063890322131345E9, -490.43552058935165, -418.15073424577713, -339.88210797309875, -278.128879904747
 1.7063890322131345E9, -390.6250705718994, -418.8687950372696, -356.8762133717537, -231.93363565206528
 1.706389032228812E9, -351.37108063697815, -420.54427021741867, -378.89674431085587, -173.5313579440117
 1.706389032228812E9, -464.34597849845886, -415.7571982741356, -339.88210797309875, -241.7471331357956
 1.7063890322294767E9, -424.6132813692093, -406.1830543875694, -336.0524504184723, -249.64580184221268
 1.7063890322294767E9, -340.1214615702629, -427.00681734085083, -384.16252344846725, -182.8661482334137
 1.7063890322595108E9, -422.9378061890602, -410.9701263308525, -345.8659479022026, -210.15245831012726
 1.7063890322595108E9, -448.0699338912964, -401.1566288471222, -329.8292568922043, -264.96443206071854
 1.706389032260281E9, -339.6427543759346, -416.2359054684639, -375.0670867562294, -197.70607125759125
 1.706389032260281E9, -383.4444626569748, -417.911380648613, -373.6309651732445, -198.66348564624786
 1.706389032260902E9, -483.4942662715912, -420.3049166202545, -339.88210797309875, -284.11271983385086
 1.706389032260902E9, -379.3754515051842, -417.6720270514488, -361.9026389122009, -231.69428205490112
 1.7063890322733836E9, -360.466517329216, -433.70871806144714, -390.86442416906357, -191.96158492565155
 1.7063890322733836E9, -487.32392382621765, -437.29902201890945, -364.29617488384247, -265.682492852211
 1.706389032289154E9, -433.9480716586113, -432.03324288129807, -358.55168855190277, -265.44313925504684
 1.706389032289154E9, -345.3872407078743, -434.9054860472679, -397.80567848682404, -189.56804895401
 1.70638903228964E9, -447.5912266969681, -429.8790605068207, -364.0568212866783, -225.47108852863312
 1.70638903228964E9, -474.87753677368164, -423.6558669805527, -346.58400869369507, -276.6927583217621
 1.7063890323031683E9, -357.354920566082, -428.2035853266716, -376.024501144886, -198.4241320490837
 1.7063890323031683E9, -397.3269712924957, -426.0494029521942, -369.801307618618, -185.73839139938354
 1.706389032318847E9, -483.73361986875534, -410.9701263308525, -327.6750745177269, -258.2625313401222
 1.706389032318847E9, -370.9980756044388, -404.2682256102562, -337.24921840429306, -211.10987269878387
 1.7063890323195698E9, -351.37108063697815, -420.7836238145828, -369.801307618618, -164.19656765460968
 1.7063890323195698E9, -465.3033928871155, -407.3798223733902, -333.8982680439949, -228.82203888893127
 1.70638903233335E9, -406.66176158189774, -395.65149611234665, -320.4944666028023, -226.18914932012558
 1.70638903233335E9, -317.6222234368324, -405.2256399989128, -363.33876049518585, -156.7766061425209
 1.7063890323488543E9, -425.5706957578659, -412.1668943166733, -353.7646166086197, -207.2802151441574
 1.7063890323488543E9, -444.71898353099823, -401.87468963861465, -314.5106266736984, -246.53420507907867
 1.7063890323495276E9, -320.73382019996643, -394.4547281265259, -343.7117655277252, -172.09523636102676
 1.7063890323495276E9, -376.26385474205017, -406.1830543875694, -365.7322964668274, -181.43002665042877
 1.7063890323634543E9, -470.808525621891, -394.2153745293617, -319.7764058113098, -257.7838241457939
 1.7063890323634543E9, -378.41803711652756, -411.9275407195091, -348.25948387384415, -215.6575910449028
 1.7063890323789783E9, -363.57811409235, -420.7836238145828, -368.8438932299614, -168.50493240356445
 1.7063890323789783E9, -477.98913353681564, -415.2784910798073, -329.58990329504013, -235.5239396095276
 1.7063890323795805E9, -441.8467403650284, -422.9378061890602, -344.908533513546, -250.12450903654099
 1.7063890323795805E9, -337.72792559862137, -420.3049166202545, -373.6309651732445, -175.44618672132492
 1.7063890323931384E9, -435.86290043592453, -418.62944144010544, -353.52526301145554, -214.46082305908203
 1.7063890323931384E9, -468.65434324741364, -408.57659035921097, -322.16994178295135, -258.5018849372864
 1.7063890324088116E9, -362.6206997036934, -425.81004935503006, -369.56195402145386, -198.66348564624786
 1.7063890324088116E9, -415.2784910798073, -433.9480716586113, -369.56195402145386, -189.56804895401
 1.7063890324095497E9, -493.7864709496498, -421.9803918004036, -327.91442811489105, -262.81024968624115
 1.7063890324095497E9, -383.20510905981064, -417.43267345428467, -351.131727039814, -221.4020773768425
 1.7063890324235628E9, -351.131727039814, -413.36366230249405, -371.23742920160294, -158.45208132266998
 1.7063890324235628E9, -465.7821000814438, -413.84236949682236, -331.02602487802505, -236.24200040102005
 1.706389032439045E9, -412.88495510816574, -401.87468963861465, -322.4092953801155, -239.1142435669899
 1.706389032439045E9, -337.0098648071289, -418.62944144010544, -376.5032083392143, -174.24941873550415
 1.706389032439571E9, -433.70871806144714, -418.15073424577713, -349.9349590539932, -210.63116550445557
 1.706389032439571E9, -460.75567454099655, -410.0127119421959, -319.53705221414566, -256.8264097571373
 1.7063890324532328E9, -354.7220309972763, -423.17715978622437, -369.3226004242897, -195.79124248027802
 1.7063890324532328E9, -398.0450320839882, -428.6822925209999, -380.8115730881691, -202.25378960371017
 1.7063890324688313E9, -493.7864709496498, -425.33134216070175, -344.1904727220535, -276.6927583217621
 1.7063890324688313E9, -400.43856805562973, -438.97449719905853, -367.8864788413048, -233.60911083221436
 1.7063890324695778E9, -386.79541301727295, -449.9847626686096, -396.8482640981674, -186.456452190876
 1.7063890324695778E9, -494.2651781439781, -437.0596684217453, -353.0465558171272, -254.43287378549576
 1.7063890324836235E9, -449.74540907144547, -434.4267788529396, -350.1743126511574, -254.6722273826599
 1.7063890324836235E9, -359.74845653772354, -441.6073867678642, -389.6676561832428, -184.78097701072693
 1.7063890324989855E9, -448.5486410856247, -434.9054860472679, -370.5193684101105, -227.1465637087822
 1.7063890324989855E9, -476.7923655509949, -426.5281101465225, -338.92469358444214, -273.5811615586281
 1.7063890324995916E9, -363.57811409235, -432.7513036727905, -378.6573907136917, -201.0570216178894
 1.7063890324995916E9, -415.51784467697144, -436.34160763025284, -388.94959539175034, -195.55188888311386
 1.7063890325132785E9, -503.1212612390518, -427.48552453517914, -341.55758315324783, -270.2302111983299
 1.7063890325132785E9, -387.5134738087654, -421.9803918004036, -359.9878101348877, -227.1465637087822
 1.706389032528894E9, -375.30644035339355, -435.6235468387604, -391.1037777662277, -186.21709859371185
 1.706389032528894E9, -487.5632774233818, -431.55453568696976, -352.5678486227989, -249.64580184221268
 1.7063890325295775E9, -438.0170828104019, -418.3900878429413, -344.66917991638184, -256.8264097571373
 1.7063890325295775E9, -353.2859094142914, -435.86290043592453, -386.79541301727295, -179.27584427595139
 1.706389032543167E9, -453.0963594317436, -433.9480716586113, -364.5355284810066, -219.72660219669342
 1.706389032543167E9, -480.3826695084572, -426.0494029521942, -339.88210797309875, -271.66633278131485
 1.7063890325588267E9, -362.86005330085754, -429.8790605068207, -375.30644035339355, -200.81766802072525
 1.7063890325588267E9, -412.40624791383743, -440.6499723792076, -380.09351229667664, -195.07318168878555
 1.706389032559604E9, -503.8393220305443, -431.55453568696976, -346.3446550965309, -273.5811615586281
 1.706389032559604E9, -398.28438568115234, -431.55453568696976, -367.8864788413048, -235.28458601236343
 1.7063890325735898E9, -381.05092668533325, -442.804154753685, -398.28438568115234, -186.21709859371185
 1.7063890325735898E9, -492.11099576950073, -434.18742525577545, -353.52526301145554, -261.3741281032562
 1.7063890326051693E9, -443.7615691423416, -427.96423172950745, -353.2859094142914, -266.6399072408676
 1.7063890326051693E9, -354.7220309972763, -437.29902201890945, -392.53989934921265, -187.89257377386093
 1.70638903260593E9, -454.53248101472855, -434.18742525577545, -370.9980756044388, -232.65169644355774
 1.70638903260593E9, -485.16974145174026, -435.14483964443207, -346.8233622908592, -281.7191838622093
 1.7063890326066475E9, -368.3651860356331, -437.0596684217453, -381.2902802824974, -203.92926478385925
 1.7063890326066475E9, -421.26233100891113, -449.027348279953, -391.3431313633919, -208.23762953281403
 1.7063890326073887E9, -523.2269634008408, -444.9583371281624, -351.6104342341423, -282.1978910565376
 1.7063890326073887E9, -414.799783885479, -440.41061878204346, -373.15225797891617, -239.1142435669899
 1.706389032618342E9, -391.3431313633919, -448.30928748846054, -407.8585295677185, -195.79124248027802
 1.706389032618342E9, -498.5735428929329, -437.77772921323776, -357.8336277604103, -260.8954209089279
 1.706389032633423E9, -445.67639791965485, -432.2725964784622, -353.0465558171272, -265.682492852211
 1.706389032633423E9, -354.48267740011215, -437.77772921323776, -390.38571697473526, -187.65322017669678
 1.7063890326490655E9, -457.64407777786255, -436.1022540330887, -370.2800148129463, -230.01880687475204
 1.7063890326490655E9, -486.1271558403969, -429.6397069096565, -344.66917991638184, -277.6501727104187
 1.7063890326497166E9, -358.3123349547386, -425.0919885635376, -372.67355078458786, -197.70607125759125
 1.7063890326497166E9, -413.36366230249405, -443.52221554517746, -381.52963387966156, -200.0996072292328
 1.7063890326631155E9, -506.71156519651413, -429.6397069096565, -339.40340077877045, -277.1714655160904
 1.7063890326631155E9, -397.80567848682404, -423.8952205777168, -364.5355284810066, -237.67812198400497
 1.70638903267888E9, -377.2212691307068, -437.0596684217453, -386.79541301727295, -188.6106345653534
 1.70638903267888E9, -483.25491267442703, -426.7674637436867, -345.62659430503845, -255.15093457698822
 1.7063890326795397E9, -432.2725964784622, -421.5016846060753, -343.7117655277252, -254.43287378549576
 1.7063890326795397E9, -363.0994068980217, -440.1712651848793, -397.3269712924957, -190.28610974550247
 1.7063890326933968E9, -476.31365835666656, -449.9847626686096, -379.6148051023483, -237.67812198400497
 1.7063890326933968E9, -467.9362824559212, -414.32107669115067, -337.72792559862137, -268.794089615345
 1.706389032708998E9, -355.44009178876877, -434.4267788529396, -390.6250705718994, -214.93953025341034
 1.706389032708998E9, -424.85263496637344, -448.30928748846054, -382.247694671154, -203.6899111866951
 1.7063890327096577E9, -516.0463554859161, -445.67639791965485, -350.89237344264984, -281.9585374593735
 1.7063890327096577E9, -395.17278891801834, -430.357767701149, -365.2535892724991, -226.42850291728973
 1.7063890327231033E9, -375.5457939505577, -431.7938892841339, -388.7102417945862, -188.13192737102509
 1.7063890327231033E9, -501.92449325323105, -440.41061878204346, -347.30206948518753, -251.79998421669006
 1.706389032739038E9, -455.48989540338516, -438.7351436018944, -351.37108063697815, -257.3051169514656
 1.706389032739038E9, -348.25948387384415, -430.8364748954773, -381.2902802824974, -174.01006513834
 1.7063890327395885E9, -455.48989540338516, -429.1609997153282, -355.2007381916046, -220.9233701825142
 1.7063890327395885E9, -490.43552058935165, -435.6235468387604, -344.66917991638184, -275.9746975302696
 1.70638903275332E9, -372.912904381752, -439.93191158771515, -382.247694671154, -203.6899111866951
 1.70638903275332E9, -417.6720270514488, -438.97449719905853, -373.6309651732445, -198.18477845191956
 1.70638903276885E9, -507.66897958517075, -432.2725964784622, -342.03629034757614, -274.77792954444885
 1.70638903276885E9, -402.1140432357788, -430.8364748954773, -364.0568212866783, -226.42850291728973
 1.706389032769528E9, -390.38571697473526, -447.5912266969681, -392.7792529463768, -186.69580578804016
 1.706389032769528E9, -502.1638468503952, -449.74540907144547, -370.5193684101105, -270.9482719898224
 1.7063890327833045E9, -437.5383756160736, -428.6822925209999, -354.96138459444046, -256.10834896564484
 1.7063890327833045E9, -351.6104342341423, -430.357767701149, -386.31670582294464, -175.20683312416077
 1.7063890327994788E9, -465.0640392899513, -437.5383756160736, -363.33876049518585, -226.42850291728973
 1.7063890327994788E9, -475.83495116233826, -428.6822925209999, -347.30206948518753, -279.0862942934036
 1.7063890328003097E9, -362.38134610652924, -440.6499723792076, -388.2315346002579, -210.3918119072914
 1.7063890328003097E9, -422.21974539756775, -448.78799468278885, -384.64123064279556, -199.38154643774033
 1.7063890328132348E9, -513.4134659171104, -442.804154753685, -353.0465558171272, -280.04370868206024
 1.7063890328132348E9, -410.73077273368835, -448.30928748846054, -369.3226004242897, -230.7368676662445
 1.70638903282885E9, -402.5927504301071, -464.1066249012947, -413.36366230249405, -195.55188888311386
 1.70638903282885E9, -522.9876098036766, -465.3033928871155, -382.9657554626465, -282.9159518480301
 1.7063890328295739E9, -470.56917202472687, -453.8144202232361, -369.801307618618, -264.2463712692261
 1.7063890328295739E9, -399.9598608613014, -485.6484486460686, -428.92164611816406, -212.30664068460464
 1.7063890328433032E9, -523.9450241923332, -503.8393220305443, -407.61917597055435, -254.6722273826599
 1.7063890328433032E9, -543.3326655626297, -491.8716421723366, -387.27412021160126, -301.34617882966995
 1.7063890328591552E9, -452.6176522374153, -520.3547202348709, -445.915751516819, -254.43287378549576
 1.7063890328591552E9, -511.4986371397972, -535.4339968562126, -448.78799468278885, -251.32127702236176
 1.7063890328596857E9, -613.2239159345627, -537.58817923069, -421.5016846060753, -336.29180401563644
 1.7063890328596857E9, -512.695405125618, -545.7262015342712, -453.57506662607193, -295.12298530340195
 1.706389032873191E9, -512.9347587227821, -565.592550098896, -490.1961669921875, -260.8954209089279
 1.706389032873191E9, -651.5204914808273, -585.9376058578491, -477.2710727453232, -349.69560545682907
 1.706389032888168E9, -615.6174519062042, -598.6233465075493, -492.11099576950073, -373.6309651732445
 1.706389032888168E9, -541.8965439796448, -623.5161206126213, -545.7262015342712, -309.72355473041534
 1.7063890329038577E9, -699.151857316494, -648.4088947176933, -525.3811457753181, -429.1609997153282
 1.7063890329038577E9, -595.5117497444153, -668.035889685154, -578.038937151432, -365.2535892724991
 1.7063890329045625E9, -658.2223922014236, -688.8596526384354, -593.3575673699379, -373.6309651732445
 1.7063890329045625E9, -763.7773285508156, -698.4337965250015, -564.1564285159111, -464.1066249012947
 1.7063890329182017E9, -653.6746738553047, -692.6893101930618, -581.6292411088943, -411.68818712234497
 1.7063890329182017E9, -649.6056627035141, -710.8801835775375, -620.4045238494873, -381.7689874768257
 1.7063890329338949E9, -766.1708645224571, -713.5130731463432, -584.7408378720284, -455.96860259771347
 1.7063890329338949E9, -710.8801835775375, -706.3324652314186, -586.4163130521774, -459.0801993608475
 1.7063890329345908E9, -620.6438774466515, -707.0505260229111, -621.1225846409798, -380.09351229667664
 1.7063890329345908E9, -726.6775209903717, -703.4602220654488, -592.4001529812813, -424.134574174881
 1.7063890329485378E9, -731.9433001279831, -692.6893101930618, -569.4222076535225, -468.8936968445778
 1.7063890329485378E9, -620.6438774466515, -697.9550893306732, -604.367832839489, -393.2579601407051
 1.7063890329640975E9, -672.822961628437, -696.7583213448524, -598.3839929103851, -392.06119215488434
 1.7063890329640975E9, -751.3309414982796, -680.9609839320183, -553.3855166435242, -455.01118820905685
 1.7063890329646173E9, -641.4676403999329, -678.3280943632126, -571.5763900279999, -406.1830543875694
 1.7063890329646173E9, -626.149010181427, -685.5087022781372, -595.5117497444153, -359.5091029405594
 1.7063890329782436E9, -738.1664936542511, -676.4132655858994, -550.5132734775543, -429.6397069096565
 1.7063890329782436E9, -679.5248623490334, -664.92429292202, -551.2313342690468, -432.2725964784622
 1.7063890329938996E9, -599.1020537018776, -687.1841774582863, -593.3575673699379, -365.97165006399155
 1.7063890329938996E9, -695.0828461647034, -679.7642159461975, -565.3531965017319, -408.57659035921097
 1.7063890329945703E9, -718.3001450896263, -672.1049008369446, -546.4442623257637, -452.85700583457947
 1.7063890329945703E9, -595.033042550087, -672.1049008369446, -587.373727440834, -383.20510905981064
 1.7063890330081873E9, -646.0153587460518, -670.6687792539597, -583.5440698862076, -377.2212691307068
 1.7063890330081873E9, -731.9433001279831, -663.0094641447067, -539.0243008136749, -451.89959144592285
 1.706389033023854E9, -623.037413418293, -657.5043314099312, -562.0022461414337, -401.87468963861465
 1.706389033023854E9, -596.9478713274002, -659.6585137844086, -574.927340388298, -352.32849502563477
 1.7063890330246177E9, -710.1621227860451, -654.6320882439613, -539.2636544108391, -425.0919885635376
 1.7063890330246177E9, -656.0682098269463, -645.7760051488876, -534.7159360647202, -418.15073424577713
 1.7063890330382843E9, -565.1138429045677, -649.8450163006783, -567.7467324733734, -339.88210797309875
 1.7063890330382843E9, -655.3501490354538, -635.7231540679932, -538.7849472165108, -383.68381625413895
 1.7063890330540664E9, -669.9507184624672, -627.3457781672478, -506.2328580021858, -427.246170938015
 1.7063890330540664E9, -548.5984447002411, -622.7980598211288, -547.1623231172562, -352.0891414284706
 1.7063890330546162E9, -599.5807608962059, -624.2341814041138, -541.4178367853165, -350.1743126511574
 1.7063890330546162E9, -675.4558511972427, -607.9581367969513, -498.0948356986046, -418.15073424577713
 1.7063890330681384E9, -563.917074918747, -600.2988216876984, -515.5676482915878, -362.38134610652924
 1.7063890330681384E9, -551.4706878662109, -617.2929270863533, -539.7423616051674, -321.4518809914589
 1.7063890330838811E9, -668.2752432823181, -609.1549047827721, -501.92449325323105, -394.2153745293617
 1.7063890330838811E9, -607.0007224082947, -598.144639313221, -498.81289649009705, -385.359291434288
 1.7063890330845308E9, -535.6733504533768, -616.5748662948608, -543.5720191597939, -321.9305881857872
 1.7063890330845308E9, -628.7818997502327, -605.0858936309814, -507.66897958517075, -351.84978783130646
 1.7063890330981567E9, -649.6056627035141, -602.4530040621758, -499.5309572815895, -408.09788316488266
 1.7063890330981567E9, -523.4663169980049, -603.1710648536682, -533.9978752732277, -330.3079640865326
 1.7063890331140673E9, -582.1079483032227, -605.5646008253098, -533.2798144817352, -333.18020725250244
 1.7063890331140673E9, -649.8450163006783, -584.0227770805359, -473.4414151906967, -395.8908497095108
 1.7063890331147056E9, -539.0243008136749, -578.7569979429245, -497.85548210144043, -338.685339987278
 1.7063890331147056E9, -524.1843777894974, -589.0492026209831, -517.9611842632294, -298.9526428580284
 1.706389033128447E9, -634.5263860821724, -578.9963515400887, -483.25491267442703, -376.024501144886
 1.706389033128447E9, -579.7144123315811, -568.9435004591942, -482.05814468860626, -369.08324682712555
 1.7063890331602116E9, -503.360614836216, -581.6292411088943, -522.2695490121841, -296.55910688638687
 1.7063890331602116E9, -601.0168824791908, -579.475058734417, -490.91422778367996, -336.5311576128006
 1.7063890331609273E9, -613.9419767260551, -571.815743625164, -466.2608072757721, -384.64123064279556
 1.7063890331609273E9, -498.33418929576874, -578.9963515400887, -510.30186915397644, -311.3990299105644
 1.7063890331617098E9, -557.2151741981506, -582.8260090947151, -508.62639397382736, -310.4416155219078
 1.7063890331617098E9, -636.4412148594856, -568.4647932648659, -464.1066249012947, -384.16252344846725
 1.7063890331624615E9, -519.1579522490501, -562.2415997385979, -486.36650943756104, -330.54731768369675
 1.7063890331624615E9, -501.92449325323105, -570.8583292365074, -501.44578605890274, -289.85720616579056
 1.706389033173278E9, -614.4206839203835, -557.4545277953148, -461.23438173532486, -356.3975061774254
 1.706389033173278E9, -552.6674558520317, -547.6410303115845, -460.5163209438324, -351.131727039814
 1.706389033188231E9, -464.34597849845886, -552.9068094491959, -493.06841015815735, -276.6927583217621
 1.706389033188231E9, -576.363461971283, -550.2739198803902, -469.61175763607025, -324.0847705602646
 1.7063890332039745E9, -584.2621306777, -544.7687871456146, -445.915751516819, -366.689710855484
 1.7063890332039745E9, -469.13305044174194, -543.5720191597939, -485.16974145174026, -286.5062558054924
 1.7063890332046132E9, -523.2269634008408, -551.2313342690468, -479.42525511980057, -291.2933277487755
 1.7063890332046132E9, -608.9155511856079, -539.5030080080032, -437.5383756160736, -359.74845653772354
 1.70638903321811E9, -491.6322885751724, -536.1520576477051, -462.6705033183098, -313.79256588220596
 1.70638903321811E9, -484.9303878545761, -550.2739198803902, -490.91422778367996, -271.4269791841507
 1.7063890332340057E9, -595.2723961472511, -539.5030080080032, -448.30928748846054, -343.47241193056107
 1.7063890332340057E9, -540.699775993824, -538.5455936193466, -451.6602378487587, -342.7543511390686
 1.7063890332346213E9, -450.4634698629379, -540.4604223966599, -472.9627079963684, -251.5606306195259
 1.7063890332346213E9, -560.0874173641205, -533.7585216760635, -447.83058029413223, -298.4739356637001
 1.7063890332483404E9, -575.1666939854622, -522.7482562065125, -429.40035331249237, -346.10530149936676
 1.7063890332483404E9, -468.65434324741364, -540.4604223966599, -475.35624396800995, -277.6501727104187
 1.706389033263965E9, -526.3385601639748, -543.811372756958, -471.5265864133835, -275.4959903359413
 1.706389033263965E9, -600.2988216876984, -530.4075713157654, -423.8952205777168, -348.4988374710083
 1.7063890332645724E9, -490.6748741865158, -530.6469249129295, -450.7028234601021, -293.44751012325287
 1.7063890332645724E9, -474.87753677368164, -532.0830464959145, -470.3298184275627, -255.15093457698822
 1.7063890332781155E9, -587.6130810379982, -523.7056705951691, -438.25643640756607, -327.6750745177269
 1.7063890332781155E9, -522.2695490121841, -518.6792450547218, -432.7513036727905, -324.5634777545929
 1.7063890332941465E9, -439.2138507962227, -521.7908418178558, -466.50016087293625, -245.57679069042206
 1.7063890332941465E9, -539.9817152023315, -519.8760130405426, -438.0170828104019, -296.3197532892227
 1.706389033294633E9, -554.3429310321808, -505.51479721069336, -412.88495510816574, -331.02602487802505
 1.706389033294633E9, -438.7351436018944, -513.1741123199463, -451.42088425159454, -258.02317774295807
 1.7063890333085575E9, -496.8980677127838, -516.7644162774086, -448.5486410856247, -255.62964177131653
 1.7063890333085575E9, -579.7144123315811, -505.2754436135292, -409.5340047478676, -333.8982680439949
 1.7063890333238933E9, -468.4149896502495, -504.3180292248726, -426.5281101465225, -274.0598687529564
 1.7063890333238933E9, -457.8834313750267, -511.4986371397972, -453.0963594317436, -235.76329320669174
 1.7063890333247533E9, -564.6351357102394, -504.7967364192009, -411.4488335251808, -309.24484753608704
 1.7063890333247533E9, -505.99350440502167, -498.81289649009705, -417.6720270514488, -310.4416155219078
 1.7063890333384387E9, -428.44293892383575, -504.7967364192009, -451.6602378487587, -235.28458601236343
 1.7063890333384387E9, -529.4501569271088, -506.47221159935, -427.7248781323433, -277.88952630758286
 1.7063890333538463E9, -543.3326655626297, -497.85548210144043, -398.28438568115234, -324.5634777545929
 1.7063890333538463E9, -427.96423172950745, -496.8980677127838, -437.0596684217453, -243.66196191310883
 1.7063890333545642E9, -480.3826695084572, -502.88190764188766, -434.4267788529396, -244.8587298989296
 1.7063890333545642E9, -557.9332349896431, -486.6058630347252, -388.94959539175034, -314.98933386802673
 1.7063890333681061E9, -450.4634698629379, -484.69103425741196, -413.84236949682236, -262.81024968624115
 1.7063890333681061E9, -431.3151820898056, -484.9303878545761, -430.357767701149, -212.78534787893295
 1.706389033383828E9, -548.5984447002411, -482.2974982857704, -391.8218385577202, -285.78819501399994
 1.706389033383828E9, -476.5530119538307, -469.3724040389061, -384.16252344846725, -276.93211191892624
 1.7063890333845346E9, -398.5237392783165, -481.57943749427795, -420.06556302309036, -202.97185039520264
 1.7063890333845346E9, -499.29160368442535, -470.3298184275627, -393.49731373786926, -250.12450903654099
 1.7063890333984125E9, -511.25928354263306, -467.2182216644287, -376.7425619363785, -295.8410460948944
 1.7063890333984125E9, -393.01860654354095, -468.65434324741364, -408.57659035921097, -220.9233701825142
 1.7063890334138443E9, -447.5912266969681, -471.76594001054764, -411.4488335251808, -225.23173493146896
 1.7063890334138443E9, -528.0140353441238, -458.362138569355, -369.3226004242897, -296.798460483551
 1.7063890334145737E9, -415.51784467697144, -462.6705033183098, -396.13020330667496, -246.29485148191452
 1.7063890334145737E9, -415.0391374826431, -479.42525511980057, -423.6558669805527, -210.87051910161972
 1.7063890334282157E9, -536.1520576477051, -470.56917202472687, -383.4444626569748, -290.33591336011887
 1.7063890334282157E9, -472.72335439920425, -467.45757526159286, -387.9921810030937, -284.11271983385086
 1.706389033443972E9, -388.7102417945862, -475.1168903708458, -426.5281101465225, -211.58857989311218
 1.706389033443972E9, -495.4619461297989, -466.02145367860794, -392.53989934921265, -254.43287378549576
 1.7063890334445758E9, -497.13742130994797, -455.01118820905685, -366.92906445264816, -291.0539741516113
 1.7063890334445758E9, -382.4870482683182, -462.6705033183098, -408.57659035921097, -222.59884536266327
 1.706389033458177E9, -443.7615691423416, -462.1917961239815, -404.02887201309204, -224.9923813343048
 1.706389033458177E9, -527.2959745526314, -455.96860259771347, -367.40777164697647, -293.2081565260887
 1.7063890334741156E9, -416.95396625995636, -457.64407777786255, -396.60891050100327, -250.6032162308693
 1.7063890334741156E9, -405.2256399989128, -465.7821000814438, -415.51784467697144, -207.51956874132156
 1.7063890334747128E9, -518.918598651886, -459.3195529580116, -372.912904381752, -279.3256478905678
 1.7063890334747128E9, -451.1815306544304, -448.5486410856247, -373.15225797891617, -271.4269791841507
 1.706389033488174E9, -379.13609790802, -462.90985691547394, -415.99655187129974, -200.33896082639694
 1.706389033488174E9, -489.2387526035309, -462.6705033183098, -388.2315346002579, -250.12450903654099
 1.706389033503809E9, -501.2064324617386, -451.1815306544304, -362.86005330085754, -291.53268134593964
 1.706389033503809E9, -390.1463633775711, -462.90985691547394, -404.02887201309204, -216.61500543355942
 1.7063890335045447E9, -448.30928748846054, -468.8936968445778, -402.83210402727127, -220.44466298818588
 1.7063890335045447E9, -534.7159360647202, -465.54274648427963, -375.5457939505577, -301.5855324268341
 1.7063890335184977E9, -421.26233100891113, -463.86727130413055, -403.3108112215996, -255.15093457698822
 1.7063890335184977E9, -419.58685582876205, -476.31365835666656, -422.4590989947319, -213.98211586475372
 1.7063890335340197E9, -528.7320961356163, -466.2608072757721, -389.1889489889145, -287.70302379131317
 1.7063890335340197E9, -466.97886806726456, -461.23438173532486, -385.5986450314522, -284.8307806253433
 1.7063890335346E9, -386.0773522257805, -469.13305044174194, -427.96423172950745, -212.0672870874405
 1.7063890335346E9, -497.85548210144043, -470.3298184275627, -393.97602093219757, -261.6134817004204
 1.706389033548202E9, -504.07867562770844, -459.79826015233994, -368.3651860356331, -296.3197532892227
 1.706389033548202E9, -391.8218385577202, -466.97886806726456, -411.68818712234497, -225.71044212579727
 1.7063890335638883E9, -452.37829864025116, -473.20206159353256, -408.09788316488266, -223.79561334848404
 1.7063890335638883E9, -534.7159360647202, -465.0640392899513, -368.8438932299614, -297.75587487220764
 1.7063890335645337E9, -413.36366230249405, -456.9260169863701, -396.60891050100327, -247.4916194677353
 1.7063890335645337E9, -407.8585295677185, -468.1756360530853, -418.3900878429413, -206.8015079498291
 1.7063890335784593E9, -515.3282946944237, -452.37829864025116, -368.60453963279724, -279.0862942934036
 1.7063890335784593E9, -445.4370443224907, -444.2402763366699, -374.34902596473694, -275.017283141613
 1.706389033593845E9, -370.7587220072746, -457.4047241806984, -411.68818712234497, -205.84409356117249
 1.706389033593845E9, -477.51042634248734, -452.85700583457947, -386.31670582294464, -249.64580184221268
 1.706389033594536E9, -490.43552058935165, -449.9847626686096, -367.8864788413048, -291.53268134593964
 1.706389033594536E9, -382.247694671154, -458.362138569355, -400.43856805562973, -213.0247014760971
 1.706389033608312E9, -441.3680331707001, -458.60149216651917, -400.43856805562973, -220.9233701825142
 1.706389033608312E9, -525.8598529696465, -458.60149216651917, -370.04066121578217, -299.6707036495209
 1.706389033624038E9, -413.6030158996582, -456.9260169863701, -394.4547281265259, -246.53420507907867
 1.706389033624038E9, -410.73077273368835, -468.8936968445778, -419.8262094259262, -212.30664068460464
 1.7063890336245909E9, -526.5779137611389, -463.38856410980225, -378.6573907136917, -285.0701342225075
 1.7063890336245909E9, -456.4473097920418, -454.2931274175644, -378.41803711652756, -271.66633278131485
 1.7063890336381693E9, -383.4444626569748, -463.86727130413055, -417.6720270514488, -202.01443600654602
 1.7063890336381693E9, -477.2710727453232, -449.74540907144547, -382.4870482683182, -245.8161442875862
 1.7063890336538577E9, -490.1961669921875, -447.3518730998039, -358.7910421490669, -287.9423773884773
 1.7063890336538577E9, -370.04066121578217, -448.78799468278885, -397.0876176953316, -209.19504392147064
 1.7063890336545267E9, -432.9906572699547, -449.9847626686096, -390.1463633775711, -209.19504392147064
 1.7063890336545267E9, -511.0199299454689, -442.804154753685, -357.8336277604103, -288.6604381799698
 1.7063890336686125E9, -389.42830258607864, -436.1022540330887, -373.6309651732445, -235.28458601236343
 1.7063890336686125E9, -393.97602093219757, -450.94217705726624, -396.13020330667496, -196.74865686893463
 1.706389033683919E9, -505.7541508078575, -440.6499723792076, -364.29617488384247, -268.07602882385254
 1.706389033683919E9, -439.2138507962227, -433.23001086711884, -357.59427416324615, -261.85283529758453
 1.7063890336850944E9, -366.689710855484, -449.027348279953, -403.0714576244354, -195.3125352859497
 1.7063890336850944E9, -473.4414151906967, -448.30928748846054, -374.5883795619011, -245.09808349609375
 1.7063890337146115E9, -483.25491267442703, -438.97449719905853, -354.7220309972763, -285.30948781967163
 1.7063890337146115E9, -365.97165006399155, -440.1712651848793, -394.4547281265259, -206.3228007555008
 1.706389033715278E9, -427.7248781323433, -442.08609396219254, -393.2579601407051, -212.30664068460464
 1.706389033715278E9, -503.360614836216, -437.29902201890945, -352.32849502563477, -284.11271983385086
 1.7063890337161484E9, -399.0024464726448, -444.4796299338341, -377.93932992219925, -237.19941478967667
 1.7063890337161484E9, -391.1037777662277, -443.2828619480133, -403.0714576244354, -191.96158492565155
 1.7063890337281425E9, -496.8980677127838, -433.469364464283, -360.22716373205185, -264.96443206071854
 1.7063890337281425E9, -424.6132813692093, -422.4590989947319, -356.15815258026123, -251.79998421669006
 1.706389033744138E9, -359.5091029405594, -439.2138507962227, -401.39598244428635, -185.73839139938354
 1.706389033744138E9, -465.7821000814438, -437.5383756160736, -369.08324682712555, -234.80587881803513
 1.7063890337446668E9, -472.9627079963684, -428.6822925209999, -349.21689826250076, -275.017283141613
 1.7063890337446668E9, -361.4239317178726, -431.07582849264145, -382.00834107398987, -196.26994967460632
 1.7063890337582116E9, -422.9378061890602, -440.1712651848793, -382.247694671154, -201.29637521505356
 1.7063890337582116E9, -496.18000692129135, -423.4165133833885, -341.0788759589195, -270.9482719898224
 1.7063890337740636E9, -377.93932992219925, -417.911380648613, -355.44009178876877, -210.15245831012726
 1.7063890337740636E9, -386.5560594201088, -444.71898353099823, -396.8482640981674, -191.48287773132324
 1.7063890337745533E9, -464.585332095623, -407.61917597055435, -344.908533513546, -252.99675220251083
 1.7063890337745533E9, -388.470888197422, -381.52963387966156, -319.53705221414566, -224.27432054281235
 1.706389033788468E9, -286.5062558054924, -376.5032083392143, -346.8233622908592, -138.34637916088104
 1.706389033788468E9, -377.93932992219925, -357.354920566082, -308.5267867445946, -174.4887723326683
 1.7063890338038232E9, -365.2535892724991, -327.1963673233986, -274.77792954444885, -213.26405507326126
 1.7063890338038232E9, -244.14066910743713, -320.9731737971306, -295.60169249773026, -112.0174834728241
 1.7063890338045802E9, -303.02165400981903, -320.9731737971306, -288.89979177713394, -118.00132340192795
 1.7063890338045802E9, -374.34902596473694, -304.2184219956398, -238.15682917833328, -175.68554031848907
 1.7063890338183072E9, -230.7368676662445, -273.5811615586281, -245.57679069042206, -108.66653311252594
 1.7063890338183072E9, -219.2478950023651, -276.2140511274338, -252.27869141101837, -49.306841015815735
 1.706389033834094E9, -317.3828698396683, -250.36386263370514, -196.03059607744217, -113.21425145864487
 1.706389033834094E9, -236.24200040102005, -226.42850291728973, -184.30226981639862, -99.09238922595978
 1.706389033834634E9, -161.08497089147568, -237.19941478967667, -222.35949176549911, -22.738591730594635
 1.706389033834634E9, -237.91747558116913, -204.1686183810234, -170.65911477804184, -48.34942662715912
 1.7063890338483396E9, -236.24200040102005, -188.37128096818924, -140.02185434103012, -78.74733346700668
 1.7063890338483396E9, -106.03364354372025, -178.55778348445892, -170.41976118087769, -3.829657554626465
 1.7063890338638315E9, -169.22299319505692, -181.43002665042877, -156.7766061425209, 6.223193526268005
 1.7063890338638315E9, -250.36386263370514, -176.6429547071457, -124.94257771968842, -73.72090792655945
 1.7063890338645632E9, -109.62394750118256, -148.15987664461136, -129.2509424686432, -3.829657554626465
 1.7063890338645632E9, -93.82661008834839, -147.4418158531189, -149.59599822759628, 37.81786835193634
 1.7063890338792083E9, -213.26405507326126, -149.83535182476044, -114.41101944446564, -42.12623310089111
 1.7063890338792083E9, -155.34048455953598, -147.20246225595474, -118.95873779058456, -41.647525906562805
 1.706389033893429E9, -73.24220073223114, -154.38307017087936, -164.43592125177383, 27.046956479549408
 1.706389033893429E9, -175.44618672132492, -144.09086549282074, -128.53288167715073, -14.600569427013397
 1.7063890339252193E9, -68.93383598327637, -143.85151189565659, -138.5857327580452, 29.679846048355103
 1.7063890339252193E9, -140.97926872968674, -155.57983815670013, -146.48440146446228, 14.361215829849243
 1.7063890339259202E9, -208.47698312997818, -140.50056153535843, -103.1614003777504, -56.72680252790451
 1.7063890339259202E9, -94.06596368551254, -142.41539031267166, -129.49029606580734, -7.65931510925293
 1.7063890339266405E9, -104.83687555789948, -156.2978989481926, -161.32432448863983, 20.345055758953094
 1.7063890339266405E9, -228.58268529176712, -158.69143491983414, -123.50645613670349, -53.61520576477051
 1.7063890339273744E9, -152.22888779640198, -147.68116945028305, -124.94257771968842, -48.82813382148743
 1.7063890339273744E9, -77.31121188402176, -157.97337412834167, -157.2553133368492, 27.286310076713562
 1.706389033938122E9, -196.74865686893463, -159.8882029056549, -135.23478239774704, -33.988210797309875
 1.706389033938122E9, -206.3228007555008, -157.73402053117752, -119.19809138774872, -76.35379749536514
 1.706389033953394E9, -88.80018454790115, -163.47850686311722, -161.80303168296814, -0.7180607914924622
 1.706389033953394E9, -145.76634067296982, -156.2978989481926, -153.1863021850586, -1.4361215829849243
 1.7063890339689004E9, -224.5136741399765, -157.2553133368492, -120.15550577640533, -82.57699102163315
 1.7063890339689004E9, -129.96900326013565, -178.55778348445892, -159.17014211416245, -45.716537058353424
 1.7063890339696927E9, -135.9528431892395, -190.28610974550247, -188.13192737102509, -8.138022303581238
 1.7063890339696927E9, -232.8910500407219, -165.87204283475876, -138.82508635520935, -93.58725649118423
 1.7063890339833164E9, -182.3874410390854, -179.51519787311554, -147.68116945028305, -70.8486647605896
 1.7063890339833164E9, -120.8735665678978, -200.81766802072525, -196.74865686893463, -16.276044607162476
 1.7063890339991844E9, -238.6355363726616, -209.4343975186348, -176.88230830430984, -79.7047478556633
 1.7063890339991844E9, -235.76329320669174, -189.56804895401, -146.72375506162643, -112.73554426431656
 1.706389033999583E9, -117.28326261043549, -191.48287773132324, -193.87641370296478, -38.29657554626465
 1.706389033999583E9, -185.4990378022194, -201.0570216178894, -189.80740255117416, -33.74885720014572
 1.706389034013182E9, -284.352073431015, -211.10987269878387, -154.62242376804352, -110.58136188983917
 1.706389034013182E9, -155.10113096237183, -202.01443600654602, -183.10550183057785, -64.38611763715744
 1.706389034028868E9, -155.57983815670013, -214.22146946191788, -201.5357288122177, -32.55208921432495
 1.706389034028868E9, -276.45340472459793, -212.0672870874405, -165.87204283475876, -106.2729971408844
 1.7063890340295496E9, -210.3918119072914, -208.23762953281403, -168.02622520923615, -106.75170433521271
 1.7063890340295496E9, -148.63858383893967, -227.38591730594635, -215.6575910449028, -23.69600611925125
 1.7063890340431955E9, -244.3800227046013, -215.6575910449028, -181.43002665042877, -67.49771440029144
 1.7063890340431955E9, -246.29485148191452, -197.9454248547554, -158.21272772550583, -107.46976512670517
 1.7063890340588503E9, -147.20246225595474, -219.72660219669342, -204.1686183810234, -39.01463633775711
 1.7063890340588503E9, -211.58857989311218, -224.9923813343048, -199.86025363206863, -54.33326655626297
 1.7063890340595427E9, -288.1817309856415, -217.33306622505188, -165.1539820432663, -125.42128491401672
 1.7063890340595427E9, -168.50493240356445, -213.26405507326126, -188.6106345653534, -68.2157751917839
 1.7063890340731287E9, -166.82945722341537, -223.07755255699158, -215.41823744773865, -44.75912266969681
 1.7063890340731287E9, -289.85720616579056, -230.97622126340866, -187.65322017669678, -125.18193131685257
 1.7063890340891955E9, -236.0026468038559, -233.60911083221436, -193.87641370296478, -113.45360505580902
 1.7063890340891955E9, -160.60626369714737, -250.12450903654099, -242.94390112161636, -50.26425540447235
 1.7063890340897834E9, -253.7148129940033, -225.23173493146896, -196.74865686893463, -86.40664857625961
 1.7063890340897834E9, -286.0275486111641, -248.4490338563919, -191.96158492565155, -138.82508635520935
 1.7063890341031256E9, -175.92489391565323, -260.8954209089279, -234.08781802654266, -67.01900720596313
 1.7063890341031256E9, -242.7045475244522, -265.44313925504684, -230.2581604719162, -75.63573670387268
 1.706389034118857E9, -316.6648090481758, -251.79998421669006, -200.0996072292328, -152.22888779640198
 1.706389034118857E9, -214.93953025341034, -261.13477450609207, -232.41234284639359, -98.61368203163147
 1.7063890341195223E9, -213.26405507326126, -271.66633278131485, -250.36386263370514, -81.14086943864822
 1.7063890341195223E9, -343.2330583333969, -273.1024543642998, -217.8117734193802, -146.00569427013397
 1.7063890341331584E9, -269.51215040683746, -270.4695647954941, -215.89694464206696, -124.94257771968842
 1.7063890341331584E9, -196.74865686893463, -276.93211191892624, -253.7148129940033, -55.05132734775543
 1.7063890341492789E9, -307.09066516160965, -276.6927583217621, -227.6252709031105, -114.88972663879395
 1.7063890341492789E9, -300.1494108438492, -263.5283104777336, -203.92926478385925, -150.31405901908875
 1.7063890341497347E9, -190.04675614833832, -267.3579680323601, -248.20968025922775, -82.09828382730484
 1.7063890341497347E9, -269.99085760116577, -279.56500148773193, -244.8587298989296, -90.23630613088608
 1.7063890341631908E9, -322.4092953801155, -256.347702562809, -194.8338280916214, -143.37280470132828
 1.7063890341631908E9, -210.15245831012726, -255.39028817415237, -227.86462450027466, -101.24657160043716
 1.7063890341792529E9, -213.74276226758957, -272.14503997564316, -254.91158097982407, -67.97642159461975
 1.7063890341792529E9, -349.69560545682907, -283.15530544519424, -220.9233701825142, -153.42565578222275
 1.7063890341796193E9, -278.6075870990753, -277.88952630758286, -228.1039780974388, -142.41539031267166
 1.7063890341796193E9, -193.63706010580063, -279.3256478905678, -261.3741281032562, -73.24220073223114
 1.706389034193328E9, -323.3667097687721, -296.08039969205856, -249.88515543937683, -137.38896477222443
 1.706389034193328E9, -335.81309682130814, -292.96880292892456, -230.2581604719162, -171.13782197237015
 1.706389034209664E9, -221.64143097400665, -299.4313500523567, -270.9482719898224, -89.99695253372192
 1.706389034209664E9, -289.85720616579056, -303.50036120414734, -270.70891839265823, -107.23041152954102
 1.706389034223883E9, -345.14788711071014, -282.1978910565376, -216.1362982392311, -169.22299319505692
 1.706389034223883E9, -246.05549788475037, -290.8146205544472, -255.39028817415237, -131.16577124595642
 1.706389034224588E9, -244.61937630176544, -298.71328926086426, -276.45340472459793, -88.08212375640869
 1.706389034224588E9, -353.7646166086197, -291.53268134593964, -235.76329320669174, -174.9674795269966
 1.7063890342389283E9, -293.44751012325287, -298.71328926086426, -240.55036514997482, -159.64884930849075
 1.7063890342389283E9, -210.63116550445557, -300.1494108438492, -270.9482719898224, -85.68858778476715
 1.7063890342395563E9, -343.9511191248894, -308.7661403417587, -251.79998421669006, -145.2876334786415
 1.7063890342395563E9, -341.55758315324783, -303.02165400981903, -239.35359716415405, -187.41386657953262
 1.706389034253198E9, -210.87051910161972, -294.8836317062378, -267.3579680323601, -97.17756044864655
 1.706389034253198E9, -286.74560940265656, -303.2610076069832, -263.0496032834053, -111.53877627849579
 1.7063890342690437E9, -364.29617488384247, -296.3197532892227, -224.5136741399765, -177.83972269296646
 1.7063890342690437E9, -261.13477450609207, -303.7397148013115, -265.2037856578827, -134.99542880058289
 1.706389034269536E9, -248.92774105072021, -307.56937235593796, -281.7191838622093, -95.50208526849747
 1.706389034269536E9, -358.3123349547386, -298.4739356637001, -234.32717162370682, -163.71786046028137
 1.706389034283282E9, -295.12298530340195, -293.686863720417, -247.4916194677353, -159.64884930849075
 1.706389034283282E9, -212.78534787893295, -298.23458206653595, -279.0862942934036, -87.36406296491623
 1.7063890342988677E9, -334.3769752383232, -309.72355473041534, -257.54447054862976, -135.23478239774704
 1.7063890342988677E9, -332.2227928638458, -297.0378140807152, -235.5239396095276, -175.68554031848907
 1.706389034299695E9, -213.74276226758957, -297.9952284693718, -273.3418079614639, -96.22014605998993
 1.706389034299695E9, -284.8307806253433, -306.13325077295303, -269.03344321250916, -109.62394750118256
 1.7063890343132136E9, -353.7646166086197, -296.3197532892227, -233.8484644293785, -185.02033060789108
 1.7063890343132136E9, -239.83230435848236, -300.1494108438492, -261.3741281032562, -122.07033455371857
 1.7063890343291316E9, -234.32717162370682, -298.9526428580284, -276.2140511274338, -83.77375900745392
 1.7063890343291316E9, -352.32849502563477, -299.4313500523567, -238.39618277549744, -161.56367808580399
 1.706389034329625E9, -283.3946590423584, -296.55910688638687, -248.92774105072021, -155.57983815670013
 1.706389034329625E9, -204.88667917251587, -295.12298530340195, -280.2830622792244, -85.20988059043884
 1.7063890343434565E9, -334.3769752383232, -317.3828698396683, -261.3741281032562, -147.9205230474472
 1.7063890343434565E9, -336.0524504184723, -308.5267867445946, -238.15682917833328, -176.88230830430984
 1.7063890343589153E9, -238.15682917833328, -328.6324889063835, -289.85720616579056, -112.73554426431656
 1.7063890343589153E9, -294.4049245119095, -323.6060633659363, -286.0275486111641, -123.74580973386765
 1.7063890343595452E9, -374.82773315906525, -320.2551130056381, -253.236105799675, -198.90283924341202
 1.7063890343595452E9, -267.3579680323601, -325.76024574041367, -286.26690220832825, -155.57983815670013
 1.7063890343731787E9, -264.96443206071854, -338.44598639011383, -307.8087259531021, -128.53288167715073
 1.7063890343731787E9, -377.93932992219925, -331.98343926668167, -269.51215040683746, -201.5357288122177
 1.7063890343891926E9, -326.4783065319061, -342.99370473623276, -285.78819501399994, -196.98801046609879
 1.7063890343891926E9, -251.0819234251976, -350.89237344264984, -320.4944666028023, -124.22451692819595
 1.7063890343897152E9, -359.9878101348877, -345.14788711071014, -290.0965597629547, -172.81329715251923
 1.7063890343897152E9, -350.6530198454857, -326.4783065319061, -263.28895688056946, -207.04086154699326
 1.7063890344031804E9, -237.91747558116913, -333.4195608496666, -306.3726043701172, -137.38896477222443
 1.7063890344031804E9, -301.1068252325058, -336.0524504184723, -303.97906839847565, -144.3302190899849
 1.7063890344189284E9, -372.19484359025955, -324.80283135175705, -254.6722273826599, -213.0247014760971
 1.7063890344189284E9, -268.3153824210167, -332.70150005817413, -290.33591336011887, -159.17014211416245
 1.7063890344196243E9, -266.6399072408676, -335.573743224144, -306.61195796728134, -118.00132340192795
 1.7063890344196243E9, -385.359291434288, -337.0098648071289, -279.8043550848961, -208.9556903243065
 1.706389034433643E9, -331.02602487802505, -348.4988374710083, -296.3197532892227, -204.64732557535172
 1.706389034433643E9, -254.6722273826599, -349.69560545682907, -324.0847705602646, -130.6870640516281
 1.706389034449132E9, -368.3651860356331, -354.00397020578384, -299.6707036495209, -188.13192737102509
 1.706389034449132E9, -377.93932992219925, -357.8336277604103, -292.7294493317604, -232.41234284639359
 1.7063890344496293E9, -265.682492852211, -359.26974934339523, -333.4195608496666, -156.2978989481926
 1.7063890344496293E9, -334.3769752383232, -359.5091029405594, -319.7764058113098, -162.5210924744606
 1.7063890344798636E9, -416.2359054684639, -361.4239317178726, -283.63401263952255, -234.08781802654266
 1.7063890344798636E9, -294.64427810907364, -356.15815258026123, -307.09066516160965, -171.8558827638626
 1.706389034480387E9, -300.6281180381775, -362.6206997036934, -326.95701372623444, -141.6973295211792
 1.706389034480387E9, -413.1243087053299, -358.7910421490669, -292.01138854026794, -225.47108852863312
 1.7063890344810803E9, -336.5311576128006, -343.47241193056107, -292.2507421374321, -203.2112039923668
 1.7063890344810803E9, -275.4959903359413, -367.40777164697647, -335.573743224144, -136.91025757789612
 1.70638903449362E9, -387.5134738087654, -365.7322964668274, -311.3990299105644, -194.8338280916214
 1.70638903449362E9, -394.2153745293617, -361.6632853150368, -298.9526428580284, -237.19941478967667
 1.7063890345090537E9, -272.62374716997147, -360.466517329216, -325.28153854608536, -150.79276621341705
 1.7063890345090537E9, -346.8233622908592, -364.7748820781708, -321.4518809914589, -163.71786046028137
 1.7063890345097077E9, -414.5604302883148, -354.48267740011215, -281.47983026504517, -229.06139248609543
 1.7063890345097077E9, -297.75587487220764, -356.15815258026123, -307.3300187587738, -175.68554031848907
 1.7063890345231898E9, -305.8938971757889, -366.689710855484, -330.54731768369675, -145.04827988147736
 1.7063890345231898E9, -415.7571982741356, -352.32849502563477, -288.42108458280563, -218.2904806137085
 1.70638903453887E9, -346.58400869369507, -358.3123349547386, -293.2081565260887, -207.2802151441574
 1.70638903453887E9, -297.9952284693718, -381.52963387966156, -337.9672791957855, -142.65474390983582
 1.7063890345395536E9, -403.0714576244354, -377.46062272787094, -311.15967631340027, -202.49314320087433
 1.7063890345395536E9, -399.4811536669731, -368.60453963279724, -306.13325077295303, -251.32127702236176
 1.7063890345695434E9, -306.61195796728134, -389.1889489889145, -355.44009178876877, -179.99390506744385
 1.7063890345695434E9, -381.7689874768257, -398.5237392783165, -347.78077667951584, -194.3551208972931
 1.7063890345702748E9, -436.34160763025284, -379.8541586995125, -309.9629083275795, -259.9380065202713
 1.7063890345702748E9, -325.0421849489212, -382.72640186548233, -337.4885720014572, -201.5357288122177
 1.70638903457102E9, -341.0788759589195, -397.80567848682404, -360.9452245235443, -171.3771755695343
 1.70638903457102E9, -450.7028234601021, -389.90700978040695, -322.64864897727966, -247.01291227340698
 1.7063890345831683E9, -374.5883795619011, -382.247694671154, -320.73382019996643, -229.30074608325958
 1.7063890345831683E9, -309.9629083275795, -392.06119215488434, -353.52526301145554, -158.69143491983414
 1.7063890346152503E9, -422.9378061890602, -389.90700978040695, -327.1963673233986, -219.00854140520096
 1.7063890346152503E9, -423.6558669805527, -387.5134738087654, -313.0745050907135, -251.5606306195259
 1.706389034615922E9, -314.5106266736984, -399.9598608613014, -358.55168855190277, -176.40360110998154
 1.706389034615922E9, -387.9921810030937, -404.02887201309204, -353.2859094142914, -193.63706010580063
 1.706389034616697E9, -457.16537058353424, -397.0876176953316, -320.4944666028023, -265.92184644937515
 1.706389034616697E9, -340.1214615702629, -397.5663248896599, -348.9775446653366, -208.47698312997818
 1.706389034617544E9, -345.3872407078743, -399.4811536669731, -359.74845653772354, -170.65911477804184
 1.706389034617544E9, -454.05377382040024, -390.6250705718994, -321.21252739429474, -242.46519392728806
 1.706389034628392E9, -380.8115730881691, -385.83799862861633, -325.0421849489212, -229.30074608325958
 1.706389034628392E9, -311.6383835077286, -394.2153745293617, -356.15815258026123, -156.7766061425209
 1.7063890346434815E9, -419.3475022315979, -390.6250705718994, -333.4195608496666, -218.52983421087265
 1.7063890346434815E9, -414.32107669115067, -381.2902802824974, -306.61195796728134, -251.0819234251976
 1.7063890346593273E9, -311.87773710489273, -397.3269712924957, -356.3975061774254, -180.47261226177216
 1.7063890346593273E9, -391.58248496055603, -405.46499359607697, -353.0465558171272, -193.87641370296478
 1.7063890346596875E9, -453.8144202232361, -388.470888197422, -318.10093063116074, -262.0921888947487
 1.7063890346596875E9, -353.52526301145554, -404.50757920742035, -356.3975061774254, -212.78534787893295
 1.7063890346731367E9, -360.22716373205185, -417.1933198571205, -377.6999763250351, -180.7119658589363
 1.7063890346731367E9, -468.1756360530853, -401.1566288471222, -329.350549697876, -253.236105799675
 1.7063890346888382E9, -388.7102417945862, -399.72050726413727, -343.2330583333969, -241.26842594146729
 1.7063890346888382E9, -332.9408536553383, -412.88495510816574, -377.2212691307068, -175.44618672132492
 1.7063890346895614E9, -440.41061878204346, -409.5340047478676, -344.4298263192177, -230.49751406908035
 1.7063890346895614E9, -435.3841932415962, -402.1140432357788, -320.73382019996643, -256.347702562809
 1.706389034703179E9, -314.5106266736984, -395.65149611234665, -354.243323802948, -171.61652916669846
 1.706389034703179E9, -401.6353360414505, -406.9011151790619, -351.6104342341423, -190.52546334266663
 1.7063890347190707E9, -467.9362824559212, -398.5237392783165, -317.3828698396683, -262.33154249191284
 1.7063890347190707E9, -343.47241193056107, -397.5663248896599, -345.3872407078743, -204.64732557535172
 1.7063890347196715E9, -355.9187989830971, -406.9011151790619, -367.1684180498123, -179.51519787311554
 1.7063890347196715E9, -482.53685188293457, -410.25206553936005, -330.54731768369675, -254.43287378549576
 1.7063890347335103E9, -398.76309287548065, -401.1566288471222, -330.7866712808609, -226.90721011161804
 1.7063890347335103E9, -346.8233622908592, -420.3049166202545, -373.87031877040863, -163.71786046028137
 1.7063890347489095E9, -436.580961227417, -400.6779216527939, -331.7440856695175, -215.89694464206696
 1.7063890347489095E9, -427.96423172950745, -393.2579601407051, -314.5106266736984, -250.84256982803345
 1.7063890347495935E9, -322.8880025744438, -402.35339683294296, -355.44009178876877, -172.81329715251923
 1.7063890347495935E9, -409.29465115070343, -416.7146126627922, -351.6104342341423, -190.52546334266663
 1.7063890347631953E9, -470.09046483039856, -400.6779216527939, -311.87773710489273, -256.347702562809
 1.7063890347631953E9, -354.243323802948, -401.6353360414505, -344.1904727220535, -197.4667176604271
 1.70638903477928E9, -361.9026389122009, -414.0817230939865, -365.2535892724991, -178.07907629013062
 1.70638903477928E9, -479.1859015226364, -407.8585295677185, -332.2227928638458, -256.10834896564484
 1.7063890347797391E9, -402.83210402727127, -405.46499359607697, -339.88210797309875, -237.19941478967667
 1.7063890347797391E9, -339.40340077877045, -414.799783885479, -367.8864788413048, -165.6326892375946
 1.7063890347932017E9, -443.7615691423416, -407.8585295677185, -344.1904727220535, -224.0349669456482
 1.7063890347932017E9, -443.04350835084915, -400.6779216527939, -321.21252739429474, -255.39028817415237
 1.7063890348095503E9, -340.36081516742706, -414.5604302883148, -367.40777164697647, -177.83972269296646
 1.7063890348095503E9, -413.84236949682236, -415.99655187129974, -360.22716373205185, -192.2009385228157
 1.7063890348245428E9, -460.9950281381607, -390.6250705718994, -317.1435162425041, -254.6722273826599
 1.7063890348245428E9, -355.2007381916046, -403.55016481876373, -348.25948387384415, -202.97185039520264
 1.7063890348246036E9, -364.5355284810066, -414.799783885479, -359.9878101348877, -169.22299319505692
 1.7063890348246036E9, -476.0743047595024, -407.8585295677185, -324.32412415742874, -249.16709464788437
 1.7063890348388462E9, -392.3005457520485, -398.76309287548065, -333.65891444683075, -230.7368676662445
 1.7063890348388462E9, -332.2227928638458, -406.4224079847336, -370.9980756044388, -168.2655788064003
 1.7063890348396192E9, -442.3254475593567, -398.5237392783165, -328.6324889063835, -213.50340867042542
 1.7063890348396192E9, -441.6073867678642, -400.91727524995804, -321.21252739429474, -250.84256982803345
 1.7063890348534913E9, -338.44598639011383, -416.47525906562805, -369.56195402145386, -184.54162341356277
 1.7063890348534913E9, -416.95396625995636, -424.85263496637344, -368.60453963279724, -205.12603276968002
 1.7063890348692565E9, -489.95681339502335, -423.6558669805527, -338.44598639011383, -278.6075870990753
 1.7063890348692565E9, -370.5193684101105, -417.6720270514488, -369.56195402145386, -221.16272377967834
 1.7063890348695629E9, -393.7366673350334, -446.8731659054756, -400.1992144584656, -203.6899111866951
 1.7063890348695629E9, -511.0199299454689, -435.6235468387604, -356.8762133717537, -275.017283141613
 1.706389034883192E9, -437.77772921323776, -439.2138507962227, -366.45035725831985, -258.2625313401222
 1.706389034883192E9, -370.7587220072746, -448.5486410856247, -405.7043471932411, -199.38154643774033
 1.7063890348982067E9, -483.73361986875534, -444.9583371281624, -372.4341971874237, -254.91158097982407
 1.7063890348982067E9, -477.51042634248734, -436.82031482458115, -362.1419925093651, -286.0275486111641
 1.7063890349138815E9, -437.0596684217453, -449.027348279953, -388.2315346002579, -215.41823744773865
 1.7063890349138815E9, -496.65871411561966, -429.1609997153282, -345.3872407078743, -279.0862942934036
 1.7063890349146008E9, -387.0347666144371, -424.6132813692093, -375.30644035339355, -223.31690615415573
 1.7063890349146008E9, -392.3005457520485, -431.3151820898056, -380.3328658938408, -184.54162341356277
 1.7063890349288163E9, -496.18000692129135, -421.022977411747, -341.796936750412, -260.65606731176376
 1.7063890349288163E9, -421.5016846060753, -418.62944144010544, -349.9349590539932, -241.26842594146729
 1.7063890349439363E9, -358.07298135757446, -426.7674637436867, -388.94959539175034, -177.36101549863815
 1.7063890349439363E9, -461.71308892965317, -416.2359054684639, -350.41366624832153, -226.6678565144539
 1.7063890349446416E9, -448.30928748846054, -404.50757920742035, -330.54731768369675, -254.91158097982407
 1.7063890349446416E9, -339.6427543759346, -415.7571982741356, -372.19484359025955, -177.121661901474
 1.7063890349581397E9, -425.81004935503006, -428.44293892383575, -372.4341971874237, -205.36538636684418
 1.7063890349581397E9, -488.99939900636673, -419.58685582876205, -338.2066327929497, -272.62374716997147
 1.7063890349740372E9, -369.801307618618, -423.8952205777168, -370.9980756044388, -216.37565183639526
 1.7063890349740372E9, -380.3328658938408, -432.7513036727905, -382.4870482683182, -188.13192737102509
 1.7063890349746003E9, -497.3767749071121, -429.8790605068207, -352.8072022199631, -270.2302111983299
 1.7063890349746003E9, -418.15073424577713, -421.9803918004036, -354.96138459444046, -250.84256982803345
 1.7063890349884877E9, -365.2535892724991, -438.7351436018944, -393.2579601407051, -184.06291621923447
 1.7063890349884877E9, -476.7923655509949, -437.5383756160736, -365.01423567533493, -241.26842594146729
 1.70638903500391E9, -459.3195529580116, -422.21974539756775, -344.4298263192177, -265.2037856578827
 1.70638903500391E9, -348.73819106817245, -429.40035331249237, -384.64123064279556, -191.00417053699493
 1.7063890350045602E9, -432.7513036727905, -436.1022540330887, -377.2212691307068, -207.75892233848572
 1.7063890350045602E9, -495.9406533241272, -426.0494029521942, -341.0788759589195, -276.2140511274338
 1.7063890350345416E9, -370.04066121578217, -420.3049166202545, -366.45035725831985, -214.93953025341034
 1.7063890350345416E9, -371.9554899930954, -421.9803918004036, -376.024501144886, -178.31842988729477
 1.7063890350352952E9, -490.6748741865158, -425.0919885635376, -340.83952236175537, -259.9380065202713
 1.7063890350352952E9, -400.91727524995804, -404.2682256102562, -348.25948387384415, -239.1142435669899
 1.7063890350360055E9, -326.7176601290703, -405.46499359607697, -371.23742920160294, -166.82945722341537
 1.7063890350360055E9, -456.9260169863701, -414.0817230939865, -348.9775446653366, -233.3697572350502
 1.7063890350486443E9, -450.7028234601021, -410.4914191365242, -328.39313530921936, -261.6134817004204
 1.7063890350486443E9, -345.3872407078743, -424.6132813692093, -377.93932992219925, -189.0893417596817
 1.706389035063802E9, -422.21974539756775, -427.96423172950745, -363.33876049518585, -202.01443600654602
 1.706389035063802E9, -482.05814468860626, -410.25206553936005, -329.8292568922043, -275.017283141613
 1.706389035064587E9, -377.2212691307068, -424.37392777204514, -370.9980756044388, -223.07755255699158
 1.706389035064587E9, -390.86442416906357, -446.63381230831146, -392.06119215488434, -194.11576730012894
 1.7063890350784907E9, -499.5309572815895, -432.5119500756264, -349.9349590539932, -265.44313925504684
 1.7063890350784907E9, -420.54427021741867, -427.96423172950745, -355.2007381916046, -248.68838745355606
 1.7063890350941625E9, -370.9980756044388, -444.9583371281624, -399.4811536669731, -192.679645717144
 1.7063890350941625E9, -482.2974982857704, -440.41061878204346, -373.6309651732445, -252.03933781385422
 1.706389035094604E9, -466.97886806726456, -426.7674637436867, -350.89237344264984, -280.2830622792244
 1.706389035094604E9, -364.7748820781708, -439.692557990551, -393.49731373786926, -201.0570216178894
 1.7063890351082845E9, -437.5383756160736, -441.3680331707001, -382.247694671154, -216.85435903072357
 1.7063890351082845E9, -504.07867562770844, -433.469364464283, -353.7646166086197, -290.33591336011887
 1.706389035123979E9, -386.0773522257805, -435.3841932415962, -381.7689874768257, -228.34333169460297
 1.706389035123979E9, -403.3108112215996, -446.3944587111473, -393.49731373786926, -192.91899931430817
 1.7063890351246636E9, -502.6425540447235, -432.7513036727905, -346.3446550965309, -264.0070176720619
 1.7063890351246636E9, -417.1933198571205, -417.1933198571205, -343.7117655277252, -238.15682917833328
 1.706389035138363E9, -357.11556696891785, -431.7938892841339, -381.05092668533325, -174.4887723326683
 1.706389035138363E9, -469.8511112332344, -429.1609997153282, -354.243323802948, -229.7794532775879
 1.70638903515403E9, -456.4473097920418, -416.47525906562805, -329.58990329504013, -259.21994572877884
 1.70638903515403E9, -354.48267740011215, -435.86290043592453, -383.4444626569748, -190.76481693983078
 1.706389035154648E9, -438.7351436018944, -442.804154753685, -374.82773315906525, -209.67375111579895
 1.706389035154648E9, -490.1961669921875, -417.6720270514488, -335.81309682130814, -272.14503997564316
 1.7063890351683726E9, -371.71613639593124, -423.17715978622437, -370.5193684101105, -220.68401658535004
 1.7063890351683726E9, -388.94959539175034, -437.0596684217453, -392.06119215488434, -197.4667176604271
 1.706389035183966E9, -495.9406533241272, -423.17715978622437, -339.6427543759346, -262.81024968624115
 1.706389035183966E9, -422.69845259189606, -426.5281101465225, -355.9187989830971, -248.92774105072021
 1.7063890351845777E9, -363.33876049518585, -434.66613245010376, -391.8218385577202, -184.06291621923447
 1.7063890351845777E9, -472.0052936077118, -429.6397069096565, -362.86005330085754, -239.35359716415405
 1.7063890351981616E9, -463.38856410980225, -424.134574174881, -340.6001687645912, -267.8366752266884
 1.7063890351981616E9, -359.5091029405594, -435.3841932415962, -382.4870482683182, -191.00417053699493
 1.706389035213838E9, -443.2828619480133, -443.7615691423416, -376.024501144886, -210.15245831012726
 1.706389035213838E9, -496.18000692129135, -426.0494029521942, -343.47241193056107, -281.7191838622093
 1.706389035214604E9, -388.7102417945862, -437.0596684217453, -380.09351229667664, -227.1465637087822
 1.706389035214604E9, -394.69408172369003, -438.4957900047302, -382.247694671154, -188.37128096818924
 1.7063890352286408E9, -505.99350440502167, -434.66613245010376, -348.4988374710083, -270.9482719898224
 1.7063890352286408E9, -420.54427021741867, -422.9378061890602, -353.0465558171272, -247.9703266620636
 1.7063890352438383E9, -366.92906445264816, -438.25643640756607, -392.3005457520485, -185.02033060789108
 1.7063890352438383E9, -480.3826695084572, -436.34160763025284, -358.7910421490669, -241.7471331357956
 1.7063890352445884E9, -469.8511112332344, -423.6558669805527, -340.6001687645912, -264.2463712692261
 1.7063890352445884E9, -353.0465558171272, -428.6822925209999, -382.247694671154, -183.10550183057785
 1.7063890352585845E9, -438.4957900047302, -437.77772921323776, -375.5457939505577, -212.30664068460464
 1.7063890352585845E9, -498.0948356986046, -426.5281101465225, -342.51499754190445, -277.6501727104187
 1.706389035274124E9, -384.4018770456314, -432.2725964784622, -373.6309651732445, -217.33306622505188
 1.706389035274124E9, -398.76309287548065, -443.04350835084915, -389.90700978040695, -191.96158492565155
 1.7063890352747831E9, -513.1741123199463, -440.1712651848793, -353.0465558171272, -272.3843935728073
 1.7063890352747831E9, -436.34160763025284, -439.692557990551, -371.4767827987671, -262.81024968624115
 1.706389035288132E9, -378.1786835193634, -453.3357130289078, -408.09788316488266, -200.5783144235611
 1.706389035288132E9, -494.5045317411423, -452.138945043087, -377.6999763250351, -260.8954209089279
 1.7063890353038511E9, -483.73361986875534, -444.00092273950577, -360.9452245235443, -286.26690220832825
 1.7063890353038511E9, -377.6999763250351, -451.42088425159454, -402.1140432357788, -211.58857989311218
 1.7063890353045633E9, -447.11251950263977, -449.9847626686096, -389.42830258607864, -225.71044212579727
 1.7063890353045633E9, -502.88190764188766, -434.18742525577545, -353.52526301145554, -288.42108458280563
 1.7063890353182614E9, -385.83799862861633, -436.34160763025284, -378.6573907136917, -227.6252709031105
 1.7063890353182614E9, -398.0450320839882, -442.56480115652084, -387.9921810030937, -195.79124248027802
 1.7063890353342092E9, -505.51479721069336, -432.7513036727905, -342.51499754190445, -271.18762558698654
 1.7063890353342092E9, -412.6456015110016, -419.10814863443375, -355.44009178876877, -246.77355867624283
 1.706389035334631E9, -362.38134610652924, -436.1022540330887, -386.5560594201088, -185.02033060789108
 1.706389035334631E9, -466.2608072757721, -423.8952205777168, -357.11556696891785, -241.7471331357956
 1.706389035348205E9, -452.85700583457947, -414.799783885479, -335.0950360298157, -267.1186144351959
 1.706389035348205E9, -356.15815258026123, -437.29902201890945, -387.27412021160126, -199.62090003490448
 1.7063890353805916E9, -432.9906572699547, -436.82031482458115, -379.13609790802, -219.72660219669342
 1.7063890353805916E9, -490.43552058935165, -424.85263496637344, -346.10530149936676, -291.0539741516113
 1.7063890353811011E9, -378.89674431085587, -430.59712129831314, -375.5457939505577, -232.65169644355774
 1.7063890353811011E9, -402.5927504301071, -451.42088425159454, -403.3108112215996, -209.19504392147064
 1.7063890353817594E9, -511.0199299454689, -439.692557990551, -354.7220309972763, -283.63401263952255
 1.7063890353817594E9, -427.7248781323433, -436.82031482458115, -367.40777164697647, -266.1612000465393
 1.7063890353825905E9, -377.6999763250351, -451.6602378487587, -406.1830543875694, -205.12603276968002
 1.7063890353825905E9, -490.43552058935165, -444.9583371281624, -372.4341971874237, -259.9380065202713
 1.7063890353931801E9, -468.65434324741364, -432.7513036727905, -357.11556696891785, -283.3946590423584
 1.7063890353931801E9, -356.63685977458954, -439.2138507962227, -392.06119215488434, -204.1686183810234
 1.7063890354082193E9, -438.0170828104019, -443.52221554517746, -382.247694671154, -220.68401658535004
 1.7063890354082193E9, -501.6851396560669, -435.6235468387604, -341.3182295560837, -286.74560940265656
 1.7063890354243824E9, -381.2902802824974, -433.9480716586113, -378.6573907136917, -227.38591730594635
 1.7063890354243824E9, -396.8482640981674, -440.6499723792076, -388.94959539175034, -197.22736406326294
 1.7063890354246335E9, -512.4560515284538, -438.97449719905853, -354.48267740011215, -276.93211191892624
 1.7063890354246335E9, -430.11841410398483, -433.23001086711884, -361.9026389122009, -260.4167137145996
 1.7063890354383621E9, -377.6999763250351, -447.11251950263977, -398.76309287548065, -195.07318168878555
 1.7063890354383621E9, -484.4516806602478, -440.6499723792076, -359.0303957462311, -247.73097306489944
 1.7063890354538603E9, -470.808525621891, -437.5383756160736, -353.2859094142914, -279.8043550848961
 1.7063890354538603E9, -366.45035725831985, -448.0699338912964, -397.3269712924957, -204.1686183810234
 1.706389035454592E9, -445.915751516819, -447.11251950263977, -384.16252344846725, -219.96595579385757
 1.706389035454592E9, -506.71156519651413, -438.0170828104019, -351.131727039814, -294.4049245119095
 1.7063890354682178E9, -393.7366673350334, -442.3254475593567, -383.9231698513031, -239.5929507613182
 1.7063890354682178E9, -410.73077273368835, -453.0963594317436, -398.28438568115234, -211.58857989311218
 1.7063890354840815E9, -513.4134659171104, -442.804154753685, -353.2859094142914, -285.5488414168358
 1.7063890354840815E9, -432.9906572699547, -440.1712651848793, -366.2110036611557, -268.07602882385254
 1.706389035484639E9, -377.2212691307068, -451.1815306544304, -400.43856805562973, -198.66348564624786
 1.706389035484639E9, -497.3767749071121, -454.2931274175644, -372.19484359025955, -262.81024968624115
 1.7063890354982443E9, -485.8878022432327, -443.7615691423416, -363.81746768951416, -292.01138854026794
 1.7063890354982443E9, -377.2212691307068, -448.5486410856247, -401.6353360414505, -215.89694464206696
 1.706389035514218E9, -459.79826015233994, -460.0376137495041, -392.7792529463768, -236.4813539981842
 1.706389035514218E9, -519.3973058462143, -449.26670187711716, -350.1743126511574, -301.1068252325058
 1.7063890355147166E9, -408.3372367620468, -456.68666338920593, -390.1463633775711, -244.61937630176544
 1.7063890355147166E9, -421.74103820323944, -462.1917961239815, -410.25206553936005, -219.48724859952927
 1.7063890355287528E9, -523.2269634008408, -452.37829864025116, -368.8438932299614, -294.8836317062378
 1.7063890355287528E9, -435.14483964443207, -442.08609396219254, -371.71613639593124, -270.70891839265823
 1.7063890355438707E9, -383.68381625413895, -455.7292490005493, -406.66176158189774, -210.63116550445557
 1.7063890355438707E9, -486.6058630347252, -443.52221554517746, -374.82773315906525, -267.59732162952423
 1.7063890355445707E9, -461.71308892965317, -430.357767701149, -350.89237344264984, -282.1978910565376
 1.7063890355445707E9, -370.5193684101105, -450.4634698629379, -400.43856805562973, -212.0672870874405
 1.706389035558236E9, -447.5912266969681, -449.26670187711716, -383.20510905981064, -229.06139248609543
 1.706389035558236E9, -498.5735428929329, -437.5383756160736, -349.69560545682907, -288.1817309856415
 1.7063890355741777E9, -374.34902596473694, -431.3151820898056, -377.6999763250351, -231.21557486057281
 1.7063890355741777E9, -395.17278891801834, -440.6499723792076, -393.97602093219757, -202.97185039520264
 1.706389035574712E9, -501.92449325323105, -431.7938892841339, -349.69560545682907, -279.0862942934036
 1.706389035574712E9, -414.5604302883148, -427.48552453517914, -358.3123349547386, -246.77355867624283
 1.7063890355882392E9, -364.5355284810066, -437.5383756160736, -384.8805842399597, -184.06291621923447
 1.7063890355882392E9, -483.25491267442703, -442.3254475593567, -363.57811409235, -246.05549788475037
 1.7063890356202557E9, -466.02145367860794, -430.11841410398483, -353.2859094142914, -276.93211191892624
 1.7063890356202557E9, -351.6104342341423, -432.7513036727905, -385.5986450314522, -192.2009385228157
 1.7063890356209323E9, -438.0170828104019, -439.93191158771515, -374.82773315906525, -214.22146946191788
 1.7063890356209323E9, -483.4942662715912, -418.3900878429413, -340.83952236175537, -281.47983026504517
 1.7063890356217244E9, -369.56195402145386, -429.6397069096565, -371.4767827987671, -219.96595579385757
 1.7063890356217244E9, -379.8541586995125, -424.37392777204514, -381.52963387966156, -196.74865686893463
 1.7063890356224992E9, -500.4883716702461, -432.2725964784622, -343.2330583333969, -273.82051515579224
 1.7063890356224992E9, -413.6030158996582, -425.33134216070175, -353.7646166086197, -244.8587298989296
 1.7063890356332371E9, -350.1743126511574, -426.5281101465225, -378.89674431085587, -176.40360110998154
 1.7063890356332371E9, -463.1492105126381, -423.4165133833885, -351.6104342341423, -238.87488996982574
 1.706389035648224E9, -453.8144202232361, -415.51784467697144, -328.39313530921936, -256.10834896564484
 1.706389035648224E9, -359.74845653772354, -437.29902201890945, -380.57221949100494, -196.03059607744217
 1.7063890356638947E9, -432.5119500756264, -435.14483964443207, -373.15225797891617, -215.1788838505745
 1.7063890356638947E9, -485.6484486460686, -425.81004935503006, -345.3872407078743, -282.1978910565376
 1.7063890356646569E9, -370.04066121578217, -427.48552453517914, -370.04066121578217, -216.85435903072357
 1.7063890356646569E9, -389.6676561832428, -438.25643640756607, -388.7102417945862, -196.98801046609879
 1.7063890356785913E9, -482.53685188293457, -420.7836238145828, -346.8233622908592, -270.2302111983299
 1.7063890356785913E9, -392.53989934921265, -407.61917597055435, -342.7543511390686, -235.5239396095276
 1.706389035694144E9, -347.78077667951584, -427.48552453517914, -387.9921810030937, -179.7545514702797
 1.706389035694144E9, -454.7718346118927, -419.3475022315979, -343.9511191248894, -235.04523241519928
 1.7063890356949108E9, -430.357767701149, -402.5927504301071, -324.32412415742874, -251.5606306195259
 1.7063890356949108E9, -323.84541696310043, -409.77335834503174, -360.466517329216, -167.06881082057953
 1.706389035708247E9, -400.6779216527939, -407.61917597055435, -346.8233622908592, -185.25968420505524
 1.706389035708247E9, -460.75567454099655, -396.8482640981674, -309.0054939389229, -252.27869141101837
 1.7063890357238815E9, -346.8233622908592, -407.8585295677185, -343.7117655277252, -194.59447449445724
 1.7063890357238815E9, -364.29617488384247, -412.6456015110016, -359.5091029405594, -165.6326892375946
 1.706389035724612E9, -460.5163209438324, -392.06119215488434, -312.1170907020569, -238.15682917833328
 1.706389035724612E9, -373.87031877040863, -389.6676561832428, -329.350549697876, -222.59884536266327
 1.7063890357547376E9, -319.53705221414566, -401.1566288471222, -364.7748820781708, -159.4094957113266
 1.7063890357547376E9, -424.85263496637344, -390.38571697473526, -327.1963673233986, -220.20530939102173
 1.7063890357553744E9, -404.50757920742035, -382.72640186548233, -311.6383835077286, -241.26842594146729
 1.7063890357553744E9, -309.9629083275795, -405.2256399989128, -364.7748820781708, -174.9674795269966
 1.7063890357560272E9, -383.68381625413895, -397.0876176953316, -353.0465558171272, -192.91899931430817
 1.7063890357560272E9, -433.70871806144714, -381.05092668533325, -304.2184219956398, -247.73097306489944
 1.7063890357682023E9, -330.54731768369675, -398.5237392783165, -348.73819106817245, -201.5357288122177
 1.7063890357682023E9, -356.8762133717537, -411.9275407195091, -366.2110036611557, -174.24941873550415
 1.7063890357840257E9, -458.60149216651917, -395.65149611234665, -322.16994178295135, -251.0819234251976
 1.7063890357840257E9, -380.8115730881691, -397.3269712924957, -336.77051120996475, -231.21557486057281
 1.706389035784574E9, -333.18020725250244, -413.1243087053299, -376.7425619363785, -174.72812592983246
 1.706389035784574E9, -437.5383756160736, -405.2256399989128, -334.8556824326515, -221.16272377967834
 1.706389035798212E9, -420.54427021741867, -398.76309287548065, -326.4783065319061, -257.06576335430145
 1.706389035798212E9, -326.238952934742, -410.4914191365242, -367.40777164697647, -179.51519787311554
 1.7063890358141782E9, -420.3049166202545, -423.17715978622437, -358.55168855190277, -204.88667917251587
 1.7063890358141782E9, -459.0801993608475, -398.0450320839882, -309.0054939389229, -251.32127702236176
 1.706389035814581E9, -342.7543511390686, -402.35339683294296, -341.796936750412, -187.17451298236847
 1.706389035814581E9, -364.7748820781708, -408.8159439563751, -354.7220309972763, -163.71786046028137
 1.7063890358285432E9, -452.138945043087, -388.470888197422, -315.2286874651909, -247.73097306489944
 1.7063890358285432E9, -372.912904381752, -393.49731373786926, -324.32412415742874, -223.07755255699158
 1.70638903584399E9, -326.238952934742, -404.98628640174866, -361.4239317178726, -164.19656765460968
 1.70638903584399E9, -438.97449719905853, -401.39598244428635, -331.02602487802505, -224.75302773714066
 1.706389035844723E9, -422.4590989947319, -398.76309287548065, -324.0847705602646, -252.03933781385422
 1.706389035844723E9, -331.50473207235336, -420.7836238145828, -381.05092668533325, -196.26994967460632
 1.7063890358581867E9, -428.2035853266716, -434.66613245010376, -372.19484359025955, -216.85435903072357
 1.7063890358581867E9, -475.83495116233826, -418.3900878429413, -331.98343926668167, -271.4269791841507
 1.7063890358740308E9, -352.32849502563477, -420.06556302309036, -368.12583243846893, -216.37565183639526
 1.7063890358740308E9, -380.09351229667664, -432.7513036727905, -381.2902802824974, -185.9777449965477
 1.7063890358745468E9, -496.4193605184555, -427.7248781323433, -343.47241193056107, -270.9482719898224
 1.7063890358745468E9, -416.2359054684639, -434.18742525577545, -367.6471252441406, -260.4167137145996
 1.7063890358881981E9, -361.6632853150368, -438.25643640756607, -393.49731373786926, -194.11576730012894
 1.7063890358881981E9, -459.0801993608475, -419.58685582876205, -359.9878101348877, -246.53420507907867
 1.7063890359033127E9, -432.03324288129807, -404.50757920742035, -331.7440856695175, -261.85283529758453
 1.7063890359033127E9, -314.0319194793701, -404.2682256102562, -361.6632853150368, -177.6003690958023
 1.7063890359193623E9, -457.16537058353424, -402.1140432357788, -319.2976986169815, -263.5283104777336
 1.7063890359193623E9, -331.98343926668167, -394.69408172369003, -342.2756439447403, -192.2009385228157
 1.7063890359341545E9, -353.0465558171272, -402.5927504301071, -357.11556696891785, -171.3771755695343
 1.7063890359341545E9, -465.0640392899513, -403.55016481876373, -317.6222234368324, -249.40644824504852
 1.7063890359345984E9, -381.52963387966156, -400.43856805562973, -332.2227928638458, -226.6678565144539
 1.7063890359345984E9, -326.7176601290703, -403.0714576244354, -359.74845653772354, -164.19656765460968
 1.7063890359489076E9, -447.83058029413223, -406.4224079847336, -331.98343926668167, -227.6252709031105
 1.7063890359489076E9, -421.74103820323944, -400.43856805562973, -323.12735617160797, -247.01291227340698
 1.7063890359496205E9, -324.32412415742874, -411.20947992801666, -372.4341971874237, -178.55778348445892
 1.7063890359496205E9, -415.51784467697144, -430.357767701149, -374.82773315906525, -219.48724859952927
 1.7063890359632103E9, -459.3195529580116, -404.02887201309204, -328.6324889063835, -272.14503997564316
 1.7063890359632103E9, -349.21689826250076, -423.8952205777168, -372.4341971874237, -219.96595579385757
 1.7063890359789166E9, -382.00834107398987, -434.18742525577545, -388.470888197422, -202.97185039520264
 1.7063890359789166E9, -493.7864709496498, -430.357767701149, -349.21689826250076, -273.82051515579224
 1.7063890359795785E9, -408.3372367620468, -426.0494029521942, -358.07298135757446, -250.36386263370514
 1.7063890359795785E9, -360.22716373205185, -436.580961227417, -397.0876176953316, -193.63706010580063
 1.7063890359933753E9, -482.05814468860626, -444.2402763366699, -368.3651860356331, -262.570896089077
 1.7063890359933753E9, -457.8834313750267, -432.7513036727905, -352.0891414284706, -275.25663673877716
 1.7063890360093167E9, -367.40777164697647, -454.53248101472855, -405.46499359607697, -213.50340867042542
 1.7063890360093167E9, -452.6176522374153, -453.57506662607193, -400.43856805562973, -242.2258403301239
 1.7063890360098698E9, -494.7438853383064, -435.3841932415962, -348.25948387384415, -286.9849629998207
 1.7063890360098698E9, -392.53989934921265, -454.05377382040024, -398.0450320839882, -239.5929507613182
 1.7063890360232785E9, -427.96423172950745, -469.61175763607025, -421.26233100891113, -225.71044212579727
 1.7063890360232785E9, -527.2959745526314, -458.362138569355, -365.7322964668274, -286.26690220832825
 1.706389036038916E9, -457.8834313750267, -473.920122385025, -403.0714576244354, -290.0965597629547
 1.706389036038916E9, -425.0919885635376, -500.4883716702461, -444.00092273950577, -234.08781802654266
 1.7063890360396388E9, -556.257759809494, -508.8657475709915, -420.06556302309036, -301.1068252325058
 1.7063890360396388E9, -547.8803839087486, -514.8495875000954, -424.37392777204514, -338.92469358444214
 1.706389036053312E9, -470.3298184275627, -551.4706878662109, -480.62202310562134, -273.82051515579224
 1.706389036053312E9, -582.8260090947151, -574.4486331939697, -484.69103425741196, -311.87773710489273
 1.7063890360689375E9, -648.1695411205292, -577.3208763599396, -457.8834313750267, -382.247694671154
 1.7063890360689375E9, -553.14616304636, -602.6923576593399, -512.4560515284538, -339.6427543759346
 1.7063890360696304E9, -589.2885562181473, -622.3193526268005, -544.7687871456146, -342.51499754190445
 1.7063890360696304E9, -707.7685868144035, -618.9684022665024, -507.4296259880066, -410.73077273368835
 1.7063890360997288E9, -621.1225846409798, -619.4471094608307, -514.3708803057671, -378.6573907136917
 1.7063890360997288E9, -582.3473019003868, -638.595397233963, -556.4971134066582, -331.98343926668167
 1.7063890361002944E9, -700.8273324966431, -638.8347508311272, -527.7746817469597, -400.43856805562973
 1.7063890361002944E9, -673.3016688227654, -631.6541429162025, -517.9611842632294, -427.96423172950745
 1.706389036101044E9, -571.5763900279999, -640.7495796084404, -557.4545277953148, -347.0627158880234
 1.706389036101044E9, -655.1107954382896, -640.5102260112762, -545.2474943399429, -376.7425619363785
 1.7063890361132216E9, -704.4176364541054, -634.7657396793365, -513.8921731114388, -437.0596684217453
 1.7063890361132216E9, -585.2195450663567, -638.595397233963, -546.922969520092, -374.34902596473694
 1.7063890361292531E9, -610.8303799629211, -638.595397233963, -554.8216382265091, -360.9452245235443
 1.7063890361292531E9, -717.5820842981339, -631.4147893190384, -509.3444547653198, -426.5281101465225
 1.7063890361296315E9, -614.1813303232193, -623.037413418293, -515.5676482915878, -390.38571697473526
 1.7063890361296315E9, -564.3957821130753, -626.6277173757553, -556.9758206009865, -348.4988374710083
 1.7063890361435173E9, -680.7216303348541, -620.4045238494873, -512.4560515284538, -393.49731373786926
 1.7063890361435173E9, -651.5204914808273, -612.5058551430702, -498.81289649009705, -411.9275407195091
 1.70638903615891E9, -545.0081407427788, -619.925816655159, -543.811372756958, -332.46214646101
 1.70638903615891E9, -626.3883637785912, -622.0799990296364, -524.9024385809898, -359.74845653772354
 1.7063890361596186E9, -680.9609839320183, -617.0535734891891, -494.9832389354706, -419.3475022315979
 1.7063890361596186E9, -566.3106108903885, -621.3619382381439, -530.6469249129295, -367.1684180498123
 1.7063890361732795E9, -592.4001529812813, -630.4573749303818, -540.9391295909882, -340.6001687645912
 1.7063890361732795E9, -695.0828461647034, -619.2077558636665, -499.5309572815895, -417.911380648613
 1.706389036189218E9, -601.7349432706833, -611.3090871572495, -515.3282946944237, -391.3431313633919
 1.706389036189218E9, -556.9758206009865, -625.6703029870987, -545.0081407427788, -329.1111961007118
 1.7063890361897752E9, -663.0094641447067, -613.9419767260551, -508.14768677949905, -386.5560594201088
 1.7063890361897752E9, -638.1166900396347, -603.4104184508324, -489.47810620069504, -400.91727524995804
 1.7063890362032092E9, -524.4237313866615, -603.1710648536682, -525.141792178154, -316.42545545101166
 1.7063890362032092E9, -608.6761975884438, -597.6659321188927, -510.5412227511406, -351.6104342341423
 1.706389036219097E9, -654.153381049633, -588.809849023819, -475.35624396800995, -398.0450320839882
 1.706389036219097E9, -525.8598529696465, -584.7408378720284, -489.2387526035309, -322.4092953801155
 1.7063890362196543E9, -552.1887486577034, -590.485324203968, -505.03609001636505, -304.45777559280396
 1.7063890362196543E9, -649.6056627035141, -578.7569979429245, -463.1492105126381, -377.46062272787094
 1.7063890362332213E9, -554.3429310321808, -562.7203069329262, -467.696928858757, -344.908533513546
 1.7063890362332213E9, -502.88190764188766, -568.9435004591942, -495.9406533241272, -285.0701342225075
 1.7063890362488987E9, -623.2767670154572, -570.6189756393433, -457.4047241806984, -340.83952236175537
 1.7063890362488987E9, -590.2459706068039, -556.0184062123299, -444.9583371281624, -355.9187989830971
 1.7063890362495952E9, -487.80263102054596, -567.5073788762093, -488.0419846177101, -282.1978910565376
 1.7063890362495952E9, -573.9699259996414, -567.7467324733734, -469.3724040389061, -307.3300187587738
 1.7063890362635589E9, -622.3193526268005, -558.4119421839714, -440.1712651848793, -371.71613639593124
 1.7063890362635589E9, -498.5735428929329, -557.6938813924789, -469.13305044174194, -301.34617882966995
 1.7063890362792957E9, -522.2695490121841, -560.0874173641205, -477.031719148159, -278.6075870990753
 1.7063890362792957E9, -628.7818997502327, -552.4281022548676, -439.45320439338684, -357.8336277604103
 1.7063890362796702E9, -540.4604223966599, -552.1887486577034, -454.2931274175644, -332.70150005817413
 1.7063890362796702E9, -486.84521663188934, -554.5822846293449, -481.8187910914421, -263.5283104777336
 1.7063890362931952E9, -597.9052857160568, -548.8377982974052, -444.00092273950577, -320.73382019996643
 1.7063890362931952E9, -565.8319036960602, -533.0404608845711, -427.00681734085083, -342.99370473623276
 1.7063890363089595E9, -455.48989540338516, -536.6307648420334, -464.34597849845886, -262.0921888947487
 1.7063890363089595E9, -548.3590911030769, -539.5030080080032, -449.26670187711716, -286.74560940265656
 1.7063890363096128E9, -592.4001529812813, -528.9714497327805, -418.62944144010544, -353.0465558171272
 1.7063890363096128E9, -472.72335439920425, -529.9288641214371, -449.74540907144547, -280.52241587638855
 1.7063890363234968E9, -495.70129972696304, -533.7585216760635, -450.7028234601021, -254.91158097982407
 1.7063890363234968E9, -593.8362745642662, -518.4398914575577, -408.09788316488266, -334.13762164115906
 1.706389036338884E9, -500.0096644759178, -511.9773443341255, -419.58685582876205, -305.41518998146057
 1.706389036338884E9, -456.9260169863701, -522.03019541502, -457.8834313750267, -249.64580184221268
 1.706389036339579E9, -572.0550972223282, -518.2005378603935, -416.47525906562805, -308.5267867445946
 1.706389036339579E9, -541.6571903824806, -506.9509187936783, -404.2682256102562, -323.12735617160797
 1.7063890363535402E9, -440.41061878204346, -514.3708803057671, -445.915751516819, -247.01291227340698
 1.7063890363535402E9, -525.8598529696465, -516.7644162774086, -430.11841410398483, -271.66633278131485
 1.7063890363690915E9, -572.7731580138206, -503.5999684333801, -393.97602093219757, -333.4195608496666
 1.7063890363690915E9, -458.8408457636833, -513.6528195142746, -433.70871806144714, -267.8366752266884
 1.7063890363696098E9, -479.42525511980057, -521.7908418178558, -441.3680331707001, -245.3374370932579
 1.7063890363696098E9, -585.698252260685, -506.47221159935, -406.66176158189774, -327.6750745177269
 1.7063890363833268E9, -489.95681339502335, -509.82316195964813, -415.51784467697144, -297.75587487220764
 1.7063890363833268E9, -449.9847626686096, -526.0992065668106, -450.94217705726624, -242.94390112161636
 1.7063890363988845E9, -560.0874173641205, -506.9509187936783, -413.1243087053299, -306.3726043701172
 1.7063890363988845E9, -525.6204993724823, -497.85548210144043, -402.1140432357788, -318.57963782548904
 1.7063890363995588E9, -427.96423172950745, -509.3444547653198, -438.7351436018944, -234.08781802654266
 1.7063890363995588E9, -512.695405125618, -511.0199299454689, -426.5281101465225, -267.1186144351959
 1.7063890364133875E9, -556.9758206009865, -495.9406533241272, -390.38571697473526, -328.39313530921936
 1.7063890364133875E9, -436.82031482458115, -498.0948356986046, -428.6822925209999, -262.570896089077
 1.7063890364288936E9, -475.35624396800995, -514.1315267086029, -444.4796299338341, -251.0819234251976
 1.7063890364288936E9, -570.140268445015, -494.5045317411423, -395.8908497095108, -323.3667097687721
 1.7063890364295733E9, -480.3826695084572, -491.6322885751724, -407.3798223733902, -289.85720616579056
 1.7063890364295733E9, -436.1022540330887, -501.6851396560669, -438.97449719905853, -232.65169644355774
 1.706389036443396E9, -541.4178367853165, -488.28133821487427, -399.4811536669731, -288.1817309856415
 1.706389036443396E9, -513.1741123199463, -484.21232706308365, -387.9921810030937, -308.04807955026627
 1.7063890364588685E9, -412.40624791383743, -486.36650943756104, -429.40035331249237, -227.38591730594635
 1.7063890364588685E9, -497.3767749071121, -494.2651781439781, -410.0127119421959, -254.91158097982407
 1.7063890364595926E9, -540.699775993824, -478.46784073114395, -376.98191553354263, -319.53705221414566
 1.7063890364595926E9, -432.5119500756264, -484.21232706308365, -416.95396625995636, -255.86899536848068
 1.706389036473447E9, -450.4634698629379, -487.0845702290535, -423.17715978622437, -229.7794532775879
 1.706389036473447E9, -552.4281022548676, -485.4090950489044, -386.0773522257805, -316.6648090481758
 1.706389036488902E9, -452.6176522374153, -472.9627079963684, -394.69408172369003, -275.4959903359413
 1.706389036488902E9, -409.5340047478676, -479.42525511980057, -426.28875654935837, -218.7691878080368
 1.7063890364895935E9, -518.6792450547218, -470.3298184275627, -388.2315346002579, -279.56500148773193
 1.7063890364895935E9, -490.6748741865158, -464.1066249012947, -370.7587220072746, -293.2081565260887
 1.7063890365032728E9, -396.8482640981674, -478.7071943283081, -418.62944144010544, -222.12013816833496
 1.7063890365032728E9, -483.25491267442703, -474.39882957935333, -398.28438568115234, -244.14066910743713
 1.706389036518883E9, -525.6204993724823, -466.50016087293625, -365.49294286966324, -304.93648278713226
 1.706389036518883E9, -413.6030158996582, -469.3724040389061, -404.98628640174866, -240.78971874713898
 1.7063890365195627E9, -444.9583371281624, -480.3826695084572, -415.7571982741356, -222.12013816833496
 1.7063890365195627E9, -542.1358975768089, -463.38856410980225, -368.3651860356331, -295.60169249773026
 1.7063890365332427E9, -442.804154753685, -459.0801993608475, -381.52963387966156, -267.3579680323601
 1.7063890365332427E9, -403.7895184159279, -477.51042634248734, -413.1243087053299, -209.4343975186348
 1.7063890365493324E9, -519.6366594433784, -470.56917202472687, -376.98191553354263, -275.4959903359413
 1.7063890365493324E9, -493.3077637553215, -460.9950281381607, -370.2800148129463, -293.9262173175812
 1.7063890365497043E9, -391.58248496055603, -473.20206159353256, -413.6030158996582, -216.61500543355942
 1.7063890365497043E9, -482.2974982857704, -474.39882957935333, -396.3695569038391, -245.8161442875862
 1.7063890365631576E9, -520.8334274291992, -457.4047241806984, -367.40777164697647, -304.6971291899681
 1.7063890365631576E9, -405.46499359607697, -463.1492105126381, -402.83210402727127, -240.78971874713898
 1.7063890365790193E9, -436.1022540330887, -472.0052936077118, -406.66176158189774, -219.2478950023651
 1.7063890365790193E9, -530.6469249129295, -459.3195529580116, -365.2535892724991, -296.798460483551
 1.7063890365796556E9, -444.2402763366699, -458.12278497219086, -378.41803711652756, -266.6399072408676
 1.7063890365796556E9, -398.5237392783165, -461.23438173532486, -408.57659035921097, -203.92926478385925
 1.706389036593665E9, -518.6792450547218, -466.97886806726456, -379.8541586995125, -268.3153824210167
 1.706389036593665E9, -486.84521663188934, -457.16537058353424, -361.4239317178726, -288.1817309856415
 1.7063890366093502E9, -385.83799862861633, -466.97886806726456, -409.0552975535393, -213.50340867042542
 1.7063890366093502E9, -464.1066249012947, -453.8144202232361, -385.5986450314522, -234.56652522087097
 1.7063890366098473E9, -513.4134659171104, -448.0699338912964, -357.354920566082, -297.0378140807152
 1.7063890366098473E9, -402.83210402727127, -462.43114972114563, -400.1992144584656, -242.94390112161636
 1.70638903662318E9, -429.8790605068207, -471.5265864133835, -404.98628640174866, -217.8117734193802
 1.70638903662318E9, -528.253388941288, -455.01118820905685, -365.7322964668274, -293.44751012325287
 1.7063890366390617E9, -437.29902201890945, -449.5060554742813, -376.024501144886, -255.86899536848068
 1.7063890366390617E9, -389.42830258607864, -457.16537058353424, -408.09788316488266, -199.14219284057617
 1.7063890366396053E9, -498.81289649009705, -446.3944587111473, -374.34902596473694, -272.8631007671356
 1.7063890366396053E9, -470.808525621891, -443.04350835084915, -360.466517329216, -284.59142702817917
 1.706389036653192E9, -368.8438932299614, -455.7292490005493, -405.9437007904053, -207.04086154699326
 1.706389036653192E9, -464.1066249012947, -457.4047241806984, -387.0347666144371, -237.19941478967667
 1.7063890366691031E9, -509.3444547653198, -449.74540907144547, -358.3123349547386, -292.7294493317604
 1.7063890366691031E9, -402.83210402727127, -464.1066249012947, -399.9598608613014, -237.67812198400497
 1.7063890366696904E9, -432.9906572699547, -469.8511112332344, -407.61917597055435, -218.2904806137085
 1.7063890366696904E9, -533.7585216760635, -454.53248101472855, -367.6471252441406, -296.798460483551
 1.7063890366834102E9, -432.2725964784622, -454.05377382040024, -378.6573907136917, -261.3741281032562
 1.7063890366834102E9, -397.5663248896599, -467.696928858757, -414.799783885479, -207.2802151441574
 1.7063890366989217E9, -506.9509187936783, -458.60149216651917, -375.30644035339355, -271.66633278131485
 1.7063890366989217E9, -477.031719148159, -452.138945043087, -368.3651860356331, -288.1817309856415
 1.706389036699639E9, -378.6573907136917, -459.0801993608475, -416.95396625995636, -220.44466298818588
 1.706389036699639E9, -467.9362824559212, -460.75567454099655, -392.06119215488434, -243.90131551027298
 1.7063890367131753E9, -512.695405125618, -451.1815306544304, -359.74845653772354, -294.4049245119095
 1.7063890367131753E9, -388.470888197422, -450.4634698629379, -390.86442416906357, -227.6252709031105
 1.7063890367292347E9, -423.8952205777168, -463.6279177069664, -397.5663248896599, -219.2478950023651
