%OpenBCI Raw EXG Data
%Number of channels = 4
%Sample Rate = 200 Hz
%Board = OpenBCI_GUI$BoardGanglionBLE
Sample Index, EXG Channel 0, EXG Channel 1, EXG Channel 2, EXG Channel 3, Accel Channel 0, Accel Channel 1, Accel Channel 2, Other, Other, Other, Other, Other, Timestamp, Other, Timestamp (Formatted)
47.0, -216.1362982392311, -537.58817923069, -1919.3764956593513, -179.27584427595139, 0.0, 0.0, 0.0, 0.0, 0.0, 0.0, 0.0, 0.0, 1.7075957583140943E9, 0.0, 2024-02-10 15:09:18.314
47.0, 0.0, 0.0, 0.0, 0.0, 0.0, 0.0, 0.0, 0.0, 0.0, 0.0, 0.0, 0.0, 1.7075957583140943E9, 0.0, 2024-02-10 15:09:18.314
0.0, -236.24200040102005, -611.3090871572495, -2021.5804816484451, -215.1788838505745, 0.0, 0.0, 1.008000047877431, 0.0, 0.0, 0.0, 0.0, 0.0, 1.7075957583531084E9, 0.0, 2024-02-10 15:09:18.353
0.0, -228.34333169460297, -499.5309572815895, -1832.2517862915993, -164.91462844610214, 0.0, 0.0, 1.008000047877431, 0.0, 0.0, 0.0, 0.0, 0.0, 1.7075957583531084E9, 0.0, 2024-02-10 15:09:18.353
1.0, -230.7368676662445, -622.3193526268005, -1993.336757183075, -221.16272377967834, 0.0, -1.008000047877431, 1.008000047877431, 0.0, 0.0, 0.0, 0.0, 0.0, 1.7075957583678608E9, 0.0, 2024-02-10 15:09:18.367
1.0, -250.84256982803345, -651.5204914808273, -2074.9563338160515, -229.54009968042374, 0.0, -1.008000047877431, 1.008000047877431, 0.0, 0.0, 0.0, 0.0, 0.0, 1.7075957583678608E9, 0.0, 2024-02-10 15:09:18.367
2.0, -269.2727968096733, -542.8539583683014, -1880.8405665159225, -169.94105398654938, -1.008000047877431, -1.008000047877431, 1.008000047877431, 0.0, 0.0, 0.0, 0.0, 0.0, 1.7075957583822536E9, 0.0, 2024-02-10 15:09:18.382
2.0, -250.12450903654099, -592.1607993841171, -1918.4190812706947, -191.48287773132324, -1.008000047877431, -1.008000047877431, 1.008000047877431, 0.0, 0.0, 0.0, 0.0, 0.0, 1.7075957583822536E9, 0.0, 2024-02-10 15:09:18.382
3.0, -257.7838241457939, -696.5189677476883, -2105.354240655899, -237.67812198400497, -1.008000047877431, -1.008000047877431, 1.008000047877431, 0.0, 0.0, 0.0, 0.0, 0.0, 1.7075957583829882E9, 0.0, 2024-02-10 15:09:18.382
3.0, -273.3418079614639, -577.7995835542679, -1951.6892312765121, -178.79713708162308, -1.008000047877431, -1.008000047877431, 1.008000047877431, 0.0, 0.0, 0.0, 0.0, 0.0, 1.7075957583829882E9, 0.0, 2024-02-10 15:09:18.382
4.0, -253.7148129940033, -548.1197375059128, -1865.7612898945808, -173.5313579440117, -1.008000047877431, -1.008000047877431, 1.008000047877431, 0.0, 0.0, 0.0, 0.0, 0.0, 1.707595758396567E9, 0.0, 2024-02-10 15:09:18.396
4.0, -254.43287378549576, -681.6790447235107, -2068.254433095455, -236.72070759534836, -1.008000047877431, -1.008000047877431, 1.008000047877431, 0.0, 0.0, 0.0, 0.0, 0.0, 1.707595758396567E9, 0.0, 2024-02-10 15:09:18.396
5.0, -266.87926083803177, -624.2341814041138, -2020.1443600654602, -198.90283924341202, -1.008000047877431, -1.008000047877431, 1.008000047877431, 0.0, 0.0, 0.0, 0.0, 0.0, 1.7075957584124067E9, 0.0, 2024-02-10 15:09:18.412
5.0, -263.76766407489777, -518.918598651886, -1846.3736485242844, -167.30816441774368, -1.008000047877431, -1.008000047877431, 1.008000047877431, 0.0, 0.0, 0.0, 0.0, 0.0, 1.7075957584124067E9, 0.0, 2024-02-10 15:09:18.412
6.0, -250.36386263370514, -638.595397233963, -2002.4321938753128, -220.9233701825142, -1.008000047877431, -1.008000047877431, 1.008000047877431, 0.0, 0.0, 0.0, 0.0, 0.0, 1.7075957584130082E9, 0.0, 2024-02-10 15:09:18.413
6.0, -263.28895688056946, -666.1210609078407, -2079.9827593564987, -215.89694464206696, -1.008000047877431, -1.008000047877431, 1.008000047877431, 0.0, 0.0, 0.0, 0.0, 0.0, 1.7075957584130082E9, 0.0, 2024-02-10 15:09:18.413
7.0, -270.4695647954941, -542.8539583683014, -1885.3882848620415, -159.4094957113266, -1.008000047877431, -1.008000047877431, 1.008000047877431, 0.0, 0.0, 0.0, 0.0, 0.0, 1.7075957584267368E9, 0.0, 2024-02-10 15:09:18.426
7.0, -250.84256982803345, -587.6130810379982, -1919.1371420621872, -201.77508240938187, -1.008000047877431, -1.008000047877431, 1.008000047877431, 0.0, 0.0, 0.0, 0.0, 0.0, 1.7075957584267368E9, 0.0, 2024-02-10 15:09:18.426
8.0, -256.347702562809, -687.1841774582863, -2097.694925546646, -243.18325471878052, -1.008000047877431, -1.008000047877431, 1.008000047877431, 0.0, 0.0, 0.0, 0.0, 0.0, 1.7075957584422812E9, 0.0, 2024-02-10 15:09:18.442
8.0, -261.6134817004204, -577.3208763599396, -1957.673071205616, -183.344855427742, -1.008000047877431, -1.008000047877431, 1.008000047877431, 0.0, 0.0, 0.0, 0.0, 0.0, 1.7075957584422812E9, 0.0, 2024-02-10 15:09:18.442
9.0, -244.61937630176544, -543.0933119654655, -1872.9418978095055, -186.456452190876, -1.008000047877431, -1.008000047877431, 1.008000047877431, 0.0, 0.0, 0.0, 0.0, 0.0, 1.70759575844315E9, 0.0, 2024-02-10 15:09:18.443
9.0, -242.7045475244522, -654.8714418411255, -2047.670023739338, -236.4813539981842, -1.008000047877431, -1.008000047877431, 1.008000047877431, 0.0, 0.0, 0.0, 0.0, 0.0, 1.70759575844315E9, 0.0, 2024-02-10 15:09:18.443
10.0, -257.06576335430145, -627.8244853615761, -2039.7713550329208, -213.50340867042542, -1.008000047877431, -1.008000047877431, 0.6240000296384096, 0.0, 0.0, 0.0, 0.0, 0.0, 1.7075957584566472E9, 0.0, 2024-02-10 15:09:18.456
10.0, -260.17736011743546, -527.2959745526314, -1857.1445603966713, -170.41976118087769, -1.008000047877431, -1.008000047877431, 0.6240000296384096, 0.0, 0.0, 0.0, 0.0, 0.0, 1.7075957584566472E9, 0.0, 2024-02-10 15:09:18.456
11.0, -245.3374370932579, -640.9889332056046, -2005.5437906384468, -234.32717162370682, -1.008000047877431, -0.6240000296384096, 0.6240000296384096, 0.0, 0.0, 0.0, 0.0, 0.0, 1.707595758472778E9, 0.0, 2024-02-10 15:09:18.472
11.0, -254.6722273826599, -659.6585137844086, -2075.913748204708, -231.21557486057281, -1.008000047877431, -0.6240000296384096, 0.6240000296384096, 0.0, 0.0, 0.0, 0.0, 0.0, 1.707595758472778E9, 0.0, 2024-02-10 15:09:18.472
12.0, -267.59732162952423, -539.7423616051674, -1885.1489312648773, -178.55778348445892, -0.6240000296384096, -0.6240000296384096, 0.6240000296384096, 0.0, 0.0, 0.0, 0.0, 0.0, 1.7075957584730823E9, 0.0, 2024-02-10 15:09:18.473
12.0, -246.05549788475037, -589.0492026209831, -1932.5409435033798, -212.0672870874405, -0.6240000296384096, -0.6240000296384096, 0.6240000296384096, 0.0, 0.0, 0.0, 0.0, 0.0, 1.7075957584730823E9, 0.0, 2024-02-10 15:09:18.473
13.0, -255.15093457698822, -695.5615533590317, -2102.9607046842575, -241.02907234430313, -0.6240000296384096, -0.6240000296384096, 0.6240000296384096, 0.0, 0.0, 0.0, 0.0, 0.0, 1.7075957584866452E9, 0.0, 2024-02-10 15:09:18.486
13.0, -257.7838241457939, -567.2680252790451, -1942.8331481814384, -185.4990378022194, -0.6240000296384096, -0.6240000296384096, 0.6240000296384096, 0.0, 0.0, 0.0, 0.0, 0.0, 1.7075957584866452E9, 0.0, 2024-02-10 15:09:18.486
14.0, -236.72070759534836, -541.4178367853165, -1872.223837018013, -187.17451298236847, -0.6240000296384096, -0.6240000296384096, 0.6240000296384096, 0.0, 0.0, 0.0, 0.0, 0.0, 1.7075957585023344E9, 0.0, 2024-02-10 15:09:18.502
14.0, -241.50777953863144, -675.6952047944069, -2075.913748204708, -245.3374370932579, -0.6240000296384096, -0.6240000296384096, 0.6240000296384096, 0.0, 0.0, 0.0, 0.0, 0.0, 1.7075957585023344E9, 0.0, 2024-02-10 15:09:18.502
15.0, -260.8954209089279, -625.1915957927704, -2031.8726863265038, -217.09371262788773, -0.6240000296384096, -0.6240000296384096, 0.6240000296384096, 0.0, 0.0, 0.0, 0.0, 0.0, 1.7075957585029976E9, 0.0, 2024-02-10 15:09:18.502
15.0, -253.236105799675, -519.3973058462143, -1849.9639524817467, -177.36101549863815, -0.6240000296384096, -0.6240000296384096, 0.6240000296384096, 0.0, 0.0, 0.0, 0.0, 0.0, 1.7075957585029976E9, 0.0, 2024-02-10 15:09:18.502
16.0, -233.3697572350502, -630.9360821247101, -2006.7405586242676, -228.82203888893127, -0.6240000296384096, -0.6240000296384096, 0.6240000296384096, 0.0, 0.0, 0.0, 0.0, 0.0, 1.7075957585166786E9, 0.0, 2024-02-10 15:09:18.516
16.0, -250.6032162308693, -661.5733425617218, -2080.9401737451553, -226.90721011161804, -0.6240000296384096, -0.6240000296384096, 0.6240000296384096, 0.0, 0.0, 0.0, 0.0, 0.0, 1.7075957585166786E9, 0.0, 2024-02-10 15:09:18.516
17.0, -253.47545939683914, -523.7056705951691, -1877.9683233499527, -175.44618672132492, -0.6240000296384096, -0.6240000296384096, 0.6240000296384096, 0.0, 0.0, 0.0, 0.0, 0.0, 1.707595758532663E9, 0.0, 2024-02-10 15:09:18.532
17.0, -233.13040363788605, -578.5176443457603, -1925.3603355884552, -207.75892233848572, -0.6240000296384096, -0.6240000296384096, 0.6240000296384096, 0.0, 0.0, 0.0, 0.0, 0.0, 1.707595758532663E9, 0.0, 2024-02-10 15:09:18.532
18.0, -248.68838745355606, -691.2531886100769, -2106.3116550445557, -245.3374370932579, -0.6240000296384096, -0.6240000296384096, 0.6240000296384096, 0.0, 0.0, 0.0, 0.0, 0.0, 1.707595758533105E9, 0.0, 2024-02-10 15:09:18.533
18.0, -264.0070176720619, -572.0550972223282, -1953.125352859497, -194.59447449445724, -0.6240000296384096, -0.6240000296384096, 0.6240000296384096, 0.0, 0.0, 0.0, 0.0, 0.0, 1.707595758533105E9, 0.0, 2024-02-10 15:09:18.533
19.0, -252.51804500818253, -546.4442623257637, -1875.0960801839828, -194.59447449445724, -0.6240000296384096, -0.6240000296384096, 0.6240000296384096, 0.0, 0.0, 0.0, 0.0, 0.0, 1.7075957585466392E9, 0.0, 2024-02-10 15:09:18.546
19.0, -243.90131551027298, -685.0299950838089, -2074.7169802188873, -243.66196191310883, -0.6240000296384096, -0.6240000296384096, 0.6240000296384096, 0.0, 0.0, 0.0, 0.0, 0.0, 1.7075957585466392E9, 0.0, 2024-02-10 15:09:18.546
20.0, -239.5929507613182, -607.479429602623, -2012.006337761879, -193.87641370296478, -0.6240000296384096, -0.6240000296384096, 0.8160000387579203, 0.0, 0.0, 0.0, 0.0, 0.0, 1.7075957585624385E9, 0.0, 2024-02-10 15:09:18.562
20.0, -231.45492845773697, -502.1638468503952, -1826.2679463624954, -152.70759499073029, -0.6240000296384096, -0.6240000296384096, 0.8160000387579203, 0.0, 0.0, 0.0, 0.0, 0.0, 1.7075957585624385E9, 0.0, 2024-02-10 15:09:18.562
21.0, -230.01880687475204, -639.5528116226196, -2007.6979730129242, -229.54009968042374, -0.6240000296384096, -0.8160000387579203, 0.8160000387579203, 0.0, 0.0, 0.0, 0.0, 0.0, 1.707595758562984E9, 0.0, 2024-02-10 15:09:18.562
21.0, -248.4490338563919, -659.6585137844086, -2077.589223384857, -224.75302773714066, -0.6240000296384096, -0.8160000387579203, 0.8160000387579203, 0.0, 0.0, 0.0, 0.0, 0.0, 1.707595758562984E9, 0.0, 2024-02-10 15:09:18.562
22.0, -248.20968025922775, -519.8760130405426, -1870.3090082406998, -167.54751801490784, -0.8160000387579203, -0.8160000387579203, 0.8160000387579203, 0.0, 0.0, 0.0, 0.0, 0.0, 1.7075957585766127E9, 0.0, 2024-02-10 15:09:18.576
22.0, -233.60911083221436, -581.3898875117302, -1922.9667996168137, -210.15245831012726, -0.8160000387579203, -0.8160000387579203, 0.8160000387579203, 0.0, 0.0, 0.0, 0.0, 0.0, 1.7075957585766127E9, 0.0, 2024-02-10 15:09:18.576
23.0, -241.98648673295975, -681.2003375291824, -2106.790362238884, -243.42260831594467, -0.8160000387579203, -0.8160000387579203, 0.8160000387579203, 0.0, 0.0, 0.0, 0.0, 0.0, 1.7075957585923183E9, 0.0, 2024-02-10 15:09:18.592
23.0, -254.1935201883316, -558.8906493782997, -1945.22668415308, -183.58420902490616, -0.8160000387579203, -0.8160000387579203, 0.8160000387579203, 0.0, 0.0, 0.0, 0.0, 0.0, 1.7075957585923183E9, 0.0, 2024-02-10 15:09:18.592
24.0, -226.18914932012558, -531.364985704422, -1864.325168311596, -178.79713708162308, -0.8160000387579203, -0.8160000387579203, 0.8160000387579203, 0.0, 0.0, 0.0, 0.0, 0.0, 1.7075957585930336E9, 0.0, 2024-02-10 15:09:18.593
24.0, -232.17298924922943, -660.1372209787369, -2065.142836332321, -240.55036514997482, -0.8160000387579203, -0.8160000387579203, 0.8160000387579203, 0.0, 0.0, 0.0, 0.0, 0.0, 1.7075957585930336E9, 0.0, 2024-02-10 15:09:18.593
25.0, -264.0070176720619, -626.8670709729195, -2025.4101392030716, -211.10987269878387, -0.8160000387579203, -0.8160000387579203, 0.8160000387579203, 0.0, 0.0, 0.0, 0.0, 0.0, 1.7075957586067808E9, 0.0, 2024-02-10 15:09:18.606
25.0, -243.18325471878052, -513.6528195142746, -1837.996272623539, -161.80303168296814, -0.8160000387579203, -0.8160000387579203, 0.8160000387579203, 0.0, 0.0, 0.0, 0.0, 0.0, 1.7075957586067808E9, 0.0, 2024-02-10 15:09:18.606
26.0, -224.75302773714066, -630.9360821247101, -1996.687707543373, -218.52983421087265, -0.8160000387579203, -0.8160000387579203, 0.8160000387579203, 0.0, 0.0, 0.0, 0.0, 0.0, 1.7075957586223643E9, 0.0, 2024-02-10 15:09:18.622
26.0, -244.3800227046013, -653.4353202581406, -2073.0415050387383, -221.8807845711708, -0.8160000387579203, -0.8160000387579203, 0.8160000387579203, 0.0, 0.0, 0.0, 0.0, 0.0, 1.7075957586223643E9, 0.0, 2024-02-10 15:09:18.622
27.0, -247.01291227340698, -521.0727810263634, -1875.8141409754753, -168.02622520923615, -0.8160000387579203, -0.8160000387579203, 0.8160000387579203, 0.0, 0.0, 0.0, 0.0, 0.0, 1.7075957586231658E9, 0.0, 2024-02-10 15:09:18.623
27.0, -227.38591730594635, -578.5176443457603, -1931.5835291147232, -205.84409356117249, -0.8160000387579203, -0.8160000387579203, 0.8160000387579203, 0.0, 0.0, 0.0, 0.0, 0.0, 1.7075957586231658E9, 0.0, 2024-02-10 15:09:18.623
28.0, -243.42260831594467, -684.5512878894806, -2103.2000582814217, -248.20968025922775, -0.8160000387579203, -0.8160000387579203, 0.8160000387579203, 0.0, 0.0, 0.0, 0.0, 0.0, 1.7075957586366327E9, 0.0, 2024-02-10 15:09:18.636
28.0, -253.95416659116745, -568.70414686203, -1952.1679384708405, -189.32869535684586, -0.8160000387579203, -0.8160000387579203, 0.8160000387579203, 0.0, 0.0, 0.0, 0.0, 0.0, 1.7075957586366327E9, 0.0, 2024-02-10 15:09:18.636
29.0, -237.91747558116913, -542.6146047711372, -1871.9844834208488, -185.73839139938354, -0.8160000387579203, -0.8160000387579203, 0.8160000387579203, 0.0, 0.0, 0.0, 0.0, 0.0, 1.7075957586523497E9, 0.0, 2024-02-10 15:09:18.652
29.0, -230.97622126340866, -664.6849393248558, -2071.366029858589, -248.20968025922775, -0.8160000387579203, -0.8160000387579203, 0.8160000387579203, 0.0, 0.0, 0.0, 0.0, 0.0, 1.7075957586523497E9, 0.0, 2024-02-10 15:09:18.652
30.0, -251.32127702236176, -621.3619382381439, -2026.128199994564, -217.8117734193802, -0.8160000387579203, -0.8160000387579203, 0.9120000433176756, 0.0, 0.0, 0.0, 0.0, 0.0, 1.707595758653068E9, 0.0, 2024-02-10 15:09:18.653
30.0, -241.26842594146729, -512.695405125618, -1842.0652837753296, -177.36101549863815, -0.8160000387579203, -0.8160000387579203, 0.9120000433176756, 0.0, 0.0, 0.0, 0.0, 0.0, 1.707595758653068E9, 0.0, 2024-02-10 15:09:18.653
31.0, -222.59884536266327, -626.8670709729195, -2006.2618514299393, -228.34333169460297, -0.8160000387579203, -0.9120000433176756, 0.9120000433176756, 0.0, 0.0, 0.0, 0.0, 0.0, 1.707595758666612E9, 0.0, 2024-02-10 15:09:18.666
31.0, -243.66196191310883, -657.264977812767, -2074.238273024559, -230.7368676662445, -0.8160000387579203, -0.9120000433176756, 0.9120000433176756, 0.0, 0.0, 0.0, 0.0, 0.0, 1.707595758666612E9, 0.0, 2024-02-10 15:09:18.666
32.0, -243.66196191310883, -523.2269634008408, -1877.4896161556244, -171.8558827638626, -0.9120000433176756, -0.9120000433176756, 0.9120000433176756, 0.0, 0.0, 0.0, 0.0, 0.0, 1.7075957586834624E9, 0.0, 2024-02-10 15:09:18.683
32.0, -216.61500543355942, -571.3370364308357, -1924.6422747969627, -205.60473996400833, -0.9120000433176756, -0.9120000433176756, 0.9120000433176756, 0.0, 0.0, 0.0, 0.0, 0.0, 1.7075957586834624E9, 0.0, 2024-02-10 15:09:18.683
33.0, -232.8910500407219, -681.4396911263466, -2096.9768647551537, -246.77355867624283, -0.9120000433176756, -0.9120000433176756, 0.9120000433176756, 0.0, 0.0, 0.0, 0.0, 0.0, 1.707595758683545E9, 0.0, 2024-02-10 15:09:18.683
33.0, -249.16709464788437, -561.5235389471054, -1939.2428442239761, -185.25968420505524, -0.9120000433176756, -0.9120000433176756, 0.9120000433176756, 0.0, 0.0, 0.0, 0.0, 0.0, 1.707595758683545E9, 0.0, 2024-02-10 15:09:18.683
34.0, -225.94979572296143, -535.4339968562126, -1868.3941794633865, -190.76481693983078, -0.9120000433176756, -0.9120000433176756, 0.9120000433176756, 0.0, 0.0, 0.0, 0.0, 0.0, 1.7075957586969757E9, 0.0, 2024-02-10 15:09:18.696
34.0, -222.83819895982742, -669.4720112681389, -2060.116410791874, -242.94390112161636, -0.9120000433176756, -0.9120000433176756, 0.9120000433176756, 0.0, 0.0, 0.0, 0.0, 0.0, 1.7075957586969757E9, 0.0, 2024-02-10 15:09:18.696
35.0, -241.7471331357956, -615.6174519062042, -2015.5966417193413, -213.98211586475372, -0.9120000433176756, -0.9120000433176756, 0.9120000433176756, 0.0, 0.0, 0.0, 0.0, 0.0, 1.7075957587127907E9, 0.0, 2024-02-10 15:09:18.712
35.0, -227.86462450027466, -504.55738282203674, -1841.107869386673, -179.27584427595139, -0.9120000433176756, -0.9120000433176756, 0.9120000433176756, 0.0, 0.0, 0.0, 0.0, 0.0, 1.7075957587127907E9, 0.0, 2024-02-10 15:09:18.712
36.0, -228.1039780974388, -597.4265785217285, -1967.7259222865105, -223.07755255699158, -0.9120000433176756, -0.9120000433176756, 0.9120000433176756, 0.0, 0.0, 0.0, 0.0, 0.0, 1.7075957587132676E9, 0.0, 2024-02-10 15:09:18.713
36.0, -236.0026468038559, -625.9096565842628, -2026.3675535917282, -225.71044212579727, -0.9120000433176756, -0.9120000433176756, 0.9120000433176756, 0.0, 0.0, 0.0, 0.0, 0.0, 1.7075957587132676E9, 0.0, 2024-02-10 15:09:18.713
37.0, -214.93953025341034, -554.5822846293449, -1933.4983578920364, -193.15835291147232, -0.9120000433176756, -0.9120000433176756, 0.9120000433176756, 0.0, 0.0, 0.0, 0.0, 0.0, 1.7075957587268884E9, 0.0, 2024-02-10 15:09:18.726
37.0, -232.8910500407219, -583.5440698862076, -1944.0299161672592, -213.26405507326126, -0.9120000433176756, -0.9120000433176756, 0.9120000433176756, 0.0, 0.0, 0.0, 0.0, 0.0, 1.7075957587268884E9, 0.0, 2024-02-10 15:09:18.726
38.0, -240.78971874713898, -626.8670709729195, -2022.5378960371017, -226.42850291728973, -0.9120000433176756, -0.9120000433176756, 0.9120000433176756, 0.0, 0.0, 0.0, 0.0, 0.0, 1.7075957587422976E9, 0.0, 2024-02-10 15:09:18.742
38.0, -228.34333169460297, -587.8524346351624, -1967.2472150921822, -204.1686183810234, -0.9120000433176756, -0.9120000433176756, 0.9120000433176756, 0.0, 0.0, 0.0, 0.0, 0.0, 1.7075957587422976E9, 0.0, 2024-02-10 15:09:18.742
39.0, -226.90721011161804, -573.7305724024773, -1933.9770650863647, -207.99827593564987, -0.9120000433176756, -0.9120000433176756, 0.9120000433176756, 0.0, 0.0, 0.0, 0.0, 0.0, 1.707595758743062E9, 0.0, 2024-02-10 15:09:18.743
39.0, -251.32127702236176, -630.2180213332176, -2023.4953104257584, -236.4813539981842, -0.9120000433176756, -0.9120000433176756, 0.9120000433176756, 0.0, 0.0, 0.0, 0.0, 0.0, 1.707595758743062E9, 0.0, 2024-02-10 15:09:18.743
40.0, -240.78971874713898, -604.8465400338173, -2007.45861941576, -218.05112701654434, -0.9120000433176756, -0.9120000433176756, 0.9600000455975533, 0.0, 0.0, 0.0, 0.0, 0.0, 1.7075957587567675E9, 0.0, 2024-02-10 15:09:18.756
40.0, -222.83819895982742, -560.3267709612846, -1922.9667996168137, -191.00417053699493, -0.9120000433176756, -0.9120000433176756, 0.9600000455975533, 0.0, 0.0, 0.0, 0.0, 0.0, 1.7075957587567675E9, 0.0, 2024-02-10 15:09:18.756
41.0, -231.93363565206528, -598.6233465075493, -1972.5129942297935, -208.71633672714233, -0.9120000433176756, -0.9600000455975533, 0.9600000455975533, 0.0, 0.0, 0.0, 0.0, 0.0, 1.7075957587724268E9, 0.0, 2024-02-10 15:09:18.772
41.0, -233.13040363788605, -614.4206839203835, -2012.2456913590431, -221.4020773768425, -0.9120000433176756, -0.9600000455975533, 0.9600000455975533, 0.0, 0.0, 0.0, 0.0, 0.0, 1.7075957587724268E9, 0.0, 2024-02-10 15:09:18.772
42.0, -205.60473996400833, -546.922969520092, -1928.4719323515892, -187.17451298236847, -0.9600000455975533, -0.9600000455975533, 0.9600000455975533, 0.0, 0.0, 0.0, 0.0, 0.0, 1.7075957587731478E9, 0.0, 2024-02-10 15:09:18.773
42.0, -221.4020773768425, -570.140268445015, -1939.4821978211403, -196.03059607744217, -0.9600000455975533, -0.9600000455975533, 0.9600000455975533, 0.0, 0.0, 0.0, 0.0, 0.0, 1.7075957587731478E9, 0.0, 2024-02-10 15:09:18.773
43.0, -230.49751406908035, -615.1387447118759, -2011.0489233732224, -216.61500543355942, -0.9600000455975533, -0.9600000455975533, 0.9600000455975533, 0.0, 0.0, 0.0, 0.0, 0.0, 1.7075957587866027E9, 0.0, 2024-02-10 15:09:18.786
43.0, -205.12603276968002, -561.2841853499413, -1952.6466456651688, -196.98801046609879, -0.9600000455975533, -0.9600000455975533, 0.9600000455975533, 0.0, 0.0, 0.0, 0.0, 0.0, 1.7075957587866027E9, 0.0, 2024-02-10 15:09:18.786
44.0, -206.08344715833664, -547.1623231172562, -1921.2913244366646, -190.04675614833832, -0.9600000455975533, -0.9600000455975533, 0.9600000455975533, 0.0, 0.0, 0.0, 0.0, 0.0, 1.7075957588023207E9, 0.0, 2024-02-10 15:09:18.802
44.0, -231.69428205490112, -615.6174519062042, -2000.2780115008354, -217.8117734193802, -0.9600000455975533, -0.9600000455975533, 0.9600000455975533, 0.0, 0.0, 0.0, 0.0, 0.0, 1.7075957588023207E9, 0.0, 2024-02-10 15:09:18.802
45.0, -227.6252709031105, -594.5543353557587, -1986.1561492681503, -201.5357288122177, -0.9600000455975533, -0.9600000455975533, 0.9600000455975533, 0.0, 0.0, 0.0, 0.0, 0.0, 1.7075957588030424E9, 0.0, 2024-02-10 15:09:18.803
45.0, -203.2112039923668, -542.1358975768089, -1907.4088158011436, -177.36101549863815, -0.9600000455975533, -0.9600000455975533, 0.9600000455975533, 0.0, 0.0, 0.0, 0.0, 0.0, 1.7075957588030424E9, 0.0, 2024-02-10 15:09:18.803
46.0, -223.31690615415573, -584.0227770805359, -1968.443983078003, -209.4343975186348, -0.9600000455975533, -0.9600000455975533, 0.9600000455975533, 0.0, 0.0, 0.0, 0.0, 0.0, 1.7075957588166046E9, 0.0, 2024-02-10 15:09:18.816
46.0, -217.8117734193802, -596.2298105359077, -2000.0386579036713, -205.12603276968002, -0.9600000455975533, -0.9600000455975533, 0.9600000455975533, 0.0, 0.0, 0.0, 0.0, 0.0, 1.7075957588166046E9, 0.0, 2024-02-10 15:09:18.816
47.0, -207.04086154699326, -553.6248702406883, -1922.9667996168137, -186.93515938520432, -0.9600000455975533, -0.9600000455975533, 0.9600000455975533, 0.0, 0.0, 0.0, 0.0, 0.0, 1.707595758832302E9, 0.0, 2024-02-10 15:09:18.832
47.0, -221.4020773768425, -573.4912188053131, -1940.9183194041252, -206.08344715833664, -0.9600000455975533, -0.9600000455975533, 0.9600000455975533, 0.0, 0.0, 0.0, 0.0, 0.0, 1.707595758832302E9, 0.0, 2024-02-10 15:09:18.832
48.0, -232.65169644355774, -611.0697335600853, -2017.5114704966545, -216.37565183639526, -0.9600000455975533, -0.9600000455975533, 0.9600000455975533, 0.0, 0.0, 0.0, 0.0, 0.0, 1.707595758833009E9, 0.0, 2024-02-10 15:09:18.833
48.0, -209.9131047129631, -563.1990141272545, -1954.8008280396461, -193.63706010580063, -0.9600000455975533, -0.9600000455975533, 0.9600000455975533, 0.0, 0.0, 0.0, 0.0, 0.0, 1.707595758833009E9, 0.0, 2024-02-10 15:09:18.833
49.0, -211.82793349027634, -553.3855166435242, -1920.8126172423363, -187.65322017669678, -0.9600000455975533, -0.9600000455975533, 0.9600000455975533, 0.0, 0.0, 0.0, 0.0, 0.0, 1.7075957588467133E9, 0.0, 2024-02-10 15:09:18.846
49.0, -225.71044212579727, -608.1974903941154, -1999.559950709343, -214.70017665624619, -0.9600000455975533, -0.9600000455975533, 0.9600000455975533, 0.0, 0.0, 0.0, 0.0, 0.0, 1.7075957588467133E9, 0.0, 2024-02-10 15:09:18.846
50.0, -220.44466298818588, -590.0066170096397, -1987.5922708511353, -206.56215435266495, -0.9600000455975533, -0.9600000455975533, 0.9760000463575125, 0.0, 0.0, 0.0, 0.0, 0.0, 1.7075957588625233E9, 0.0, 2024-02-10 15:09:18.862
50.0, -211.34922629594803, -540.4604223966599, -1909.562998175621, -188.37128096818924, -0.9600000455975533, -0.9600000455975533, 0.9760000463575125, 0.0, 0.0, 0.0, 0.0, 0.0, 1.7075957588625233E9, 0.0, 2024-02-10 15:09:18.862
51.0, -232.17298924922943, -597.4265785217285, -1970.119458258152, -214.93953025341034, -0.9600000455975533, -0.9760000463575125, 0.9760000463575125, 0.0, 0.0, 0.0, 0.0, 0.0, 1.7075957588630717E9, 0.0, 2024-02-10 15:09:18.863
51.0, -237.19941478967667, -614.6600375175476, -2014.3998737335205, -223.79561334848404, -0.9600000455975533, -0.9760000463575125, 0.9760000463575125, 0.0, 0.0, 0.0, 0.0, 0.0, 1.7075957588630717E9, 0.0, 2024-02-10 15:09:18.863
52.0, -215.41823744773865, -558.6512957811356, -1934.455772280693, -196.03059607744217, -0.9760000463575125, -0.9760000463575125, 0.9760000463575125, 0.0, 0.0, 0.0, 0.0, 0.0, 1.7075957588767693E9, 0.0, 2024-02-10 15:09:18.876
52.0, -224.27432054281235, -581.8685947060585, -1950.2531096935272, -208.47698312997818, -0.9760000463575125, -0.9760000463575125, 0.9760000463575125, 0.0, 0.0, 0.0, 0.0, 0.0, 1.7075957588767693E9, 0.0, 2024-02-10 15:09:18.876
53.0, -234.56652522087097, -617.5322806835175, -2025.6494928002357, -228.34333169460297, -0.9760000463575125, -0.9760000463575125, 0.9760000463575125, 0.0, 0.0, 0.0, 0.0, 0.0, 1.70759575889262E9, 0.0, 2024-02-10 15:09:18.892
53.0, -214.46082305908203, -571.0976828336716, -1954.561474442482, -195.3125352859497, -0.9760000463575125, -0.9760000463575125, 0.9760000463575125, 0.0, 0.0, 0.0, 0.0, 0.0, 1.70759575889262E9, 0.0, 2024-02-10 15:09:18.892
54.0, -210.15245831012726, -557.4545277953148, -1915.5468381047249, -182.62679463624954, -0.9760000463575125, -0.9760000463575125, 0.9760000463575125, 0.0, 0.0, 0.0, 0.0, 0.0, 1.707595758893148E9, 0.0, 2024-02-10 15:09:18.893
54.0, -227.38591730594635, -604.367832839489, -1993.8154643774033, -210.63116550445557, -0.9760000463575125, -0.9760000463575125, 0.9760000463575125, 0.0, 0.0, 0.0, 0.0, 0.0, 1.707595758893148E9, 0.0, 2024-02-10 15:09:18.893
55.0, -216.37565183639526, -584.5014842748642, -1977.5394197702408, -201.77508240938187, -0.9760000463575125, -0.9760000463575125, 0.9760000463575125, 0.0, 0.0, 0.0, 0.0, 0.0, 1.7075957589069796E9, 0.0, 2024-02-10 15:09:18.906
55.0, -197.4667176604271, -538.3062400221825, -1903.339804649353, -177.36101549863815, -0.9760000463575125, -0.9760000463575125, 0.9760000463575125, 0.0, 0.0, 0.0, 0.0, 0.0, 1.7075957589069796E9, 0.0, 2024-02-10 15:09:18.906
56.0, -231.21557486057281, -596.4691641330719, -1973.4704086184502, -213.0247014760971, -0.9760000463575125, -0.9760000463575125, 0.9760000463575125, 0.0, 0.0, 0.0, 0.0, 0.0, 1.7075957589226134E9, 0.0, 2024-02-10 15:09:18.922
56.0, -230.01880687475204, -607.2400760054588, -2006.2618514299393, -211.10987269878387, -0.9760000463575125, -0.9760000463575125, 0.9760000463575125, 0.0, 0.0, 0.0, 0.0, 0.0, 1.7075957589226134E9, 0.0, 2024-02-10 15:09:18.922
57.0, -199.14219284057617, -539.5030080080032, -1915.5468381047249, -184.06291621923447, -0.9760000463575125, -0.9760000463575125, 0.9760000463575125, 0.0, 0.0, 0.0, 0.0, 0.0, 1.7075957589231243E9, 0.0, 2024-02-10 15:09:18.923
57.0, -218.52983421087265, -569.6615612506866, -1936.6099546551704, -202.97185039520264, -0.9760000463575125, -0.9760000463575125, 0.9760000463575125, 0.0, 0.0, 0.0, 0.0, 0.0, 1.7075957589231243E9, 0.0, 2024-02-10 15:09:18.923
58.0, -231.21557486057281, -614.4206839203835, -2012.2456913590431, -222.12013816833496, -0.9760000463575125, -0.9760000463575125, 0.9760000463575125, 0.0, 0.0, 0.0, 0.0, 0.0, 1.7075957589370964E9, 0.0, 2024-02-10 15:09:18.937
58.0, -207.99827593564987, -568.9435004591942, -1946.662805736065, -187.17451298236847, -0.9760000463575125, -0.9760000463575125, 0.9760000463575125, 0.0, 0.0, 0.0, 0.0, 0.0, 1.7075957589370964E9, 0.0, 2024-02-10 15:09:18.937
59.0, -217.33306622505188, -560.5661245584488, -1925.120981991291, -202.73249679803848, -0.9760000463575125, -0.9760000463575125, 0.9760000463575125, 0.0, 0.0, 0.0, 0.0, 0.0, 1.707595758952754E9, 0.0, 2024-02-10 15:09:18.952
59.0, -235.04523241519928, -610.3516727685928, -2004.347022652626, -224.5136741399765, -0.9760000463575125, -0.9760000463575125, 0.9760000463575125, 0.0, 0.0, 0.0, 0.0, 0.0, 1.707595758952754E9, 0.0, 2024-02-10 15:09:18.952
60.0, -222.83819895982742, -593.596920967102, -1984.241320490837, -200.0996072292328, -0.9760000463575125, -0.9760000463575125, 0.9920000471174717, 0.0, 0.0, 0.0, 0.0, 0.0, 1.7075957589532056E9, 0.0, 2024-02-10 15:09:18.953
60.0, -207.04086154699326, -547.6410303115845, -1912.4352413415909, -193.63706010580063, -0.9760000463575125, -0.9760000463575125, 0.9920000471174717, 0.0, 0.0, 0.0, 0.0, 0.0, 1.7075957589532056E9, 0.0, 2024-02-10 15:09:18.953
61.0, -233.3697572350502, -591.921445786953, -1978.018126964569, -220.68401658535004, -0.9760000463575125, -0.9920000471174717, 0.9920000471174717, 0.0, 0.0, 0.0, 0.0, 0.0, 1.70759575896702E9, 0.0, 2024-02-10 15:09:18.967
61.0, -233.3697572350502, -609.6336119771004, -2008.1766802072525, -222.59884536266327, -0.9760000463575125, -0.9920000471174717, 0.9920000471174717, 0.0, 0.0, 0.0, 0.0, 0.0, 1.70759575896702E9, 0.0, 2024-02-10 15:09:18.967
62.0, -212.0672870874405, -554.1035774350166, -1924.4029211997986, -188.37128096818924, -0.9920000471174717, -0.9920000471174717, 0.9920000471174717, 0.0, 0.0, 0.0, 0.0, 0.0, 1.7075957589827583E9, 0.0, 2024-02-10 15:09:18.982
62.0, -220.9233701825142, -565.592550098896, -1934.6951258778572, -198.18477845191956, -0.9920000471174717, -0.9920000471174717, 0.9920000471174717, 0.0, 0.0, 0.0, 0.0, 0.0, 1.7075957589827583E9, 0.0, 2024-02-10 15:09:18.982
63.0, -236.24200040102005, -612.9845623373985, -2010.570216178894, -215.6575910449028, -0.9920000471174717, -0.9920000471174717, 0.9920000471174717, 0.0, 0.0, 0.0, 0.0, 0.0, 1.707595758983179E9, 0.0, 2024-02-10 15:09:18.983
63.0, -214.70017665624619, -572.0550972223282, -1950.9711704850197, -189.32869535684586, -0.9920000471174717, -0.9920000471174717, 0.9920000471174717, 0.0, 0.0, 0.0, 0.0, 0.0, 1.707595758983179E9, 0.0, 2024-02-10 15:09:18.983
64.0, -205.36538636684418, -546.2049087285995, -1912.9139485359192, -187.41386657953262, -0.9920000471174717, -0.9920000471174717, 0.9920000471174717, 0.0, 0.0, 0.0, 0.0, 0.0, 1.7075957589966114E9, 0.0, 2024-02-10 15:09:18.996
64.0, -223.07755255699158, -600.0594680905342, -1996.687707543373, -215.1788838505745, -0.9920000471174717, -0.9920000471174717, 0.9920000471174717, 0.0, 0.0, 0.0, 0.0, 0.0, 1.7075957589966114E9, 0.0, 2024-02-10 15:09:18.996
65.0, -217.09371262788773, -584.5014842748642, -1986.8742100596428, -207.04086154699326, -0.9920000471174717, -0.9920000471174717, 0.9920000471174717, 0.0, 0.0, 0.0, 0.0, 0.0, 1.707595759012314E9, 0.0, 2024-02-10 15:09:19.012
65.0, -208.71633672714233, -540.699775993824, -1910.7597661614418, -186.93515938520432, -0.9920000471174717, -0.9920000471174717, 0.9920000471174717, 0.0, 0.0, 0.0, 0.0, 0.0, 1.707595759012314E9, 0.0, 2024-02-10 15:09:19.012
66.0, -229.54009968042374, -600.2988216876984, -1972.9917014241219, -218.7691878080368, -0.9920000471174717, -0.9920000471174717, 0.9920000471174717, 0.0, 0.0, 0.0, 0.0, 0.0, 1.707595759013046E9, 0.0, 2024-02-10 15:09:19.013
66.0, -232.65169644355774, -612.9845623373985, -2013.9211665391922, -221.4020773768425, -0.9920000471174717, -0.9920000471174717, 0.9920000471174717, 0.0, 0.0, 0.0, 0.0, 0.0, 1.707595759013046E9, 0.0, 2024-02-10 15:09:19.013
67.0, -226.90721011161804, -569.1828540563583, -1945.4660377502441, -205.36538636684418, -0.9920000471174717, -0.9920000471174717, 0.9920000471174717, 0.0, 0.0, 0.0, 0.0, 0.0, 1.7075957590266244E9, 0.0, 2024-02-10 15:09:19.026
67.0, -240.31101155281067, -594.5543353557587, -1959.348546385765, -219.00854140520096, -0.9920000471174717, -0.9920000471174717, 0.9920000471174717, 0.0, 0.0, 0.0, 0.0, 0.0, 1.7075957590266244E9, 0.0, 2024-02-10 15:09:19.026
68.0, -243.90131551027298, -633.5689716935158, -2033.0694543123245, -242.7045475244522, -0.9920000471174717, -0.9920000471174717, 0.9920000471174717, 0.0, 0.0, 0.0, 0.0, 0.0, 1.7075957590428255E9, 0.0, 2024-02-10 15:09:19.042
68.0, -232.8910500407219, -598.8627001047134, -1980.890370130539, -220.44466298818588, -0.9920000471174717, -0.9920000471174717, 0.9920000471174717, 0.0, 0.0, 0.0, 0.0, 0.0, 1.7075957590428255E9, 0.0, 2024-02-10 15:09:19.042
69.0, -240.55036514997482, -589.7672634124756, -1950.2531096935272, -222.12013816833496, -0.9920000471174717, -0.9920000471174717, 0.9920000471174717, 0.0, 0.0, 0.0, 0.0, 0.0, 1.7075957590434072E9, 0.0, 2024-02-10 15:09:19.043
69.0, -268.07602882385254, -657.264977812767, -2043.6010125875473, -259.21994572877884, -0.9920000471174717, -0.9920000471174717, 0.9920000471174717, 0.0, 0.0, 0.0, 0.0, 0.0, 1.7075957590434072E9, 0.0, 2024-02-10 15:09:19.043
70.0, -254.6722273826599, -631.4147893190384, -2028.2823823690414, -241.02907234430313, -0.9920000471174717, -0.9920000471174717, 1.008000047877431, 0.0, 0.0, 0.0, 0.0, 0.0, 1.7075957590566263E9, 0.0, 2024-02-10 15:09:19.056
70.0, -252.27869141101837, -598.3839929103851, -1956.7156568169594, -223.55625975131989, -0.9920000471174717, -0.9920000471174717, 1.008000047877431, 0.0, 0.0, 0.0, 0.0, 0.0, 1.7075957590566263E9, 0.0, 2024-02-10 15:09:19.056
71.0, -264.7250784635544, -647.6908339262009, -2009.6128017902374, -241.7471331357956, -0.9920000471174717, -1.008000047877431, 1.008000047877431, 0.0, 0.0, 0.0, 0.0, 0.0, 1.7075957590724666E9, 0.0, 2024-02-10 15:09:19.072
71.0, -266.1612000465393, -656.0682098269463, -2041.2074766159058, -240.07165795564651, -0.9920000471174717, -1.008000047877431, 1.008000047877431, 0.0, 0.0, 0.0, 0.0, 0.0, 1.7075957590724666E9, 0.0, 2024-02-10 15:09:19.072
72.0, -242.2258403301239, -587.8524346351624, -1961.2633751630783, -214.22146946191788, -1.008000047877431, -1.008000047877431, 1.008000047877431, 0.0, 0.0, 0.0, 0.0, 0.0, 1.7075957590732508E9, 0.0, 2024-02-10 15:09:19.073
72.0, -253.236105799675, -603.8891256451607, -1972.9917014241219, -230.49751406908035, -1.008000047877431, -1.008000047877431, 1.008000047877431, 0.0, 0.0, 0.0, 0.0, 0.0, 1.7075957590732508E9, 0.0, 2024-02-10 15:09:19.073
73.0, -262.33154249191284, -657.9830386042595, -2051.020974099636, -247.9703266620636, -1.008000047877431, -1.008000047877431, 1.008000047877431, 0.0, 0.0, 0.0, 0.0, 0.0, 1.7075957590866573E9, 0.0, 2024-02-10 15:09:19.086
73.0, -240.07165795564651, -603.1710648536682, -1982.565845310688, -219.48724859952927, -1.008000047877431, -1.008000047877431, 1.008000047877431, 0.0, 0.0, 0.0, 0.0, 0.0, 1.7075957590866573E9, 0.0, 2024-02-10 15:09:19.086
74.0, -250.36386263370514, -593.1182137727737, -1949.0563417077065, -221.8807845711708, -1.008000047877431, -1.008000047877431, 1.008000047877431, 0.0, 0.0, 0.0, 0.0, 0.0, 1.70759575910231E9, 0.0, 2024-02-10 15:09:19.102
74.0, -261.6134817004204, -647.4514803290367, -2029.7185039520264, -245.3374370932579, -1.008000047877431, -1.008000047877431, 1.008000047877431, 0.0, 0.0, 0.0, 0.0, 0.0, 1.70759575910231E9, 0.0, 2024-02-10 15:09:19.102
75.0, -251.32127702236176, -627.8244853615761, -2010.0915089845657, -228.1039780974388, -1.008000047877431, -1.008000047877431, 1.008000047877431, 0.0, 0.0, 0.0, 0.0, 0.0, 1.7075957591030095E9, 0.0, 2024-02-10 15:09:19.103
75.0, -237.67812198400497, -584.7408378720284, -1945.9447449445724, -214.93953025341034, -1.008000047877431, -1.008000047877431, 1.008000047877431, 0.0, 0.0, 0.0, 0.0, 0.0, 1.7075957591030095E9, 0.0, 2024-02-10 15:09:19.103
76.0, -269.2727968096733, -635.0050932765007, -2009.6128017902374, -245.09808349609375, -1.008000047877431, -1.008000047877431, 1.008000047877431, 0.0, 0.0, 0.0, 0.0, 0.0, 1.7075957591166003E9, 0.0, 2024-02-10 15:09:19.116
76.0, -261.13477450609207, -647.6908339262009, -2037.3778190612793, -240.31101155281067, -1.008000047877431, -1.008000047877431, 1.008000047877431, 0.0, 0.0, 0.0, 0.0, 0.0, 1.7075957591166003E9, 0.0, 2024-02-10 15:09:19.116
77.0, -247.73097306489944, -599.3414072990417, -1966.7685078978539, -221.64143097400665, -1.008000047877431, -1.008000047877431, 1.008000047877431, 0.0, 0.0, 0.0, 0.0, 0.0, 1.7075957591323152E9, 0.0, 2024-02-10 15:09:19.132
77.0, -265.2037856578827, -619.2077558636665, -1996.9270611405373, -251.5606306195259, -1.008000047877431, -1.008000047877431, 1.008000047877431, 0.0, 0.0, 0.0, 0.0, 0.0, 1.7075957591323152E9, 0.0, 2024-02-10 15:09:19.132
78.0, -269.99085760116577, -666.1210609078407, -2064.903482735157, -265.2037856578827, -1.008000047877431, -1.008000047877431, 1.008000047877431, 0.0, 0.0, 0.0, 0.0, 0.0, 1.7075957591330051E9, 0.0, 2024-02-10 15:09:19.133
78.0, -245.3374370932579, -611.0697335600853, -1994.2941715717316, -232.65169644355774, -1.008000047877431, -1.008000047877431, 1.008000047877431, 0.0, 0.0, 0.0, 0.0, 0.0, 1.7075957591330051E9, 0.0, 2024-02-10 15:09:19.133
79.0, -252.99675220251083, -600.0594680905342, -1959.8272535800934, -233.3697572350502, -1.008000047877431, -1.008000047877431, 1.008000047877431, 0.0, 0.0, 0.0, 0.0, 0.0, 1.7075957591467285E9, 0.0, 2024-02-10 15:09:19.146
79.0, -270.4695647954941, -653.6746738553047, -2048.6274381279945, -262.81024968624115, -1.008000047877431, -1.008000047877431, 1.008000047877431, 0.0, 0.0, 0.0, 0.0, 0.0, 1.7075957591467285E9, 0.0, 2024-02-10 15:09:19.146
80.0, -252.75739860534668, -623.5161206126213, -2025.1707856059074, -246.05549788475037, -1.008000047877431, -1.008000047877431, 1.008000047877431, 0.0, 0.0, 0.0, 0.0, 0.0, 1.7075957591622543E9, 0.0, 2024-02-10 15:09:19.162
80.0, -250.6032162308693, -592.8788601756096, -1955.7582424283028, -234.32717162370682, -1.008000047877431, -1.008000047877431, 1.008000047877431, 0.0, 0.0, 0.0, 0.0, 0.0, 1.7075957591622543E9, 0.0, 2024-02-10 15:09:19.162
81.0, -257.06576335430145, -630.2180213332176, -2007.6979730129242, -244.14066910743713, -1.008000047877431, -1.008000047877431, 1.008000047877431, 0.0, 0.0, 0.0, 0.0, 0.0, 1.7075957591629684E9, 0.0, 2024-02-10 15:09:19.162
81.0, -251.5606306195259, -629.0212533473969, -2034.0268687009811, -241.02907234430313, -1.008000047877431, -1.008000047877431, 1.008000047877431, 0.0, 0.0, 0.0, 0.0, 0.0, 1.7075957591629684E9, 0.0, 2024-02-10 15:09:19.162
82.0, -233.8484644293785, -580.4324731230736, -1954.3221208453178, -210.63116550445557, -1.008000047877431, -1.008000047877431, 1.008000047877431, 0.0, 0.0, 0.0, 0.0, 0.0, 1.7075957591768048E9, 0.0, 2024-02-10 15:09:19.176
82.0, -242.2258403301239, -602.9317112565041, -1971.0768726468086, -224.27432054281235, -1.008000047877431, -1.008000047877431, 1.008000047877431, 0.0, 0.0, 0.0, 0.0, 0.0, 1.7075957591768048E9, 0.0, 2024-02-10 15:09:19.176
83.0, -260.4167137145996, -647.6908339262009, -2044.0797197818756, -251.79998421669006, -1.008000047877431, -1.008000047877431, 1.008000047877431, 0.0, 0.0, 0.0, 0.0, 0.0, 1.7075957591922672E9, 0.0, 2024-02-10 15:09:19.192
83.0, -241.7471331357956, -593.8362745642662, -1986.6348564624786, -225.47108852863312, -1.008000047877431, -1.008000047877431, 1.008000047877431, 0.0, 0.0, 0.0, 0.0, 0.0, 1.7075957591922672E9, 0.0, 2024-02-10 15:09:19.192
84.0, -234.80587881803513, -585.4588986635208, -1948.338280916214, -216.61500543355942, -1.008000047877431, -1.008000047877431, 1.008000047877431, 0.0, 0.0, 0.0, 0.0, 0.0, 1.707595759192973E9, 0.0, 2024-02-10 15:09:19.192
84.0, -255.62964177131653, -639.3134580254555, -2026.6069071888924, -239.1142435669899, -1.008000047877431, -1.008000047877431, 1.008000047877431, 0.0, 0.0, 0.0, 0.0, 0.0, 1.707595759192973E9, 0.0, 2024-02-10 15:09:19.192
85.0, -240.78971874713898, -609.3942583799362, -2004.5863762497902, -223.79561334848404, -1.008000047877431, -1.008000047877431, 1.008000047877431, 0.0, 0.0, 0.0, 0.0, 0.0, 1.707595759206875E9, 0.0, 2024-02-10 15:09:19.206
85.0, -225.71044212579727, -571.815743625164, -1936.6099546551704, -212.5459942817688, -1.008000047877431, -1.008000047877431, 1.008000047877431, 0.0, 0.0, 0.0, 0.0, 0.0, 1.707595759206875E9, 0.0, 2024-02-10 15:09:19.206
86.0, -249.40644824504852, -616.814219892025, -1998.3631827235222, -237.19941478967667, -1.008000047877431, -1.008000047877431, 1.008000047877431, 0.0, 0.0, 0.0, 0.0, 0.0, 1.7075957592224157E9, 0.0, 2024-02-10 15:09:19.222
86.0, -253.95416659116745, -633.5689716935158, -2030.9152719378471, -241.98648673295975, -1.008000047877431, -1.008000047877431, 1.008000047877431, 0.0, 0.0, 0.0, 0.0, 0.0, 1.7075957592224157E9, 0.0, 2024-02-10 15:09:19.222
87.0, -229.7794532775879, -570.140268445015, -1951.6892312765121, -212.0672870874405, -1.008000047877431, -1.008000047877431, 1.008000047877431, 0.0, 0.0, 0.0, 0.0, 0.0, 1.7075957592230237E9, 0.0, 2024-02-10 15:09:19.223
87.0, -235.04523241519928, -589.5279098153114, -1963.1782039403915, -221.16272377967834, -1.008000047877431, -1.008000047877431, 1.008000047877431, 0.0, 0.0, 0.0, 0.0, 0.0, 1.7075957592230237E9, 0.0, 2024-02-10 15:09:19.223
88.0, -249.88515543937683, -637.1592756509781, -2029.9578575491905, -242.2258403301239, -1.008000047877431, -1.008000047877431, 1.008000047877431, 0.0, 0.0, 0.0, 0.0, 0.0, 1.7075957592368383E9, 0.0, 2024-02-10 15:09:19.236
88.0, -219.96595579385757, -577.5602299571037, -1967.2472150921822, -207.04086154699326, -1.008000047877431, -1.008000047877431, 1.008000047877431, 0.0, 0.0, 0.0, 0.0, 0.0, 1.7075957592368383E9, 0.0, 2024-02-10 15:09:19.236
89.0, -221.4020773768425, -568.2254396677017, -1934.9344794750214, -210.63116550445557, -1.008000047877431, -1.008000047877431, 1.008000047877431, 0.0, 0.0, 0.0, 0.0, 0.0, 1.70759575925253E9, 0.0, 2024-02-10 15:09:19.252
89.0, -238.6355363726616, -617.5322806835175, -2015.3572881221771, -236.4813539981842, -1.008000047877431, -1.008000047877431, 1.008000047877431, 0.0, 0.0, 0.0, 0.0, 0.0, 1.70759575925253E9, 0.0, 2024-02-10 15:09:19.252
90.0, -238.6355363726616, -604.6071864366531, -1999.3205971121788, -222.35949176549911, -1.008000047877431, -1.008000047877431, 1.008000047877431, 0.0, 0.0, 0.0, 0.0, 0.0, 1.707595759253021E9, 0.0, 2024-02-10 15:09:19.253
90.0, -228.34333169460297, -568.4647932648659, -1934.455772280693, -197.70607125759125, -1.008000047877431, -1.008000047877431, 1.008000047877431, 0.0, 0.0, 0.0, 0.0, 0.0, 1.707595759253021E9, 0.0, 2024-02-10 15:09:19.253
91.0, -227.86462450027466, -590.0066170096397, -1980.1723093390465, -205.60473996400833, -1.008000047877431, -1.008000047877431, 1.008000047877431, 0.0, 0.0, 0.0, 0.0, 0.0, 1.7075957592666175E9, 0.0, 2024-02-10 15:09:19.266
91.0, -232.17298924922943, -598.6233465075493, -2002.910901069641, -199.62090003490448, -1.008000047877431, -1.008000047877431, 1.008000047877431, 0.0, 0.0, 0.0, 0.0, 0.0, 1.7075957592666175E9, 0.0, 2024-02-10 15:09:19.266
92.0, -210.63116550445557, -538.5455936193466, -1922.2487388253212, -171.3771755695343, -1.008000047877431, -1.008000047877431, 1.008000047877431, 0.0, 0.0, 0.0, 0.0, 0.0, 1.7075957592829385E9, 0.0, 2024-02-10 15:09:19.282
92.0, -224.75302773714066, -571.3370364308357, -1936.6099546551704, -184.78097701072693, -1.008000047877431, -1.008000047877431, 1.008000047877431, 0.0, 0.0, 0.0, 0.0, 0.0, 1.7075957592829385E9, 0.0, 2024-02-10 15:09:19.282
93.0, -249.16709464788437, -622.0799990296364, -2006.0224978327751, -202.01443600654602, -1.008000047877431, -1.008000047877431, 1.008000047877431, 0.0, 0.0, 0.0, 0.0, 0.0, 1.7075957592837057E9, 0.0, 2024-02-10 15:09:19.283
93.0, -223.07755255699158, -562.480953335762, -1935.4131866693497, -169.94105398654938, -1.008000047877431, -1.008000047877431, 1.008000047877431, 0.0, 0.0, 0.0, 0.0, 0.0, 1.7075957592837057E9, 0.0, 2024-02-10 15:09:19.283
94.0, -223.79561334848404, -558.1725885868073, -1913.6320093274117, -173.77071154117584, -1.008000047877431, -1.008000047877431, 1.008000047877431, 0.0, 0.0, 0.0, 0.0, 0.0, 1.7075957592965584E9, 0.0, 2024-02-10 15:09:19.296
94.0, -243.66196191310883, -610.3516727685928, -1989.0283924341202, -201.77508240938187, -1.008000047877431, -1.008000047877431, 1.008000047877431, 0.0, 0.0, 0.0, 0.0, 0.0, 1.7075957592965584E9, 0.0, 2024-02-10 15:09:19.296
95.0, -219.72660219669342, -579.7144123315811, -1976.1032981872559, -186.69580578804016, -1.008000047877431, -1.008000047877431, 1.008000047877431, 0.0, 0.0, 0.0, 0.0, 0.0, 1.7075957593122792E9, 0.0, 2024-02-10 15:09:19.312
95.0, -214.22146946191788, -550.5132734775543, -1911.4778269529343, -173.05265074968338, -1.008000047877431, -1.008000047877431, 1.008000047877431, 0.0, 0.0, 0.0, 0.0, 0.0, 1.7075957593122792E9, 0.0, 2024-02-10 15:09:19.312
96.0, -236.72070759534836, -596.9478713274002, -1970.5981654524803, -198.66348564624786, -1.008000047877431, -1.008000047877431, 1.008000047877431, 0.0, 0.0, 0.0, 0.0, 0.0, 1.7075957593130128E9, 0.0, 2024-02-10 15:09:19.313
96.0, -228.58268529176712, -596.2298105359077, -1996.687707543373, -198.4241320490837, -1.008000047877431, -1.008000047877431, 1.008000047877431, 0.0, 0.0, 0.0, 0.0, 0.0, 1.7075957593130128E9, 0.0, 2024-02-10 15:09:19.313
97.0, -213.98211586475372, -558.6512957811356, -1918.897788465023, -169.94105398654938, -1.008000047877431, -1.008000047877431, 1.008000047877431, 0.0, 0.0, 0.0, 0.0, 0.0, 1.7075957593265812E9, 0.0, 2024-02-10 15:09:19.326
97.0, -236.24200040102005, -579.475058734417, -1943.790562570095, -190.76481693983078, -1.008000047877431, -1.008000047877431, 1.008000047877431, 0.0, 0.0, 0.0, 0.0, 0.0, 1.7075957593265812E9, 0.0, 2024-02-10 15:09:19.326
98.0, -236.24200040102005, -605.3252472281456, -2006.9799122214317, -208.71633672714233, -1.008000047877431, -1.008000047877431, 1.008000047877431, 0.0, 0.0, 0.0, 0.0, 0.0, 1.7075957593419487E9, 0.0, 2024-02-10 15:09:19.341
98.0, -220.44466298818588, -567.9860860705376, -1949.2956953048706, -184.54162341356277, -1.008000047877431, -1.008000047877431, 1.008000047877431, 0.0, 0.0, 0.0, 0.0, 0.0, 1.7075957593419487E9, 0.0, 2024-02-10 15:09:19.341
0.0, -236.9600611925125, -607.2400760054588, -1995.9696467518806, -209.19504392147064, -1.008000047877431, -1.008000047877431, 1.008000047877431, 0.0, 0.0, 0.0, 0.0, 0.0, 1.707595759357492E9, 0.0, 2024-02-10 15:09:19.357
0.0, -223.55625975131989, -582.586655497551, -1978.4968341588974, -198.18477845191956, -1.008000047877431, -1.008000047877431, 1.008000047877431, 0.0, 0.0, 0.0, 0.0, 0.0, 1.707595759357492E9, 0.0, 2024-02-10 15:09:19.357
1.0, -214.46082305908203, -553.14616304636, -1920.333910048008, -182.3874410390854, -1.008000047877431, -0.01600000075995922, 1.008000047877431, 0.0, 0.0, 0.0, 0.0, 0.0, 1.707595759357999E9, 0.0, 2024-02-10 15:09:19.357
1.0, -242.46519392728806, -604.1284792423248, -1976.1032981872559, -205.60473996400833, -1.008000047877431, -0.01600000075995922, 1.008000047877431, 0.0, 0.0, 0.0, 0.0, 0.0, 1.707595759357999E9, 0.0, 2024-02-10 15:09:19.357
2.0, -234.56652522087097, -605.8039544224739, -2005.3044370412827, -212.30664068460464, 0.0800000037997961, -0.01600000075995922, 1.008000047877431, 0.0, 0.0, 0.0, 0.0, 0.0, 1.7075957593716817E9, 0.0, 2024-02-10 15:09:19.371
2.0, -214.46082305908203, -552.4281022548676, -1929.4293467402458, -186.69580578804016, 0.0800000037997961, -0.01600000075995922, 1.008000047877431, 0.0, 0.0, 0.0, 0.0, 0.0, 1.7075957593716817E9, 0.0, 2024-02-10 15:09:19.371
3.0, -236.4813539981842, -581.3898875117302, -1945.7053913474083, -202.97185039520264, 0.0800000037997961, -0.01600000075995922, 1.008000047877431, 0.0, 0.0, 0.0, 0.0, 0.0, 1.707595759387306E9, 0.0, 2024-02-10 15:09:19.387
3.0, -248.92774105072021, -625.1915957927704, -2011.5276305675507, -213.0247014760971, 0.0800000037997961, -0.01600000075995922, 1.008000047877431, 0.0, 0.0, 0.0, 0.0, 0.0, 1.707595759387306E9, 0.0, 2024-02-10 15:09:19.387
4.0, -214.70017665624619, -570.140268445015, -1950.2531096935272, -184.54162341356277, 0.0800000037997961, -0.01600000075995922, 1.008000047877431, 0.0, 0.0, 0.0, 0.0, 0.0, 1.707595759387986E9, 0.0, 2024-02-10 15:09:19.387
4.0, -229.54009968042374, -566.0712572932243, -1929.9080539345741, -193.63706010580063, 0.0800000037997961, -0.01600000075995922, 1.008000047877431, 0.0, 0.0, 0.0, 0.0, 0.0, 1.707595759387986E9, 0.0, 2024-02-10 15:09:19.387
5.0, -247.9703266620636, -621.3619382381439, -2004.347022652626, -212.78534787893295, 0.0800000037997961, -0.01600000075995922, 1.008000047877431, 0.0, 0.0, 0.0, 0.0, 0.0, 1.7075957594016027E9, 0.0, 2024-02-10 15:09:19.401
5.0, -225.94979572296143, -594.3149817585945, -1982.8051989078522, -199.38154643774033, 0.0800000037997961, -0.01600000075995922, 1.008000047877431, 0.0, 0.0, 0.0, 0.0, 0.0, 1.7075957594016027E9, 0.0, 2024-02-10 15:09:19.401
6.0, -218.52983421087265, -551.7100414633751, -1924.6422747969627, -192.91899931430817, 0.0800000037997961, -0.01600000075995922, 1.008000047877431, 0.0, 0.0, 0.0, 0.0, 0.0, 1.7075957594172623E9, 0.0, 2024-02-10 15:09:19.417
6.0, -238.15682917833328, -599.82011449337, -1972.2736406326294, -206.08344715833664, 0.0800000037997961, -0.01600000075995922, 1.008000047877431, 0.0, 0.0, 0.0, 0.0, 0.0, 1.7075957594172623E9, 0.0, 2024-02-10 15:09:19.417
7.0, -237.19941478967667, -609.8729655742645, -2000.5173650979996, -210.3918119072914, 0.0800000037997961, -0.01600000075995922, 1.008000047877431, 0.0, 0.0, 0.0, 0.0, 0.0, 1.7075957594179873E9, 0.0, 2024-02-10 15:09:19.417
7.0, -213.26405507326126, -558.1725885868073, -1923.9242140054703, -178.31842988729477, 0.0800000037997961, -0.01600000075995922, 1.008000047877431, 0.0, 0.0, 0.0, 0.0, 0.0, 1.7075957594179873E9, 0.0, 2024-02-10 15:09:19.417
8.0, -231.45492845773697, -579.2357051372528, -1941.3970265984535, -192.2009385228157, 0.0800000037997961, -0.01600000075995922, 1.008000047877431, 0.0, 0.0, 0.0, 0.0, 0.0, 1.7075957594315925E9, 0.0, 2024-02-10 15:09:19.431
8.0, -236.24200040102005, -608.9155511856079, -2009.3734481930733, -212.5459942817688, 0.0800000037997961, -0.01600000075995922, 1.008000047877431, 0.0, 0.0, 0.0, 0.0, 0.0, 1.7075957594315925E9, 0.0, 2024-02-10 15:09:19.431
9.0, -215.41823744773865, -568.2254396677017, -1947.3808665275574, -185.4990378022194, 0.0800000037997961, -0.01600000075995922, 1.008000047877431, 0.0, 0.0, 0.0, 0.0, 0.0, 1.7075957594478621E9, 0.0, 2024-02-10 15:09:19.447
9.0, -216.61500543355942, -564.3957821130753, -1921.5306780338287, -187.89257377386093, 0.0800000037997961, -0.01600000075995922, 1.008000047877431, 0.0, 0.0, 0.0, 0.0, 0.0, 1.7075957594478621E9, 0.0, 2024-02-10 15:09:19.447
10.0, -237.19941478967667, -612.2665015459061, -1993.8154643774033, -213.50340867042542, 0.0800000037997961, -0.01600000075995922, 1.008000047877431, 0.0, 0.0, 0.0, 0.0, 0.0, 1.7075957594481752E9, 0.0, 2024-02-10 15:09:19.448
10.0, -226.6678565144539, -583.5440698862076, -1979.454248547554, -199.14219284057617, 0.0800000037997961, -0.01600000075995922, 1.008000047877431, 0.0, 0.0, 0.0, 0.0, 0.0, 1.7075957594481752E9, 0.0, 2024-02-10 15:09:19.448
11.0, -213.98211586475372, -550.7526270747185, -1914.5894237160683, -183.344855427742, 0.0800000037997961, -0.01600000075995922, 1.008000047877431, 0.0, 0.0, 0.0, 0.0, 0.0, 1.7075957594619367E9, 0.0, 2024-02-10 15:09:19.461
11.0, -234.56652522087097, -594.5543353557587, -1973.9491158127785, -204.88667917251587, 0.0800000037997961, -0.01600000075995922, 1.008000047877431, 0.0, 0.0, 0.0, 0.0, 0.0, 1.7075957594619367E9, 0.0, 2024-02-10 15:09:19.461
12.0, -234.80587881803513, -607.2400760054588, -1998.6025363206863, -210.3918119072914, 0.0800000037997961, -0.01600000075995922, 1.008000047877431, 0.0, 0.0, 0.0, 0.0, 0.0, 1.7075957594772313E9, 0.0, 2024-02-10 15:09:19.477
12.0, -211.34922629594803, -555.3003454208374, -1928.232578754425, -187.65322017669678, 0.0800000037997961, -0.01600000075995922, 1.008000047877431, 0.0, 0.0, 0.0, 0.0, 0.0, 1.7075957594772313E9, 0.0, 2024-02-10 15:09:19.477
13.0, -224.75302773714066, -574.2092795968056, -1944.9873305559158, -205.12603276968002, 0.0800000037997961, -0.01600000075995922, 1.008000047877431, 0.0, 0.0, 0.0, 0.0, 0.0, 1.7075957594779384E9, 0.0, 2024-02-10 15:09:19.477
13.0, -239.83230435848236, -615.6174519062042, -2007.9373266100883, -211.82793349027634, 0.0800000037997961, -0.01600000075995922, 1.008000047877431, 0.0, 0.0, 0.0, 0.0, 0.0, 1.7075957594779384E9, 0.0, 2024-02-10 15:09:19.477
14.0, -213.0247014760971, -562.2415997385979, -1947.6202201247215, -192.2009385228157, 0.0800000037997961, -0.01600000075995922, 1.008000047877431, 0.0, 0.0, 0.0, 0.0, 0.0, 1.7075957594920812E9, 0.0, 2024-02-10 15:09:19.492
14.0, -223.31690615415573, -558.8906493782997, -1923.445506811142, -189.80740255117416, 0.0800000037997961, -0.01600000075995922, 1.008000047877431, 0.0, 0.0, 0.0, 0.0, 0.0, 1.7075957594920812E9, 0.0, 2024-02-10 15:09:19.492
15.0, -248.4490338563919, -617.7716342806816, -2001.235425889492, -217.57241982221603, 0.0800000037997961, -0.01600000075995922, 1.008000047877431, 0.0, 0.0, 0.0, 0.0, 0.0, 1.7075957595075052E9, 0.0, 2024-02-10 15:09:19.507
15.0, -225.23173493146896, -587.8524346351624, -1974.667176604271, -190.52546334266663, 0.0800000037997961, -0.01600000075995922, 1.008000047877431, 0.0, 0.0, 0.0, 0.0, 0.0, 1.7075957595075052E9, 0.0, 2024-02-10 15:09:19.507
16.0, -212.5459942817688, -549.3165054917336, -1913.8713629245758, -181.66938024759293, 0.0800000037997961, -0.01600000075995922, 1.008000047877431, 0.0, 0.0, 0.0, 0.0, 0.0, 1.7075957595079808E9, 0.0, 2024-02-10 15:09:19.507
16.0, -234.80587881803513, -603.4104184508324, -1973.231055021286, -212.0672870874405, 0.0800000037997961, -0.01600000075995922, 1.008000047877431, 0.0, 0.0, 0.0, 0.0, 0.0, 1.7075957595079808E9, 0.0, 2024-02-10 15:09:19.507
17.0, -243.18325471878052, -613.4632695317268, -2011.0489233732224, -224.0349669456482, 0.0800000037997961, -0.01600000075995922, 1.008000047877431, 0.0, 0.0, 0.0, 0.0, 0.0, 1.7075957595219893E9, 0.0, 2024-02-10 15:09:19.521
17.0, -222.83819895982742, -560.805478155613, -1931.104821920395, -189.80740255117416, 0.0800000037997961, -0.01600000075995922, 1.008000047877431, 0.0, 0.0, 0.0, 0.0, 0.0, 1.7075957595219893E9, 0.0, 2024-02-10 15:09:19.521
18.0, -224.9923813343048, -569.1828540563583, -1936.3706010580063, -194.3551208972931, 0.0800000037997961, -0.01600000075995922, 1.008000047877431, 0.0, 0.0, 0.0, 0.0, 0.0, 1.7075957595374708E9, 0.0, 2024-02-10 15:09:19.537
18.0, -240.78971874713898, -607.9581367969513, -1991.4219284057617, -196.74865686893463, 0.0800000037997961, -0.01600000075995922, 1.008000047877431, 0.0, 0.0, 0.0, 0.0, 0.0, 1.7075957595374708E9, 0.0, 2024-02-10 15:09:19.537
19.0, -225.47108852863312, -571.3370364308357, -1938.5247834324837, -175.44618672132492, 0.0800000037997961, -0.01600000075995922, 1.008000047877431, 0.0, 0.0, 0.0, 0.0, 0.0, 1.7075957595381207E9, 0.0, 2024-02-10 15:09:19.538
19.0, -224.0349669456482, -557.6938813924789, -1917.222313284874, -179.51519787311554, 0.0800000037997961, -0.01600000075995922, 1.008000047877431, 0.0, 0.0, 0.0, 0.0, 0.0, 1.7075957595381207E9, 0.0, 2024-02-10 15:09:19.538
20.0, -248.92774105072021, -611.3090871572495, -1995.012232363224, -206.56215435266495, 0.0800000037997961, -0.01600000075995922, 1.008000047877431, 0.0, 0.0, 0.0, 0.0, 0.0, 1.7075957595515409E9, 0.0, 2024-02-10 15:09:19.551
20.0, -228.34333169460297, -588.3311418294907, -1973.4704086184502, -189.80740255117416, 0.0800000037997961, -0.01600000075995922, 1.008000047877431, 0.0, 0.0, 0.0, 0.0, 0.0, 1.7075957595515409E9, 0.0, 2024-02-10 15:09:19.551
21.0, -220.9233701825142, -552.9068094491959, -1907.887522995472, -173.05265074968338, 0.0800000037997961, -0.01600000075995922, 1.008000047877431, 0.0, 0.0, 0.0, 0.0, 0.0, 1.7075957595673616E9, 0.0, 2024-02-10 15:09:19.567
21.0, -238.87488996982574, -595.033042550087, -1962.460143148899, -195.55188888311386, 0.0800000037997961, -0.01600000075995922, 1.008000047877431, 0.0, 0.0, 0.0, 0.0, 0.0, 1.7075957595673616E9, 0.0, 2024-02-10 15:09:19.567
22.0, -228.82203888893127, -596.2298105359077, -1986.1561492681503, -191.96158492565155, 0.0800000037997961, -0.01600000075995922, 1.008000047877431, 0.0, 0.0, 0.0, 0.0, 0.0, 1.7075957595680678E9, 0.0, 2024-02-10 15:09:19.568
22.0, -213.74276226758957, -554.5822846293449, -1915.5468381047249, -172.57394355535507, 0.0800000037997961, -0.01600000075995922, 1.008000047877431, 0.0, 0.0, 0.0, 0.0, 0.0, 1.7075957595680678E9, 0.0, 2024-02-10 15:09:19.568
23.0, -227.86462450027466, -577.7995835542679, -1938.5247834324837, -188.37128096818924, 0.0800000037997961, -0.01600000075995922, 1.008000047877431, 0.0, 0.0, 0.0, 0.0, 0.0, 1.707595759581931E9, 0.0, 2024-02-10 15:09:19.581
23.0, -240.55036514997482, -613.9419767260551, -2003.1502546668053, -205.84409356117249, 0.0800000037997961, -0.01600000075995922, 1.008000047877431, 0.0, 0.0, 0.0, 0.0, 0.0, 1.707595759581931E9, 0.0, 2024-02-10 15:09:19.581
24.0, -220.9233701825142, -568.4647932648659, -1939.4821978211403, -179.03649067878723, 0.0800000037997961, -0.01600000075995922, 1.008000047877431, 0.0, 0.0, 0.0, 0.0, 0.0, 1.70759575959771E9, 0.0, 2024-02-10 15:09:19.597
24.0, -217.8117734193802, -558.1725885868073, -1919.8552028536797, -181.90873384475708, 0.0800000037997961, -0.01600000075995922, 1.008000047877431, 0.0, 0.0, 0.0, 0.0, 0.0, 1.70759575959771E9, 0.0, 2024-02-10 15:09:19.597
25.0, -240.78971874713898, -606.7613688111305, -1989.7464532256126, -207.75892233848572, 0.0800000037997961, -0.01600000075995922, 1.008000047877431, 0.0, 0.0, 0.0, 0.0, 0.0, 1.707595759598234E9, 0.0, 2024-02-10 15:09:19.598
25.0, -216.1362982392311, -578.9963515400887, -1965.0930327177048, -187.89257377386093, 0.0800000037997961, -0.01600000075995922, 1.008000047877431, 0.0, 0.0, 0.0, 0.0, 0.0, 1.707595759598234E9, 0.0, 2024-02-10 15:09:19.598
26.0, -207.04086154699326, -544.7687871456146, -1910.2810589671135, -177.83972269296646, 0.0800000037997961, -0.01600000075995922, 1.008000047877431, 0.0, 0.0, 0.0, 0.0, 0.0, 1.7075957596117156E9, 0.0, 2024-02-10 15:09:19.611
26.0, -230.7368676662445, -585.4588986635208, -1968.683336675167, -201.5357288122177, 0.0800000037997961, -0.01600000075995922, 1.008000047877431, 0.0, 0.0, 0.0, 0.0, 0.0, 1.7075957596117156E9, 0.0, 2024-02-10 15:09:19.611
27.0, -230.97622126340866, -601.256236076355, -1999.3205971121788, -210.15245831012726, 0.0800000037997961, -0.01600000075995922, 1.008000047877431, 0.0, 0.0, 0.0, 0.0, 0.0, 1.707595759627929E9, 0.0, 2024-02-10 15:09:19.627
27.0, -215.89694464206696, -561.5235389471054, -1929.66870033741, -190.04675614833832, 0.0800000037997961, -0.01600000075995922, 1.008000047877431, 0.0, 0.0, 0.0, 0.0, 0.0, 1.707595759627929E9, 0.0, 2024-02-10 15:09:19.627
28.0, -236.9600611925125, -587.373727440834, -1957.4337176084518, -209.9131047129631, 0.0800000037997961, -0.01600000075995922, 1.008000047877431, 0.0, 0.0, 0.0, 0.0, 0.0, 1.7075957596281877E9, 0.0, 2024-02-10 15:09:19.628
28.0, -243.42260831594467, -617.5322806835175, -2003.1502546668053, -207.75892233848572, 0.0800000037997961, -0.01600000075995922, 1.008000047877431, 0.0, 0.0, 0.0, 0.0, 0.0, 1.7075957596281877E9, 0.0, 2024-02-10 15:09:19.628
29.0, -211.82793349027634, -564.3957821130753, -1943.3118553757668, -178.79713708162308, 0.0800000037997961, -0.01600000075995922, 1.008000047877431, 0.0, 0.0, 0.0, 0.0, 0.0, 1.7075957596419847E9, 0.0, 2024-02-10 15:09:19.641
29.0, -214.70017665624619, -554.1035774350166, -1908.6055837869644, -171.61652916669846, 0.0800000037997961, -0.01600000075995922, 1.008000047877431, 0.0, 0.0, 0.0, 0.0, 0.0, 1.7075957596419847E9, 0.0, 2024-02-10 15:09:19.641
30.0, -239.1142435669899, -604.1284792423248, -1990.225160419941, -202.49314320087433, 0.0800000037997961, -0.01600000075995922, 1.008000047877431, 0.0, 0.0, 0.0, 0.0, 0.0, 1.7075957596576412E9, 0.0, 2024-02-10 15:09:19.657
30.0, -224.75302773714066, -583.3047162890434, -1965.571739912033, -185.25968420505524, 0.0800000037997961, -0.01600000075995922, 1.008000047877431, 0.0, 0.0, 0.0, 0.0, 0.0, 1.7075957596576412E9, 0.0, 2024-02-10 15:09:19.657
31.0, -211.82793349027634, -545.0081407427788, -1910.2810589671135, -178.79713708162308, 0.0800000037997961, -0.01600000075995922, 1.008000047877431, 0.0, 0.0, 0.0, 0.0, 0.0, 1.7075957596581888E9, 0.0, 2024-02-10 15:09:19.658
31.0, -231.93363565206528, -590.2459706068039, -1970.3588118553162, -203.6899111866951, 0.0800000037997961, -0.01600000075995922, 1.008000047877431, 0.0, 0.0, 0.0, 0.0, 0.0, 1.7075957596581888E9, 0.0, 2024-02-10 15:09:19.658
32.0, -224.27432054281235, -594.0756281614304, -1992.1399891972542, -199.38154643774033, 0.0800000037997961, -0.01600000075995922, 1.008000047877431, 0.0, 0.0, 0.0, 0.0, 0.0, 1.7075957596718805E9, 0.0, 2024-02-10 15:09:19.671
32.0, -232.17298924922943, -566.5499644875526, -1936.6099546551704, -197.70607125759125, 0.0800000037997961, -0.01600000075995922, 1.008000047877431, 0.0, 0.0, 0.0, 0.0, 0.0, 1.7075957596718805E9, 0.0, 2024-02-10 15:09:19.671
33.0, -248.92774105072021, -603.1710648536682, -1969.4013974666595, -219.72660219669342, 0.0800000037997961, -0.01600000075995922, 1.008000047877431, 0.0, 0.0, 0.0, 0.0, 0.0, 1.7075957596876457E9, 0.0, 2024-02-10 15:09:19.687
33.0, -214.22146946191788, -596.4691641330719, -1991.4219284057617, -199.86025363206863, 0.0800000037997961, -0.01600000075995922, 1.008000047877431, 0.0, 0.0, 0.0, 0.0, 0.0, 1.7075957596876457E9, 0.0, 2024-02-10 15:09:19.687
34.0, -198.18477845191956, -549.0771518945694, -1928.4719323515892, -176.16424751281738, 0.0800000037997961, -0.01600000075995922, 1.008000047877431, 0.0, 0.0, 0.0, 0.0, 0.0, 1.7075957596881275E9, 0.0, 2024-02-10 15:09:19.688
34.0, -194.11576730012894, -532.5617536902428, -1901.903683066368, -172.57394355535507, 0.0800000037997961, -0.01600000075995922, 1.008000047877431, 0.0, 0.0, 0.0, 0.0, 0.0, 1.7075957596881275E9, 0.0, 2024-02-10 15:09:19.688
35.0, -213.26405507326126, -581.6292411088943, -1973.9491158127785, -201.77508240938187, 0.0800000037997961, -0.01600000075995922, 1.008000047877431, 0.0, 0.0, 0.0, 0.0, 0.0, 1.7075957597016847E9, 0.0, 2024-02-10 15:09:19.701
35.0, -190.76481693983078, -553.6248702406883, -1949.0563417077065, -184.06291621923447, 0.0800000037997961, -0.01600000075995922, 1.008000047877431, 0.0, 0.0, 0.0, 0.0, 0.0, 1.7075957597016847E9, 0.0, 2024-02-10 15:09:19.701
36.0, -171.13782197237015, -505.51479721069336, -1880.3618593215942, -157.2553133368492, 0.0800000037997961, -0.01600000075995922, 1.008000047877431, 0.0, 0.0, 0.0, 0.0, 0.0, 1.7075957597173812E9, 0.0, 2024-02-10 15:09:19.717
36.0, -196.03059607744217, -556.0184062123299, -1940.9183194041252, -194.59447449445724, 0.0800000037997961, -0.01600000075995922, 1.008000047877431, 0.0, 0.0, 0.0, 0.0, 0.0, 1.7075957597173812E9, 0.0, 2024-02-10 15:09:19.717
37.0, -191.2435241341591, -550.034566283226, -1954.0827672481537, -175.68554031848907, 0.0800000037997961, -0.01600000075995922, 1.008000047877431, 0.0, 0.0, 0.0, 0.0, 0.0, 1.7075957597181053E9, 0.0, 2024-02-10 15:09:19.718
37.0, -172.81329715251923, -516.0463554859161, -1885.1489312648773, -154.1437165737152, 0.0800000037997961, -0.01600000075995922, 1.008000047877431, 0.0, 0.0, 0.0, 0.0, 0.0, 1.7075957597181053E9, 0.0, 2024-02-10 15:09:19.718
38.0, -188.84998816251755, -536.3914112448692, -1908.126876592636, -172.09523636102676, 0.0800000037997961, -0.01600000075995922, 1.008000047877431, 0.0, 0.0, 0.0, 0.0, 0.0, 1.7075957597315912E9, 0.0, 2024-02-10 15:09:19.731
38.0, -205.60473996400833, -579.2357051372528, -1977.5394197702408, -189.56804895401, 0.0800000037997961, -0.01600000075995922, 1.008000047877431, 0.0, 0.0, 0.0, 0.0, 0.0, 1.7075957597315912E9, 0.0, 2024-02-10 15:09:19.731
39.0, -180.233258664608, -526.0992065668106, -1909.8023517727852, -157.97337412834167, 0.0800000037997961, -0.01600000075995922, 1.008000047877431, 0.0, 0.0, 0.0, 0.0, 0.0, 1.7075957597472963E9, 0.0, 2024-02-10 15:09:19.747
39.0, -187.17451298236847, -526.0992065668106, -1899.7495006918907, -168.02622520923615, 0.0800000037997961, -0.01600000075995922, 1.008000047877431, 0.0, 0.0, 0.0, 0.0, 0.0, 1.7075957597472963E9, 0.0, 2024-02-10 15:09:19.747
40.0, -207.2802151441574, -574.6879867911339, -1963.6569111347198, -184.30226981639862, 0.0800000037997961, -0.01600000075995922, 1.008000047877431, 0.0, 0.0, 0.0, 0.0, 0.0, 1.7075957597480505E9, 0.0, 2024-02-10 15:09:19.748
40.0, -192.44029211997986, -555.7790526151657, -1945.4660377502441, -169.46234679222107, 0.0800000037997961, -0.01600000075995922, 1.008000047877431, 0.0, 0.0, 0.0, 0.0, 0.0, 1.7075957597480505E9, 0.0, 2024-02-10 15:09:19.748
41.0, -184.54162341356277, -518.6792450547218, -1893.0475999712944, -167.54751801490784, 0.0800000037997961, -0.01600000075995922, 1.008000047877431, 0.0, 0.0, 0.0, 0.0, 0.0, 1.7075957597616508E9, 0.0, 2024-02-10 15:09:19.761
41.0, -207.04086154699326, -572.2944508194923, -1952.6466456651688, -195.07318168878555, 0.0800000037997961, -0.01600000075995922, 1.008000047877431, 0.0, 0.0, 0.0, 0.0, 0.0, 1.7075957597616508E9, 0.0, 2024-02-10 15:09:19.761
42.0, -206.56215435266495, -578.9963515400887, -1973.231055021286, -189.0893417596817, 0.0800000037997961, -0.01600000075995922, 1.008000047877431, 0.0, 0.0, 0.0, 0.0, 0.0, 1.707595759777432E9, 0.0, 2024-02-10 15:09:19.777
42.0, -185.73839139938354, -530.4075713157654, -1902.8610974550247, -170.65911477804184, 0.0800000037997961, -0.01600000075995922, 1.008000047877431, 0.0, 0.0, 0.0, 0.0, 0.0, 1.707595759777432E9, 0.0, 2024-02-10 15:09:19.777
43.0, -201.0570216178894, -557.2151741981506, -1930.8654683232307, -190.04675614833832, 0.0800000037997961, -0.01600000075995922, 1.008000047877431, 0.0, 0.0, 0.0, 0.0, 0.0, 1.707595759778494E9, 0.0, 2024-02-10 15:09:19.778
43.0, -216.37565183639526, -592.1607993841171, -1988.0709780454636, -204.1686183810234, 0.0800000037997961, -0.01600000075995922, 1.008000047877431, 0.0, 0.0, 0.0, 0.0, 0.0, 1.707595759778494E9, 0.0, 2024-02-10 15:09:19.778
44.0, -191.00417053699493, -545.7262015342712, -1938.2854298353195, -184.78097701072693, 0.0800000037997961, -0.01600000075995922, 1.008000047877431, 0.0, 0.0, 0.0, 0.0, 0.0, 1.7075957597919412E9, 0.0, 2024-02-10 15:09:19.791
44.0, -196.03059607744217, -539.9817152023315, -1916.9829596877098, -192.44029211997986, 0.0800000037997961, -0.01600000075995922, 1.008000047877431, 0.0, 0.0, 0.0, 0.0, 0.0, 1.7075957597919412E9, 0.0, 2024-02-10 15:09:19.791
45.0, -211.34922629594803, -590.0066170096397, -1991.4219284057617, -219.48724859952927, 0.0800000037997961, -0.01600000075995922, 1.008000047877431, 0.0, 0.0, 0.0, 0.0, 0.0, 1.707595759807333E9, 0.0, 2024-02-10 15:09:19.807
45.0, -202.25378960371017, -570.6189756393433, -1962.9388503432274, -194.59447449445724, 0.0800000037997961, -0.01600000075995922, 1.008000047877431, 0.0, 0.0, 0.0, 0.0, 0.0, 1.707595759807333E9, 0.0, 2024-02-10 15:09:19.807
46.0, -199.86025363206863, -543.3326655626297, -1911.9565341472626, -186.69580578804016, 0.0800000037997961, -0.01600000075995922, 1.008000047877431, 0.0, 0.0, 0.0, 0.0, 0.0, 1.7075957598080184E9, 0.0, 2024-02-10 15:09:19.808
46.0, -219.2478950023651, -579.9537659287453, -1973.9491158127785, -213.98211586475372, 0.0800000037997961, -0.01600000075995922, 1.008000047877431, 0.0, 0.0, 0.0, 0.0, 0.0, 1.7075957598080184E9, 0.0, 2024-02-10 15:09:19.808
47.0, -215.6575910449028, -592.6395065784454, -1994.7728787660599, -216.85435903072357, 0.0800000037997961, -0.01600000075995922, 1.008000047877431, 0.0, 0.0, 0.0, 0.0, 0.0, 1.707595759821674E9, 0.0, 2024-02-10 15:09:19.821
47.0, -193.39770650863647, -541.1784831881523, -1919.1371420621872, -182.8661482334137, 0.0800000037997961, -0.01600000075995922, 1.008000047877431, 0.0, 0.0, 0.0, 0.0, 0.0, 1.707595759821674E9, 0.0, 2024-02-10 15:09:19.821
48.0, -211.10987269878387, -569.4222076535225, -1937.8067226409912, -205.12603276968002, 0.0800000037997961, -0.01600000075995922, 1.008000047877431, 0.0, 0.0, 0.0, 0.0, 0.0, 1.707595759837328E9, 0.0, 2024-02-10 15:09:19.837
48.0, -219.48724859952927, -602.6923576593399, -2001.4747794866562, -220.68401658535004, 0.0800000037997961, -0.01600000075995922, 1.008000047877431, 0.0, 0.0, 0.0, 0.0, 0.0, 1.707595759837328E9, 0.0, 2024-02-10 15:09:19.837
49.0, -196.50930327177048, -553.8642238378525, -1936.1312474608421, -183.58420902490616, 0.0800000037997961, -0.01600000075995922, 1.008000047877431, 0.0, 0.0, 0.0, 0.0, 0.0, 1.7075957598380222E9, 0.0, 2024-02-10 15:09:19.838
49.0, -200.5783144235611, -550.034566283226, -1914.5894237160683, -183.344855427742, 0.0800000037997961, -0.01600000075995922, 1.008000047877431, 0.0, 0.0, 0.0, 0.0, 0.0, 1.7075957598380222E9, 0.0, 2024-02-10 15:09:19.838
50.0, -213.74276226758957, -589.0492026209831, -1981.6084309220314, -202.97185039520264, 0.0800000037997961, -0.01600000075995922, 1.008000047877431, 0.0, 0.0, 0.0, 0.0, 0.0, 1.7075957598516307E9, 0.0, 2024-02-10 15:09:19.851
50.0, -202.25378960371017, -573.0125116109848, -1964.3749719262123, -192.2009385228157, 0.0800000037997961, -0.01600000075995922, 1.008000047877431, 0.0, 0.0, 0.0, 0.0, 0.0, 1.7075957598516307E9, 0.0, 2024-02-10 15:09:19.851
51.0, -199.14219284057617, -538.3062400221825, -1910.0417053699493, -188.37128096818924, 0.0800000037997961, -0.01600000075995922, 1.008000047877431, 0.0, 0.0, 0.0, 0.0, 0.0, 1.7075957598673987E9, 0.0, 2024-02-10 15:09:19.867
51.0, -214.22146946191788, -573.7305724024773, -1965.0930327177048, -209.4343975186348, 0.0800000037997961, -0.01600000075995922, 1.008000047877431, 0.0, 0.0, 0.0, 0.0, 0.0, 1.7075957598673987E9, 0.0, 2024-02-10 15:09:19.867
52.0, -210.63116550445557, -584.0227770805359, -1984.9593812823296, -207.04086154699326, 0.0800000037997961, -0.01600000075995922, 1.008000047877431, 0.0, 0.0, 0.0, 0.0, 0.0, 1.7075957598680143E9, 0.0, 2024-02-10 15:09:19.868
52.0, -196.50930327177048, -539.5030080080032, -1910.0417053699493, -176.88230830430984, 0.0800000037997961, -0.01600000075995922, 1.008000047877431, 0.0, 0.0, 0.0, 0.0, 0.0, 1.7075957598680143E9, 0.0, 2024-02-10 15:09:19.868
53.0, -209.4343975186348, -559.6087101697922, -1937.567369043827, -200.33896082639694, 0.0800000037997961, -0.01600000075995922, 1.008000047877431, 0.0, 0.0, 0.0, 0.0, 0.0, 1.707595759881663E9, 0.0, 2024-02-10 15:09:19.881
53.0, -231.93363565206528, -614.4206839203835, -2015.8359953165054, -221.16272377967834, 0.0800000037997961, -0.01600000075995922, 1.008000047877431, 0.0, 0.0, 0.0, 0.0, 0.0, 1.707595759881663E9, 0.0, 2024-02-10 15:09:19.881
54.0, -209.4343975186348, -570.6189756393433, -1953.125352859497, -199.38154643774033, 0.0800000037997961, -0.01600000075995922, 1.008000047877431, 0.0, 0.0, 0.0, 0.0, 0.0, 1.7075957598973172E9, 0.0, 2024-02-10 15:09:19.897
54.0, -206.8015079498291, -553.6248702406883, -1926.3177499771118, -195.55188888311386, 0.0800000037997961, -0.01600000075995922, 1.008000047877431, 0.0, 0.0, 0.0, 0.0, 0.0, 1.7075957598973172E9, 0.0, 2024-02-10 15:09:19.897
55.0, -227.86462450027466, -607.0007224082947, -2000.7567186951637, -222.35949176549911, 0.0800000037997961, -0.01600000075995922, 1.008000047877431, 0.0, 0.0, 0.0, 0.0, 0.0, 1.707595759898033E9, 0.0, 2024-02-10 15:09:19.898
55.0, -222.59884536266327, -588.0917882323265, -1978.2574805617332, -207.2802151441574, 0.0800000037997961, -0.01600000075995922, 1.008000047877431, 0.0, 0.0, 0.0, 0.0, 0.0, 1.707595759898033E9, 0.0, 2024-02-10 15:09:19.898
56.0, -204.64732557535172, -546.922969520092, -1920.0945564508438, -188.37128096818924, 0.0800000037997961, -0.01600000075995922, 1.008000047877431, 0.0, 0.0, 0.0, 0.0, 0.0, 1.7075957599118135E9, 0.0, 2024-02-10 15:09:19.911
56.0, -236.9600611925125, -609.6336119771004, -1988.5496852397919, -224.5136741399765, 0.0800000037997961, -0.01600000075995922, 1.008000047877431, 0.0, 0.0, 0.0, 0.0, 0.0, 1.7075957599118135E9, 0.0, 2024-02-10 15:09:19.911
57.0, -225.47108852863312, -603.6497720479965, -2007.6979730129242, -226.6678565144539, 0.0800000037997961, -0.01600000075995922, 1.008000047877431, 0.0, 0.0, 0.0, 0.0, 0.0, 1.707595759927332E9, 0.0, 2024-02-10 15:09:19.927
57.0, -198.4241320490837, -550.034566283226, -1932.0622363090515, -191.48287773132324, 0.0800000037997961, -0.01600000075995922, 1.008000047877431, 0.0, 0.0, 0.0, 0.0, 0.0, 1.707595759927332E9, 0.0, 2024-02-10 15:09:19.927
58.0, -210.63116550445557, -579.7144123315811, -1943.0725017786026, -200.5783144235611, 0.0800000037997961, -0.01600000075995922, 1.008000047877431, 0.0, 0.0, 0.0, 0.0, 0.0, 1.7075957599280367E9, 0.0, 2024-02-10 15:09:19.928
58.0, -231.69428205490112, -612.9845623373985, -2009.1340945959091, -220.68401658535004, 0.0800000037997961, -0.01600000075995922, 1.008000047877431, 0.0, 0.0, 0.0, 0.0, 0.0, 1.7075957599280367E9, 0.0, 2024-02-10 15:09:19.928
59.0, -206.08344715833664, -558.6512957811356, -1947.8595737218857, -192.2009385228157, 0.0800000037997961, -0.01600000075995922, 1.008000047877431, 0.0, 0.0, 0.0, 0.0, 0.0, 1.7075957599420016E9, 0.0, 2024-02-10 15:09:19.942
59.0, -214.46082305908203, -567.7467324733734, -1930.1474075317383, -191.00417053699493, 0.0800000037997961, -0.01600000075995922, 1.008000047877431, 0.0, 0.0, 0.0, 0.0, 0.0, 1.7075957599420016E9, 0.0, 2024-02-10 15:09:19.942
60.0, -233.60911083221436, -616.5748662948608, -2002.910901069641, -214.46082305908203, 0.0800000037997961, -0.01600000075995922, 1.008000047877431, 0.0, 0.0, 0.0, 0.0, 0.0, 1.7075957599575903E9, 0.0, 2024-02-10 15:09:19.957
60.0, -211.58857989311218, -578.038937151432, -1972.5129942297935, -195.79124248027802, 0.0800000037997961, -0.01600000075995922, 1.008000047877431, 0.0, 0.0, 0.0, 0.0, 0.0, 1.7075957599575903E9, 0.0, 2024-02-10 15:09:19.957
61.0, -207.75892233848572, -554.8216382265091, -1913.3926557302475, -183.10550183057785, 0.0800000037997961, -0.01600000075995922, 1.008000047877431, 0.0, 0.0, 0.0, 0.0, 0.0, 1.7075957599580727E9, 0.0, 2024-02-10 15:09:19.958
61.0, -226.6678565144539, -595.9904569387436, -1968.443983078003, -208.71633672714233, 0.0800000037997961, -0.01600000075995922, 1.008000047877431, 0.0, 0.0, 0.0, 0.0, 0.0, 1.7075957599580727E9, 0.0, 2024-02-10 15:09:19.958
62.0, -226.18914932012558, -601.0168824791908, -1992.3793427944183, -205.60473996400833, 0.0800000037997961, -0.01600000075995922, 1.008000047877431, 0.0, 0.0, 0.0, 0.0, 0.0, 1.7075957599716258E9, 0.0, 2024-02-10 15:09:19.971
62.0, -200.5783144235611, -547.8803839087486, -1916.2648988962173, -177.36101549863815, 0.0800000037997961, -0.01600000075995922, 1.008000047877431, 0.0, 0.0, 0.0, 0.0, 0.0, 1.7075957599716258E9, 0.0, 2024-02-10 15:09:19.971
63.0, -218.2904806137085, -573.4912188053131, -1936.1312474608421, -193.15835291147232, 0.0800000037997961, -0.01600000075995922, 1.008000047877431, 0.0, 0.0, 0.0, 0.0, 0.0, 1.7075957599873168E9, 0.0, 2024-02-10 15:09:19.987
63.0, -229.06139248609543, -609.1549047827721, -2000.2780115008354, -207.51956874132156, 0.0800000037997961, -0.01600000075995922, 1.008000047877431, 0.0, 0.0, 0.0, 0.0, 0.0, 1.7075957599873168E9, 0.0, 2024-02-10 15:09:19.987
64.0, -210.87051910161972, -573.251865208149, -1942.115087389946, -184.06291621923447, 0.0800000037997961, -0.01600000075995922, 1.008000047877431, 0.0, 0.0, 0.0, 0.0, 0.0, 1.7075957599879987E9, 0.0, 2024-02-10 15:09:19.987
64.0, -214.46082305908203, -569.4222076535225, -1928.232578754425, -198.18477845191956, 0.0800000037997961, -0.01600000075995922, 1.008000047877431, 0.0, 0.0, 0.0, 0.0, 0.0, 1.7075957599879987E9, 0.0, 2024-02-10 15:09:19.987
65.0, -228.34333169460297, -603.6497720479965, -1999.799304306507, -223.55625975131989, 0.0800000037997961, -0.01600000075995922, 1.008000047877431, 0.0, 0.0, 0.0, 0.0, 0.0, 1.7075957600016775E9, 0.0, 2024-02-10 15:09:20.001
65.0, -215.41823744773865, -585.9376058578491, -1972.7523478269577, -198.66348564624786, 0.0800000037997961, -0.01600000075995922, 1.008000047877431, 0.0, 0.0, 0.0, 0.0, 0.0, 1.7075957600016775E9, 0.0, 2024-02-10 15:09:20.001
66.0, -207.99827593564987, -556.0184062123299, -1911.7171805500984, -184.06291621923447, 0.0800000037997961, -0.01600000075995922, 1.008000047877431, 0.0, 0.0, 0.0, 0.0, 0.0, 1.7075957600172925E9, 0.0, 2024-02-10 15:09:20.017
66.0, -232.41234284639359, -603.4104184508324, -1979.2148949503899, -219.96595579385757, 0.0800000037997961, -0.01600000075995922, 1.008000047877431, 0.0, 0.0, 0.0, 0.0, 0.0, 1.7075957600172925E9, 0.0, 2024-02-10 15:09:20.017
67.0, -227.38591730594635, -603.6497720479965, -1995.4909395575523, -212.30664068460464, 0.0800000037997961, -0.01600000075995922, 1.008000047877431, 0.0, 0.0, 0.0, 0.0, 0.0, 1.7075957600180051E9, 0.0, 2024-02-10 15:09:20.018
67.0, -209.9131047129631, -557.6938813924789, -1925.3603355884552, -189.56804895401, 0.0800000037997961, -0.01600000075995922, 1.008000047877431, 0.0, 0.0, 0.0, 0.0, 0.0, 1.7075957600180051E9, 0.0, 2024-02-10 15:09:20.018
68.0, -224.9923813343048, -585.4588986635208, -1954.0827672481537, -216.37565183639526, 0.0800000037997961, -0.01600000075995922, 1.008000047877431, 0.0, 0.0, 0.0, 0.0, 0.0, 1.7075957600316048E9, 0.0, 2024-02-10 15:09:20.031
68.0, -211.58857989311218, -603.8891256451607, -2001.7141330838203, -216.85435903072357, 0.0800000037997961, -0.01600000075995922, 1.008000047877431, 0.0, 0.0, 0.0, 0.0, 0.0, 1.7075957600316048E9, 0.0, 2024-02-10 15:09:20.031
69.0, -183.10550183057785, -551.7100414633751, -1933.4983578920364, -185.73839139938354, 0.0800000037997961, -0.01600000075995922, 1.008000047877431, 0.0, 0.0, 0.0, 0.0, 0.0, 1.7075957600472865E9, 0.0, 2024-02-10 15:09:20.047
69.0, -187.17451298236847, -553.8642238378525, -1917.9403740763664, -198.66348564624786, 0.0800000037997961, -0.01600000075995922, 1.008000047877431, 0.0, 0.0, 0.0, 0.0, 0.0, 1.7075957600472865E9, 0.0, 2024-02-10 15:09:20.047
70.0, -212.0672870874405, -599.3414072990417, -1992.1399891972542, -222.59884536266327, 0.0800000037997961, -0.01600000075995922, 1.008000047877431, 0.0, 0.0, 0.0, 0.0, 0.0, 1.707595760048E9, 0.0, 2024-02-10 15:09:20.048
70.0, -187.65322017669678, -575.6454011797905, -1971.794933438301, -209.19504392147064, 0.0800000037997961, -0.01600000075995922, 1.008000047877431, 0.0, 0.0, 0.0, 0.0, 0.0, 1.707595760048E9, 0.0, 2024-02-10 15:09:20.048
71.0, -178.55778348445892, -538.5455936193466, -1910.2810589671135, -186.69580578804016, 0.0800000037997961, -0.01600000075995922, 1.008000047877431, 0.0, 0.0, 0.0, 0.0, 0.0, 1.707595760061652E9, 0.0, 2024-02-10 15:09:20.061
71.0, -209.19504392147064, -592.8788601756096, -1973.7097622156143, -223.55625975131989, 0.0800000037997961, -0.01600000075995922, 1.008000047877431, 0.0, 0.0, 0.0, 0.0, 0.0, 1.707595760061652E9, 0.0, 2024-02-10 15:09:20.061
72.0, -195.79124248027802, -586.6556666493416, -1987.113563656807, -220.68401658535004, 0.0800000037997961, -0.01600000075995922, 1.008000047877431, 0.0, 0.0, 0.0, 0.0, 0.0, 1.7075957600773385E9, 0.0, 2024-02-10 15:09:20.077
72.0, -177.6003690958023, -541.6571903824806, -1916.0255452990532, -186.21709859371185, 0.0800000037997961, -0.01600000075995922, 1.008000047877431, 0.0, 0.0, 0.0, 0.0, 0.0, 1.7075957600773385E9, 0.0, 2024-02-10 15:09:20.077
73.0, -197.9454248547554, -568.4647932648659, -1940.9183194041252, -208.71633672714233, 0.0800000037997961, -0.01600000075995922, 1.008000047877431, 0.0, 0.0, 0.0, 0.0, 0.0, 1.7075957600780432E9, 0.0, 2024-02-10 15:09:20.078
73.0, -206.8015079498291, -603.1710648536682, -1996.2090003490448, -217.09371262788773, 0.0800000037997961, -0.01600000075995922, 1.008000047877431, 0.0, 0.0, 0.0, 0.0, 0.0, 1.7075957600780432E9, 0.0, 2024-02-10 15:09:20.078
74.0, -190.28610974550247, -561.2841853499413, -1943.0725017786026, -196.03059607744217, 0.0800000037997961, -0.01600000075995922, 1.008000047877431, 0.0, 0.0, 0.0, 0.0, 0.0, 1.7075957600919666E9, 0.0, 2024-02-10 15:09:20.091
74.0, -192.91899931430817, -550.5132734775543, -1923.2061532139778, -198.66348564624786, 0.0800000037997961, -0.01600000075995922, 1.008000047877431, 0.0, 0.0, 0.0, 0.0, 0.0, 1.7075957600919666E9, 0.0, 2024-02-10 15:09:20.091
75.0, -213.74276226758957, -597.1872249245644, -1994.7728787660599, -222.12013816833496, 0.0800000037997961, -0.01600000075995922, 1.008000047877431, 0.0, 0.0, 0.0, 0.0, 0.0, 1.7075957601077387E9, 0.0, 2024-02-10 15:09:20.107
75.0, -202.97185039520264, -581.150533914566, -1972.7523478269577, -211.34922629594803, 0.0800000037997961, -0.01600000075995922, 1.008000047877431, 0.0, 0.0, 0.0, 0.0, 0.0, 1.7075957601077387E9, 0.0, 2024-02-10 15:09:20.107
76.0, -189.80740255117416, -547.6410303115845, -1911.4778269529343, -196.26994967460632, 0.0800000037997961, -0.01600000075995922, 1.008000047877431, 0.0, 0.0, 0.0, 0.0, 0.0, 1.707595760108348E9, 0.0, 2024-02-10 15:09:20.108
76.0, -218.05112701654434, -595.2723961472511, -1978.4968341588974, -226.42850291728973, 0.0800000037997961, -0.01600000075995922, 1.008000047877431, 0.0, 0.0, 0.0, 0.0, 0.0, 1.707595760108348E9, 0.0, 2024-02-10 15:09:20.108
77.0, -202.25378960371017, -590.2459706068039, -1990.7038676142693, -213.74276226758957, 0.0800000037997961, -0.01600000075995922, 1.008000047877431, 0.0, 0.0, 0.0, 0.0, 0.0, 1.707595760121836E9, 0.0, 2024-02-10 15:09:20.121
77.0, -191.48287773132324, -554.5822846293449, -1923.2061532139778, -196.50930327177048, 0.0800000037997961, -0.01600000075995922, 1.008000047877431, 0.0, 0.0, 0.0, 0.0, 0.0, 1.707595760121836E9, 0.0, 2024-02-10 15:09:20.121
78.0, -208.71633672714233, -578.5176443457603, -1955.2795352339745, -219.72660219669342, 0.0800000037997961, -0.01600000075995922, 1.008000047877431, 0.0, 0.0, 0.0, 0.0, 0.0, 1.707595760137718E9, 0.0, 2024-02-10 15:09:20.137
78.0, -221.64143097400665, -612.9845623373985, -2015.3572881221771, -230.2581604719162, 0.0800000037997961, -0.01600000075995922, 1.008000047877431, 0.0, 0.0, 0.0, 0.0, 0.0, 1.707595760137718E9, 0.0, 2024-02-10 15:09:20.137
79.0, -200.5783144235611, -575.4060475826263, -1964.1356183290482, -217.33306622505188, 0.0800000037997961, -0.01600000075995922, 1.008000047877431, 0.0, 0.0, 0.0, 0.0, 0.0, 1.707595760138193E9, 0.0, 2024-02-10 15:09:20.138
79.0, -197.70607125759125, -568.9435004591942, -1943.0725017786026, -224.27432054281235, 0.0800000037997961, -0.01600000075995922, 1.008000047877431, 0.0, 0.0, 0.0, 0.0, 0.0, 1.707595760138193E9, 0.0, 2024-02-10 15:09:20.138
80.0, -217.57241982221603, -614.4206839203835, -2007.45861941576, -239.1142435669899, 0.0800000037997961, -0.01600000075995922, 1.008000047877431, 0.0, 0.0, 0.0, 0.0, 0.0, 1.7075957601519787E9, 0.0, 2024-02-10 15:09:20.151
80.0, -197.9454248547554, -581.150533914566, -1976.8213589787483, -214.70017665624619, 0.0800000037997961, -0.01600000075995922, 1.008000047877431, 0.0, 0.0, 0.0, 0.0, 0.0, 1.7075957601519787E9, 0.0, 2024-02-10 15:09:20.151
81.0, -187.89257377386093, -546.2049087285995, -1915.786191701889, -199.86025363206863, 0.0800000037997961, -0.01600000075995922, 1.008000047877431, 0.0, 0.0, 0.0, 0.0, 0.0, 1.7075957601674948E9, 0.0, 2024-02-10 15:09:20.167
81.0, -212.30664068460464, -596.9478713274002, -1980.1723093390465, -223.55625975131989, 0.0800000037997961, -0.01600000075995922, 1.008000047877431, 0.0, 0.0, 0.0, 0.0, 0.0, 1.7075957601674948E9, 0.0, 2024-02-10 15:09:20.167
82.0, -210.63116550445557, -595.2723961472511, -1997.4057683348656, -214.46082305908203, 0.0800000037997961, -0.01600000075995922, 1.008000047877431, 0.0, 0.0, 0.0, 0.0, 0.0, 1.7075957601682177E9, 0.0, 2024-02-10 15:09:20.168
82.0, -186.93515938520432, -544.7687871456146, -1920.5732636451721, -190.52546334266663, 0.0800000037997961, -0.01600000075995922, 1.008000047877431, 0.0, 0.0, 0.0, 0.0, 0.0, 1.7075957601682177E9, 0.0, 2024-02-10 15:09:20.168
83.0, -213.98211586475372, -586.8950202465057, -1954.8008280396461, -214.46082305908203, 0.0800000037997961, -0.01600000075995922, 1.008000047877431, 0.0, 0.0, 0.0, 0.0, 0.0, 1.707595760181612E9, 0.0, 2024-02-10 15:09:20.181
83.0, -233.13040363788605, -620.6438774466515, -2021.5804816484451, -235.28458601236343, 0.0800000037997961, -0.01600000075995922, 1.008000047877431, 0.0, 0.0, 0.0, 0.0, 0.0, 1.707595760181612E9, 0.0, 2024-02-10 15:09:20.181
84.0, -202.73249679803848, -568.4647932648659, -1954.3221208453178, -207.99827593564987, 0.0800000037997961, -0.01600000075995922, 1.008000047877431, 0.0, 0.0, 0.0, 0.0, 0.0, 1.7075957601974108E9, 0.0, 2024-02-10 15:09:20.197
84.0, -201.0570216178894, -560.3267709612846, -1929.9080539345741, -204.88667917251587, 0.0800000037997961, -0.01600000075995922, 1.008000047877431, 0.0, 0.0, 0.0, 0.0, 0.0, 1.7075957601974108E9, 0.0, 2024-02-10 15:09:20.197
85.0, -222.12013816833496, -621.8406454324722, -2004.8257298469543, -234.08781802654266, 0.0800000037997961, -0.01600000075995922, 1.008000047877431, 0.0, 0.0, 0.0, 0.0, 0.0, 1.7075957601982942E9, 0.0, 2024-02-10 15:09:20.198
85.0, -206.3228007555008, -589.5279098153114, -1983.2839061021805, -215.41823744773865, 0.0800000037997961, -0.01600000075995922, 1.008000047877431, 0.0, 0.0, 0.0, 0.0, 0.0, 1.7075957601982942E9, 0.0, 2024-02-10 15:09:20.198
86.0, -205.60473996400833, -561.0448317527771, -1926.0783963799477, -205.12603276968002, 0.0800000037997961, -0.01600000075995922, 1.008000047877431, 0.0, 0.0, 0.0, 0.0, 0.0, 1.7075957602119174E9, 0.0, 2024-02-10 15:09:20.211
86.0, -235.76329320669174, -613.702623128891, -1988.5496852397919, -232.65169644355774, 0.0800000037997961, -0.01600000075995922, 1.008000047877431, 0.0, 0.0, 0.0, 0.0, 0.0, 1.7075957602119174E9, 0.0, 2024-02-10 15:09:20.211
87.0, -221.64143097400665, -618.7290486693382, -2008.6553874015808, -230.49751406908035, 0.0800000037997961, -0.01600000075995922, 1.008000047877431, 0.0, 0.0, 0.0, 0.0, 0.0, 1.7075957602274044E9, 0.0, 2024-02-10 15:09:20.227
87.0, -186.69580578804016, -550.9919806718826, -1922.009385228157, -191.96158492565155, 0.0800000037997961, -0.01600000075995922, 1.008000047877431, 0.0, 0.0, 0.0, 0.0, 0.0, 1.7075957602274044E9, 0.0, 2024-02-10 15:09:20.227
88.0, -207.51956874132156, -575.8847547769547, -1952.885999262333, -211.82793349027634, 0.0800000037997961, -0.01600000075995922, 1.008000047877431, 0.0, 0.0, 0.0, 0.0, 0.0, 1.707595760228038E9, 0.0, 2024-02-10 15:09:20.228
88.0, -215.89694464206696, -614.8993911147118, -2013.442459344864, -228.82203888893127, 0.0800000037997961, -0.01600000075995922, 1.008000047877431, 0.0, 0.0, 0.0, 0.0, 0.0, 1.707595760228038E9, 0.0, 2024-02-10 15:09:20.228
89.0, -194.3551208972931, -571.815743625164, -1953.125352859497, -207.04086154699326, 0.0800000037997961, -0.01600000075995922, 1.008000047877431, 0.0, 0.0, 0.0, 0.0, 0.0, 1.707595760241611E9, 0.0, 2024-02-10 15:09:20.241
89.0, -202.97185039520264, -563.4383677244186, -1932.0622363090515, -207.04086154699326, 0.0800000037997961, -0.01600000075995922, 1.008000047877431, 0.0, 0.0, 0.0, 0.0, 0.0, 1.707595760241611E9, 0.0, 2024-02-10 15:09:20.241
90.0, -229.7794532775879, -618.4896950721741, -2008.1766802072525, -233.13040363788605, 0.0800000037997961, -0.01600000075995922, 1.008000047877431, 0.0, 0.0, 0.0, 0.0, 0.0, 1.7075957602582188E9, 0.0, 2024-02-10 15:09:20.258
90.0, -210.63116550445557, -592.1607993841171, -1984.7200276851654, -211.34922629594803, 0.0800000037997961, -0.01600000075995922, 1.008000047877431, 0.0, 0.0, 0.0, 0.0, 0.0, 1.7075957602582188E9, 0.0, 2024-02-10 15:09:20.258
91.0, -201.77508240938187, -555.7790526151657, -1923.2061532139778, -196.50930327177048, 0.0800000037997961, -0.01600000075995922, 1.008000047877431, 0.0, 0.0, 0.0, 0.0, 0.0, 1.7075957602582545E9, 0.0, 2024-02-10 15:09:20.258
91.0, -222.35949176549911, -604.6071864366531, -1984.7200276851654, -223.07755255699158, 0.0800000037997961, -0.01600000075995922, 1.008000047877431, 0.0, 0.0, 0.0, 0.0, 0.0, 1.7075957602582545E9, 0.0, 2024-02-10 15:09:20.258
92.0, -207.51956874132156, -595.033042550087, -2001.9534866809845, -215.6575910449028, 0.0800000037997961, -0.01600000075995922, 1.008000047877431, 0.0, 0.0, 0.0, 0.0, 0.0, 1.7075957602716107E9, 0.0, 2024-02-10 15:09:20.271
92.0, -189.80740255117416, -551.2313342690468, -1928.9506395459175, -194.3551208972931, 0.0800000037997961, -0.01600000075995922, 1.008000047877431, 0.0, 0.0, 0.0, 0.0, 0.0, 1.7075957602716107E9, 0.0, 2024-02-10 15:09:20.271
93.0, -205.84409356117249, -577.5602299571037, -1949.5350489020348, -208.9556903243065, 0.0800000037997961, -0.01600000075995922, 1.008000047877431, 0.0, 0.0, 0.0, 0.0, 0.0, 1.707595760287399E9, 0.0, 2024-02-10 15:09:20.287
93.0, -222.12013816833496, -626.3883637785912, -2021.341128051281, -236.9600611925125, 0.0800000037997961, -0.01600000075995922, 1.008000047877431, 0.0, 0.0, 0.0, 0.0, 0.0, 1.707595760287399E9, 0.0, 2024-02-10 15:09:20.287
94.0, -207.2802151441574, -579.475058734417, -1956.4763032197952, -210.87051910161972, 0.0800000037997961, -0.01600000075995922, 1.008000047877431, 0.0, 0.0, 0.0, 0.0, 0.0, 1.707595760288061E9, 0.0, 2024-02-10 15:09:20.288
94.0, -200.81766802072525, -571.0976828336716, -1930.6261147260666, -202.73249679803848, 0.0800000037997961, -0.01600000075995922, 1.008000047877431, 0.0, 0.0, 0.0, 0.0, 0.0, 1.707595760288061E9, 0.0, 2024-02-10 15:09:20.288
95.0, -230.01880687475204, -624.9522421956062, -2016.793409705162, -234.56652522087097, 0.0800000037997961, -0.01600000075995922, 1.008000047877431, 0.0, 0.0, 0.0, 0.0, 0.0, 1.707595760317973E9, 0.0, 2024-02-10 15:09:20.317
95.0, -202.49314320087433, -583.3047162890434, -1986.3955028653145, -210.3918119072914, 0.0800000037997961, -0.01600000075995922, 1.008000047877431, 0.0, 0.0, 0.0, 0.0, 0.0, 1.707595760317973E9, 0.0, 2024-02-10 15:09:20.317
96.0, -195.55188888311386, -552.6674558520317, -1927.5145179629326, -201.29637521505356, 0.0800000037997961, -0.01600000075995922, 1.008000047877431, 0.0, 0.0, 0.0, 0.0, 0.0, 1.70759576031874E9, 0.0, 2024-02-10 15:09:20.318
96.0, -224.0349669456482, -604.6071864366531, -1984.4806740880013, -222.35949176549911, 0.0800000037997961, -0.01600000075995922, 1.008000047877431, 0.0, 0.0, 0.0, 0.0, 0.0, 1.70759576031874E9, 0.0, 2024-02-10 15:09:20.318
97.0, -215.41823744773865, -600.0594680905342, -2005.0650834441185, -221.64143097400665, 0.0800000037997961, -0.01600000075995922, 1.008000047877431, 0.0, 0.0, 0.0, 0.0, 0.0, 1.707595760319461E9, 0.0, 2024-02-10 15:09:20.319
97.0, -199.38154643774033, -557.6938813924789, -1932.3015899062157, -202.73249679803848, 0.0800000037997961, -0.01600000075995922, 1.008000047877431, 0.0, 0.0, 0.0, 0.0, 0.0, 1.707595760319461E9, 0.0, 2024-02-10 15:09:20.319
98.0, -214.22146946191788, -577.0815227627754, -1953.125352859497, -215.6575910449028, 0.0800000037997961, -0.01600000075995922, 1.008000047877431, 0.0, 0.0, 0.0, 0.0, 0.0, 1.707595760331646E9, 0.0, 2024-02-10 15:09:20.331
98.0, -219.00854140520096, -613.9419767260551, -2010.8095697760582, -222.59884536266327, 0.0800000037997961, -0.01600000075995922, 1.008000047877431, 0.0, 0.0, 0.0, 0.0, 0.0, 1.707595760331646E9, 0.0, 2024-02-10 15:09:20.331
99.0, -197.70607125759125, -564.1564285159111, -1950.7318168878555, -193.63706010580063, 0.0800000037997961, -0.01600000075995922, 1.008000047877431, 0.0, 0.0, 0.0, 0.0, 0.0, 1.7075957603467278E9, 0.0, 2024-02-10 15:09:20.346
99.0, -206.3228007555008, -572.0550972223282, -1933.2590042948723, -202.73249679803848, 0.0800000037997961, -0.01600000075995922, 1.008000047877431, 0.0, 0.0, 0.0, 0.0, 0.0, 1.7075957603467278E9, 0.0, 2024-02-10 15:09:20.346
0.0, -203.6899111866951, -589.0492026209831, -1982.3264917135239, -215.1788838505745, 0.0800000037997961, -0.01600000075995922, 1.008000047877431, 0.0, 0.0, 0.0, 0.0, 0.0, 1.7075957603626392E9, 0.0, 2024-02-10 15:09:20.362
0.0, -199.62090003490448, -554.3429310321808, -1922.009385228157, -192.91899931430817, 0.0800000037997961, -0.01600000075995922, 1.008000047877431, 0.0, 0.0, 0.0, 0.0, 0.0, 1.7075957603626392E9, 0.0, 2024-02-10 15:09:20.362
1.0, -220.20530939102173, -598.3839929103851, -1975.8639445900917, -213.98211586475372, 0.0800000037997961, -0.01600000075995922, 1.008000047877431, 0.0, 0.0, 0.0, 0.0, 0.0, 1.7075957603630147E9, 0.0, 2024-02-10 15:09:20.363
1.0, -210.87051910161972, -599.3414072990417, -1995.2515859603882, -210.15245831012726, 0.0800000037997961, -0.01600000075995922, 1.008000047877431, 0.0, 0.0, 0.0, 0.0, 0.0, 1.7075957603630147E9, 0.0, 2024-02-10 15:09:20.363
2.0, -196.50930327177048, -552.4281022548676, -1925.5996891856194, -194.11576730012894, 0.0800000037997961, -0.01600000075995922, 1.008000047877431, 0.0, 0.0, 0.0, 0.0, 0.0, 1.707595760376603E9, 0.0, 2024-02-10 15:09:20.376
2.0, -218.05112701654434, -583.7834234833717, -1950.4924632906914, -209.4343975186348, 0.0800000037997961, -0.01600000075995922, 1.008000047877431, 0.0, 0.0, 0.0, 0.0, 0.0, 1.707595760376603E9, 0.0, 2024-02-10 15:09:20.376
3.0, -230.49751406908035, -623.9948278069496, -2016.0753489136696, -232.41234284639359, 0.0800000037997961, -0.01600000075995922, 1.008000047877431, 0.0, 0.0, 0.0, 0.0, 0.0, 1.707595760392602E9, 0.0, 2024-02-10 15:09:20.392
3.0, -203.2112039923668, -571.0976828336716, -1955.5188888311386, -204.40797197818756, 0.0800000037997961, -0.01600000075995922, 1.008000047877431, 0.0, 0.0, 0.0, 0.0, 0.0, 1.707595760392602E9, 0.0, 2024-02-10 15:09:20.392
4.0, -209.4343975186348, -570.140268445015, -1941.1576730012894, -211.58857989311218, 0.0800000037997961, -0.01600000075995922, 1.008000047877431, 0.0, 0.0, 0.0, 0.0, 0.0, 1.707595760393195E9, 0.0, 2024-02-10 15:09:20.393
4.0, -224.9923813343048, -609.6336119771004, -2014.6392273306847, -234.08781802654266, 0.0800000037997961, -0.01600000075995922, 1.008000047877431, 0.0, 0.0, 0.0, 0.0, 0.0, 1.707595760393195E9, 0.0, 2024-02-10 15:09:20.393
5.0, -206.8015079498291, -590.9640313982964, -1979.9329557418823, -206.3228007555008, 0.0800000037997961, -0.01600000075995922, 1.008000047877431, 0.0, 0.0, 0.0, 0.0, 0.0, 1.7075957604232247E9, 0.0, 2024-02-10 15:09:20.423
5.0, -205.12603276968002, -560.805478155613, -1929.9080539345741, -197.4667176604271, 0.0800000037997961, -0.01600000075995922, 1.008000047877431, 0.0, 0.0, 0.0, 0.0, 0.0, 1.7075957604232247E9, 0.0, 2024-02-10 15:09:20.423
6.0, -224.9923813343048, -607.479429602623, -1995.2515859603882, -228.34333169460297, 0.0800000037997961, -0.01600000075995922, 1.008000047877431, 0.0, 0.0, 0.0, 0.0, 0.0, 1.7075957604237516E9, 0.0, 2024-02-10 15:09:20.423
6.0, -214.70017665624619, -598.3839929103851, -2005.0650834441185, -223.55625975131989, 0.0800000037997961, -0.01600000075995922, 1.008000047877431, 0.0, 0.0, 0.0, 0.0, 0.0, 1.7075957604237516E9, 0.0, 2024-02-10 15:09:20.423
7.0, -222.35949176549911, -583.7834234833717, -1950.9711704850197, -218.2904806137085, 0.0800000037997961, -0.01600000075995922, 1.008000047877431, 0.0, 0.0, 0.0, 0.0, 0.0, 1.7075957604244711E9, 0.0, 2024-02-10 15:09:20.424
7.0, -240.55036514997482, -615.8568055033684, -1983.2839061021805, -243.66196191310883, 0.0800000037997961, -0.01600000075995922, 1.008000047877431, 0.0, 0.0, 0.0, 0.0, 0.0, 1.7075957604244711E9, 0.0, 2024-02-10 15:09:20.424
8.0, -217.09371262788773, -607.479429602623, -2005.783144235611, -219.72660219669342, 0.0800000037997961, -0.01600000075995922, 1.008000047877431, 0.0, 0.0, 0.0, 0.0, 0.0, 1.7075957604366264E9, 0.0, 2024-02-10 15:09:20.436
8.0, -186.69580578804016, -561.7628925442696, -1943.0725017786026, -199.14219284057617, 0.0800000037997961, -0.01600000075995922, 1.008000047877431, 0.0, 0.0, 0.0, 0.0, 0.0, 1.7075957604366264E9, 0.0, 2024-02-10 15:09:20.436
9.0, -178.07907629013062, -544.2900799512863, -1914.3500701189041, -193.87641370296478, 0.0800000037997961, -0.01600000075995922, 1.008000047877431, 0.0, 0.0, 0.0, 0.0, 0.0, 1.707595760452292E9, 0.0, 2024-02-10 15:09:20.452
9.0, -180.233258664608, -576.363461971283, -1974.4278230071068, -208.23762953281403, 0.0800000037997961, -0.01600000075995922, 1.008000047877431, 0.0, 0.0, 0.0, 0.0, 0.0, 1.707595760452292E9, 0.0, 2024-02-10 15:09:20.452
10.0, -156.7766061425209, -536.3914112448692, -1940.678965806961, -189.80740255117416, 0.0800000037997961, -0.01600000075995922, 1.008000047877431, 0.0, 0.0, 0.0, 0.0, 0.0, 1.707595760453118E9, 0.0, 2024-02-10 15:09:20.453
10.0, -136.4315503835678, -492.58970296382904, -1869.3515938520432, -162.5210924744606, 0.0800000037997961, -0.01600000075995922, 1.008000047877431, 0.0, 0.0, 0.0, 0.0, 0.0, 1.707595760453118E9, 0.0, 2024-02-10 15:09:20.453
11.0, -141.93668311834335, -521.7908418178558, -1920.8126172423363, -181.19067305326462, 0.0800000037997961, -0.01600000075995922, 1.008000047877431, 0.0, 0.0, 0.0, 0.0, 0.0, 1.7075957604666545E9, 0.0, 2024-02-10 15:09:20.466
11.0, -147.20246225595474, -529.2108033299446, -1945.7053913474083, -177.6003690958023, 0.0800000037997961, -0.01600000075995922, 1.008000047877431, 0.0, 0.0, 0.0, 0.0, 0.0, 1.7075957604666545E9, 0.0, 2024-02-10 15:09:20.466
12.0, -120.39485937356949, -470.808525621891, -1856.4264996051788, -137.86767196655273, 0.0800000037997961, -0.01600000075995922, 1.008000047877431, 0.0, 0.0, 0.0, 0.0, 0.0, 1.707595760482277E9, 0.0, 2024-02-10 15:09:20.482
12.0, -143.13345110416412, -506.2328580021858, -1885.6276384592056, -160.60626369714737, 0.0800000037997961, -0.01600000075995922, 1.008000047877431, 0.0, 0.0, 0.0, 0.0, 0.0, 1.707595760482277E9, 0.0, 2024-02-10 15:09:20.482
13.0, -157.97337412834167, -543.3326655626297, -1955.7582424283028, -190.28610974550247, 0.0800000037997961, -0.01600000075995922, 1.008000047877431, 0.0, 0.0, 0.0, 0.0, 0.0, 1.7075957604829974E9, 0.0, 2024-02-10 15:09:20.482
13.0, -143.85151189565659, -497.13742130994797, -1900.228207886219, -171.8558827638626, 0.0800000037997961, -0.01600000075995922, 1.008000047877431, 0.0, 0.0, 0.0, 0.0, 0.0, 1.7075957604829974E9, 0.0, 2024-02-10 15:09:20.482
14.0, -148.87793743610382, -492.8290565609932, -1885.1489312648773, -171.3771755695343, 0.0800000037997961, -0.01600000075995922, 1.008000047877431, 0.0, 0.0, 0.0, 0.0, 0.0, 1.7075957604966164E9, 0.0, 2024-02-10 15:09:20.496
14.0, -166.59010362625122, -547.6410303115845, -1954.0827672481537, -194.11576730012894, 0.0800000037997961, -0.01600000075995922, 1.008000047877431, 0.0, 0.0, 0.0, 0.0, 0.0, 1.7075957604966164E9, 0.0, 2024-02-10 15:09:20.496
15.0, -157.73402053117752, -533.0404608845711, -1935.891893863678, -181.43002665042877, 0.0800000037997961, -0.01600000075995922, 1.008000047877431, 0.0, 0.0, 0.0, 0.0, 0.0, 1.7075957605124433E9, 0.0, 2024-02-10 15:09:20.512
15.0, -150.31405901908875, -502.1638468503952, -1876.5322017669678, -166.59010362625122, 0.0800000037997961, -0.01600000075995922, 1.008000047877431, 0.0, 0.0, 0.0, 0.0, 0.0, 1.7075957605124433E9, 0.0, 2024-02-10 15:09:20.512
16.0, -168.98363959789276, -544.5294335484505, -1936.8493082523346, -191.00417053699493, 0.0800000037997961, -0.01600000075995922, 1.008000047877431, 0.0, 0.0, 0.0, 0.0, 0.0, 1.7075957605130172E9, 0.0, 2024-02-10 15:09:20.513
16.0, -168.7442860007286, -548.3590911030769, -1952.1679384708405, -184.54162341356277, 0.0800000037997961, -0.01600000075995922, 1.008000047877431, 0.0, 0.0, 0.0, 0.0, 0.0, 1.7075957605130172E9, 0.0, 2024-02-10 15:09:20.513
17.0, -160.12755650281906, -510.30186915397644, -1889.9360032081604, -170.898468375206, 0.0800000037997961, -0.01600000075995922, 1.008000047877431, 0.0, 0.0, 0.0, 0.0, 0.0, 1.7075957605266564E9, 0.0, 2024-02-10 15:09:20.526
17.0, -177.36101549863815, -536.1520576477051, -1914.11071652174, -180.47261226177216, 0.0800000037997961, -0.01600000075995922, 1.008000047877431, 0.0, 0.0, 0.0, 0.0, 0.0, 1.7075957605266564E9, 0.0, 2024-02-10 15:09:20.526
18.0, -188.84998816251755, -579.9537659287453, -1984.4806740880013, -211.10987269878387, 0.0800000037997961, -0.01600000075995922, 1.008000047877431, 0.0, 0.0, 0.0, 0.0, 0.0, 1.707595760542595E9, 0.0, 2024-02-10 15:09:20.542
18.0, -169.22299319505692, -527.5353281497955, -1931.104821920395, -191.00417053699493, 0.0800000037997961, -0.01600000075995922, 1.008000047877431, 0.0, 0.0, 0.0, 0.0, 0.0, 1.707595760542595E9, 0.0, 2024-02-10 15:09:20.542
19.0, -178.31842988729477, -539.2636544108391, -1917.4616668820381, -206.08344715833664, 0.0800000037997961, -0.01600000075995922, 1.008000047877431, 0.0, 0.0, 0.0, 0.0, 0.0, 1.7075957605430334E9, 0.0, 2024-02-10 15:09:20.543
19.0, -205.60473996400833, -595.9904569387436, -1992.8580499887466, -225.23173493146896, 0.0800000037997961, -0.01600000075995922, 1.008000047877431, 0.0, 0.0, 0.0, 0.0, 0.0, 1.7075957605430334E9, 0.0, 2024-02-10 15:09:20.543
20.0, -199.86025363206863, -572.7731580138206, -1973.231055021286, -214.70017665624619, 0.0800000037997961, -0.01600000075995922, 1.008000047877431, 0.0, 0.0, 0.0, 0.0, 0.0, 1.707595760557029E9, 0.0, 2024-02-10 15:09:20.557
20.0, -188.13192737102509, -541.1784831881523, -1914.3500701189041, -204.64732557535172, 0.0800000037997961, -0.01600000075995922, 1.008000047877431, 0.0, 0.0, 0.0, 0.0, 0.0, 1.707595760557029E9, 0.0, 2024-02-10 15:09:20.557
21.0, -219.00854140520096, -596.9478713274002, -1981.6084309220314, -233.13040363788605, 0.0800000037997961, -0.01600000075995922, 1.008000047877431, 0.0, 0.0, 0.0, 0.0, 0.0, 1.7075957605725863E9, 0.0, 2024-02-10 15:09:20.572
21.0, -204.64732557535172, -586.8950202465057, -1988.0709780454636, -217.09371262788773, 0.0800000037997961, -0.01600000075995922, 1.008000047877431, 0.0, 0.0, 0.0, 0.0, 0.0, 1.7075957605725863E9, 0.0, 2024-02-10 15:09:20.572
22.0, -169.46234679222107, -526.0992065668106, -1907.4088158011436, -185.4990378022194, 0.0800000037997961, -0.01600000075995922, 1.008000047877431, 0.0, 0.0, 0.0, 0.0, 0.0, 1.707595760573112E9, 0.0, 2024-02-10 15:09:20.573
22.0, -195.07318168878555, -564.3957821130753, -1944.2692697644234, -211.34922629594803, 0.0800000037997961, -0.01600000075995922, 1.008000047877431, 0.0, 0.0, 0.0, 0.0, 0.0, 1.707595760573112E9, 0.0, 2024-02-10 15:09:20.573
23.0, -197.9454248547554, -591.2033849954605, -1994.0548179745674, -219.48724859952927, 0.0800000037997961, -0.01600000075995922, 1.008000047877431, 0.0, 0.0, 0.0, 0.0, 0.0, 1.7075957605868604E9, 0.0, 2024-02-10 15:09:20.586
23.0, -183.10550183057785, -547.6410303115845, -1934.9344794750214, -191.2435241341591, 0.0800000037997961, -0.01600000075995922, 1.008000047877431, 0.0, 0.0, 0.0, 0.0, 0.0, 1.7075957605868604E9, 0.0, 2024-02-10 15:09:20.586
24.0, -181.19067305326462, -547.4016767144203, -1914.5894237160683, -195.3125352859497, 0.0800000037997961, -0.01600000075995922, 1.008000047877431, 0.0, 0.0, 0.0, 0.0, 0.0, 1.707595760602604E9, 0.0, 2024-02-10 15:09:20.602
24.0, -211.58857989311218, -599.5807608962059, -1997.1664147377014, -234.08781802654266, 0.0800000037997961, -0.01600000075995922, 1.008000047877431, 0.0, 0.0, 0.0, 0.0, 0.0, 1.707595760602604E9, 0.0, 2024-02-10 15:09:20.602
25.0, -186.69580578804016, -562.0022461414337, -1965.571739912033, -211.34922629594803, 0.0800000037997961, -0.01600000075995922, 1.008000047877431, 0.0, 0.0, 0.0, 0.0, 0.0, 1.7075957606033812E9, 0.0, 2024-02-10 15:09:20.603
25.0, -176.88230830430984, -535.4339968562126, -1907.6481693983078, -195.3125352859497, 0.0800000037997961, -0.01600000075995922, 1.008000047877431, 0.0, 0.0, 0.0, 0.0, 0.0, 1.7075957606033812E9, 0.0, 2024-02-10 15:09:20.603
26.0, -205.84409356117249, -584.5014842748642, -1970.3588118553162, -216.85435903072357, 0.0800000037997961, -0.01600000075995922, 1.008000047877431, 0.0, 0.0, 0.0, 0.0, 0.0, 1.707595760616858E9, 0.0, 2024-02-10 15:09:20.616
26.0, -200.33896082639694, -578.038937151432, -1988.3103316426277, -215.1788838505745, 0.0800000037997961, -0.01600000075995922, 1.008000047877431, 0.0, 0.0, 0.0, 0.0, 0.0, 1.707595760616858E9, 0.0, 2024-02-10 15:09:20.616
27.0, -181.43002665042877, -547.6410303115845, -1916.9829596877098, -193.15835291147232, 0.0800000037997961, -0.01600000075995922, 1.008000047877431, 0.0, 0.0, 0.0, 0.0, 0.0, 1.7075957606322796E9, 0.0, 2024-02-10 15:09:20.632
27.0, -201.5357288122177, -565.1138429045677, -1944.9873305559158, -206.56215435266495, 0.0800000037997961, -0.01600000075995922, 1.008000047877431, 0.0, 0.0, 0.0, 0.0, 0.0, 1.7075957606322796E9, 0.0, 2024-02-10 15:09:20.632
28.0, -221.16272377967834, -616.0961591005325, -2019.1869456768036, -235.04523241519928, 0.0800000037997961, -0.01600000075995922, 1.008000047877431, 0.0, 0.0, 0.0, 0.0, 0.0, 1.7075957606329894E9, 0.0, 2024-02-10 15:09:20.632
28.0, -195.79124248027802, -562.0022461414337, -1953.6040600538254, -210.63116550445557, 0.0800000037997961, -0.01600000075995922, 1.008000047877431, 0.0, 0.0, 0.0, 0.0, 0.0, 1.7075957606329894E9, 0.0, 2024-02-10 15:09:20.632
29.0, -202.01443600654602, -561.5235389471054, -1933.7377114892006, -216.1362982392311, 0.0800000037997961, -0.01600000075995922, 1.008000047877431, 0.0, 0.0, 0.0, 0.0, 0.0, 1.707595760646917E9, 0.0, 2024-02-10 15:09:20.646
29.0, -211.58857989311218, -600.0594680905342, -1994.2941715717316, -223.07755255699158, 0.0800000037997961, -0.01600000075995922, 1.008000047877431, 0.0, 0.0, 0.0, 0.0, 0.0, 1.707595760646917E9, 0.0, 2024-02-10 15:09:20.646
30.0, -193.63706010580063, -573.0125116109848, -1965.8110935091972, -204.64732557535172, 0.0800000037997961, -0.01600000075995922, 1.008000047877431, 0.0, 0.0, 0.0, 0.0, 0.0, 1.70759576066274E9, 0.0, 2024-02-10 15:09:20.662
30.0, -193.63706010580063, -545.0081407427788, -1914.8287773132324, -206.8015079498291, 0.0800000037997961, -0.01600000075995922, 1.008000047877431, 0.0, 0.0, 0.0, 0.0, 0.0, 1.70759576066274E9, 0.0, 2024-02-10 15:09:20.662
31.0, -219.00854140520096, -593.1182137727737, -1976.1032981872559, -225.47108852863312, 0.0800000037997961, -0.01600000075995922, 1.008000047877431, 0.0, 0.0, 0.0, 0.0, 0.0, 1.707595760663299E9, 0.0, 2024-02-10 15:09:20.663
31.0, -207.75892233848572, -587.373727440834, -1988.5496852397919, -216.61500543355942, 0.0800000037997961, -0.01600000075995922, 1.008000047877431, 0.0, 0.0, 0.0, 0.0, 0.0, 1.707595760663299E9, 0.0, 2024-02-10 15:09:20.663
32.0, -189.56804895401, -543.3326655626297, -1911.7171805500984, -191.2435241341591, 0.0800000037997961, -0.01600000075995922, 1.008000047877431, 0.0, 0.0, 0.0, 0.0, 0.0, 1.7075957606766293E9, 0.0, 2024-02-10 15:09:20.676
32.0, -206.08344715833664, -573.251865208149, -1948.338280916214, -218.05112701654434, 0.0800000037997961, -0.01600000075995922, 1.008000047877431, 0.0, 0.0, 0.0, 0.0, 0.0, 1.7075957606766293E9, 0.0, 2024-02-10 15:09:20.676
33.0, -220.68401658535004, -614.8993911147118, -2009.8521553874016, -232.17298924922943, 0.0800000037997961, -0.01600000075995922, 1.008000047877431, 0.0, 0.0, 0.0, 0.0, 0.0, 1.7075957606923835E9, 0.0, 2024-02-10 15:09:20.692
33.0, -200.0996072292328, -567.5073788762093, -1944.7479769587517, -203.6899111866951, 0.0800000037997961, -0.01600000075995922, 1.008000047877431, 0.0, 0.0, 0.0, 0.0, 0.0, 1.7075957606923835E9, 0.0, 2024-02-10 15:09:20.692
34.0, -204.1686183810234, -565.3531965017319, -1930.3867611289024, -209.4343975186348, 0.0800000037997961, -0.01600000075995922, 1.008000047877431, 0.0, 0.0, 0.0, 0.0, 0.0, 1.7075957606930408E9, 0.0, 2024-02-10 15:09:20.693
34.0, -226.6678565144539, -613.9419767260551, -2005.3044370412827, -239.83230435848236, 0.0800000037997961, -0.01600000075995922, 1.008000047877431, 0.0, 0.0, 0.0, 0.0, 0.0, 1.7075957606930408E9, 0.0, 2024-02-10 15:09:20.693
35.0, -212.5459942817688, -585.698252260685, -1979.6936021447182, -220.44466298818588, 0.0800000037997961, -0.01600000075995922, 1.008000047877431, 0.0, 0.0, 0.0, 0.0, 0.0, 1.7075957607067099E9, 0.0, 2024-02-10 15:09:20.706
35.0, -200.5783144235611, -556.0184062123299, -1925.5996891856194, -207.75892233848572, 0.0800000037997961, -0.01600000075995922, 1.008000047877431, 0.0, 0.0, 0.0, 0.0, 0.0, 1.7075957607067099E9, 0.0, 2024-02-10 15:09:20.706
36.0, -228.1039780974388, -610.591026365757, -1990.7038676142693, -236.4813539981842, 0.0800000037997961, -0.01600000075995922, 1.008000047877431, 0.0, 0.0, 0.0, 0.0, 0.0, 1.7075957607223475E9, 0.0, 2024-02-10 15:09:20.722
36.0, -227.6252709031105, -613.4632695317268, -2002.4321938753128, -225.94979572296143, 0.0800000037997961, -0.01600000075995922, 1.008000047877431, 0.0, 0.0, 0.0, 0.0, 0.0, 1.7075957607223475E9, 0.0, 2024-02-10 15:09:20.722
37.0, -205.12603276968002, -557.2151741981506, -1924.4029211997986, -196.50930327177048, 0.0800000037997961, -0.01600000075995922, 1.008000047877431, 0.0, 0.0, 0.0, 0.0, 0.0, 1.707595760723046E9, 0.0, 2024-02-10 15:09:20.723
37.0, -219.48724859952927, -583.5440698862076, -1951.449877679348, -222.12013816833496, 0.0800000037997961, -0.01600000075995922, 1.008000047877431, 0.0, 0.0, 0.0, 0.0, 0.0, 1.707595760723046E9, 0.0, 2024-02-10 15:09:20.723
38.0, -231.69428205490112, -621.6012918353081, -2013.2031057476997, -234.56652522087097, 0.0800000037997961, -0.01600000075995922, 1.008000047877431, 0.0, 0.0, 0.0, 0.0, 0.0, 1.707595760736604E9, 0.0, 2024-02-10 15:09:20.736
38.0, -204.88667917251587, -560.5661245584488, -1944.5086233615875, -197.9454248547554, 0.0800000037997961, -0.01600000075995922, 1.008000047877431, 0.0, 0.0, 0.0, 0.0, 0.0, 1.707595760736604E9, 0.0, 2024-02-10 15:09:20.736
39.0, -211.58857989311218, -566.0712572932243, -1926.7964571714401, -203.2112039923668, 0.0800000037997961, -0.01600000075995922, 1.008000047877431, 0.0, 0.0, 0.0, 0.0, 0.0, 1.7075957607523851E9, 0.0, 2024-02-10 15:09:20.752
39.0, -242.94390112161636, -625.9096565842628, -2011.0489233732224, -234.80587881803513, 0.0800000037997961, -0.01600000075995922, 1.008000047877431, 0.0, 0.0, 0.0, 0.0, 0.0, 1.7075957607523851E9, 0.0, 2024-02-10 15:09:20.752
40.0, -214.22146946191788, -586.8950202465057, -1980.1723093390465, -214.46082305908203, 0.0800000037997961, -0.01600000075995922, 1.008000047877431, 0.0, 0.0, 0.0, 0.0, 0.0, 1.707595760753106E9, 0.0, 2024-02-10 15:09:20.753
40.0, -194.3551208972931, -544.7687871456146, -1908.126876592636, -191.48287773132324, 0.0800000037997961, -0.01600000075995922, 1.008000047877431, 0.0, 0.0, 0.0, 0.0, 0.0, 1.707595760753106E9, 0.0, 2024-02-10 15:09:20.753
41.0, -218.7691878080368, -600.7775288820267, -1981.3690773248672, -222.59884536266327, 0.0800000037997961, -0.01600000075995922, 1.008000047877431, 0.0, 0.0, 0.0, 0.0, 0.0, 1.7075957607665632E9, 0.0, 2024-02-10 15:09:20.766
41.0, -200.0996072292328, -592.4001529812813, -1992.1399891972542, -228.58268529176712, 0.0800000037997961, -0.01600000075995922, 1.008000047877431, 0.0, 0.0, 0.0, 0.0, 0.0, 1.7075957607665632E9, 0.0, 2024-02-10 15:09:20.766
42.0, -190.04675614833832, -555.3003454208374, -1932.5409435033798, -208.23762953281403, 0.0800000037997961, -0.01600000075995922, 1.008000047877431, 0.0, 0.0, 0.0, 0.0, 0.0, 1.7075957607828743E9, 0.0, 2024-02-10 15:09:20.782
42.0, -193.87641370296478, -565.3531965017319, -1950.7318168878555, -216.61500543355942, 0.0800000037997961, -0.01600000075995922, 1.008000047877431, 0.0, 0.0, 0.0, 0.0, 0.0, 1.7075957607828743E9, 0.0, 2024-02-10 15:09:20.782
43.0, -206.8015079498291, -609.1549047827721, -2013.681812942028, -239.1142435669899, 0.0800000037997961, -0.01600000075995922, 1.008000047877431, 0.0, 0.0, 0.0, 0.0, 0.0, 1.7075957607831788E9, 0.0, 2024-02-10 15:09:20.783
43.0, -188.37128096818924, -563.917074918747, -1954.8008280396461, -214.70017665624619, 0.0800000037997961, -0.01600000075995922, 1.008000047877431, 0.0, 0.0, 0.0, 0.0, 0.0, 1.7075957607831788E9, 0.0, 2024-02-10 15:09:20.783
44.0, -197.9454248547554, -560.0874173641205, -1933.0196506977081, -220.20530939102173, 0.0800000037997961, -0.01600000075995922, 1.008000047877431, 0.0, 0.0, 0.0, 0.0, 0.0, 1.7075957607969072E9, 0.0, 2024-02-10 15:09:20.796
44.0, -209.9131047129631, -604.6071864366531, -2006.2618514299393, -237.19941478967667, 0.0800000037997961, -0.01600000075995922, 1.008000047877431, 0.0, 0.0, 0.0, 0.0, 0.0, 1.7075957607969072E9, 0.0, 2024-02-10 15:09:20.796
45.0, -193.15835291147232, -581.6292411088943, -1977.5394197702408, -216.37565183639526, 0.0800000037997961, -0.01600000075995922, 1.008000047877431, 0.0, 0.0, 0.0, 0.0, 0.0, 1.7075957608127897E9, 0.0, 2024-02-10 15:09:20.812
45.0, -183.344855427742, -542.8539583683014, -1921.770031630993, -207.04086154699326, 0.0800000037997961, -0.01600000075995922, 1.008000047877431, 0.0, 0.0, 0.0, 0.0, 0.0, 1.7075957608127897E9, 0.0, 2024-02-10 15:09:20.812
46.0, -205.84409356117249, -591.2033849954605, -1981.6084309220314, -228.82203888893127, 0.0800000037997961, -0.01600000075995922, 1.008000047877431, 0.0, 0.0, 0.0, 0.0, 0.0, 1.7075957608131025E9, 0.0, 2024-02-10 15:09:20.813
46.0, -206.8015079498291, -593.596920967102, -2000.0386579036713, -226.42850291728973, 0.0800000037997961, -0.01600000075995922, 1.008000047877431, 0.0, 0.0, 0.0, 0.0, 0.0, 1.7075957608131025E9, 0.0, 2024-02-10 15:09:20.813
47.0, -174.9674795269966, -541.4178367853165, -1916.9829596877098, -202.73249679803848, 0.0800000037997961, -0.01600000075995922, 1.008000047877431, 0.0, 0.0, 0.0, 0.0, 0.0, 1.707595760826867E9, 0.0, 2024-02-10 15:09:20.826
47.0, -194.11576730012894, -569.9009148478508, -1948.8169881105423, -214.22146946191788, 0.0800000037997961, -0.01600000075995922, 1.008000047877431, 0.0, 0.0, 0.0, 0.0, 0.0, 1.707595760826867E9, 0.0, 2024-02-10 15:09:20.826
48.0, -209.19504392147064, -601.256236076355, -2000.5173650979996, -224.5136741399765, 0.0800000037997961, -0.01600000075995922, 1.008000047877431, 0.0, 0.0, 0.0, 0.0, 0.0, 1.7075957608425996E9, 0.0, 2024-02-10 15:09:20.842
48.0, -176.40360110998154, -548.1197375059128, -1927.0358107686043, -191.2435241341591, 0.0800000037997961, -0.01600000075995922, 1.008000047877431, 0.0, 0.0, 0.0, 0.0, 0.0, 1.7075957608425996E9, 0.0, 2024-02-10 15:09:20.842
49.0, -189.56804895401, -553.8642238378525, -1926.3177499771118, -203.92926478385925, 0.0800000037997961, -0.01600000075995922, 1.008000047877431, 0.0, 0.0, 0.0, 0.0, 0.0, 1.7075957608430438E9, 0.0, 2024-02-10 15:09:20.843
49.0, -208.71633672714233, -606.0433080196381, -1997.1664147377014, -233.60911083221436, 0.0800000037997961, -0.01600000075995922, 1.008000047877431, 0.0, 0.0, 0.0, 0.0, 0.0, 1.7075957608430438E9, 0.0, 2024-02-10 15:09:20.843
50.0, -197.70607125759125, -581.150533914566, -1979.2148949503899, -213.0247014760971, 0.0800000037997961, -0.01600000075995922, 1.008000047877431, 0.0, 0.0, 0.0, 0.0, 0.0, 1.7075957608569047E9, 0.0, 2024-02-10 15:09:20.856
50.0, -184.78097701072693, -544.2900799512863, -1920.0945564508438, -206.56215435266495, 0.0800000037997961, -0.01600000075995922, 1.008000047877431, 0.0, 0.0, 0.0, 0.0, 0.0, 1.7075957608569047E9, 0.0, 2024-02-10 15:09:20.856
51.0, -200.5783144235611, -592.1607993841171, -1972.2736406326294, -224.27432054281235, 0.0800000037997961, -0.01600000075995922, 1.008000047877431, 0.0, 0.0, 0.0, 0.0, 0.0, 1.7075957608726785E9, 0.0, 2024-02-10 15:09:20.872
51.0, -205.84409356117249, -594.5543353557587, -1994.0548179745674, -221.64143097400665, 0.0800000037997961, -0.01600000075995922, 1.008000047877431, 0.0, 0.0, 0.0, 0.0, 0.0, 1.7075957608726785E9, 0.0, 2024-02-10 15:09:20.872
52.0, -186.93515938520432, -550.9919806718826, -1930.1474075317383, -204.64732557535172, 0.0800000037997961, -0.01600000075995922, 1.008000047877431, 0.0, 0.0, 0.0, 0.0, 0.0, 1.7075957608731177E9, 0.0, 2024-02-10 15:09:20.873
52.0, -203.2112039923668, -577.7995835542679, -1954.3221208453178, -214.46082305908203, 0.0800000037997961, -0.01600000075995922, 1.008000047877431, 0.0, 0.0, 0.0, 0.0, 0.0, 1.7075957608731177E9, 0.0, 2024-02-10 15:09:20.873
53.0, -208.9556903243065, -608.6761975884438, -2005.3044370412827, -220.9233701825142, 0.0800000037997961, -0.01600000075995922, 1.008000047877431, 0.0, 0.0, 0.0, 0.0, 0.0, 1.7075957608866577E9, 0.0, 2024-02-10 15:09:20.886
53.0, -193.63706010580063, -562.2415997385979, -1943.3118553757668, -203.6899111866951, 0.0800000037997961, -0.01600000075995922, 1.008000047877431, 0.0, 0.0, 0.0, 0.0, 0.0, 1.7075957608866577E9, 0.0, 2024-02-10 15:09:20.886
54.0, -196.50930327177048, -561.5235389471054, -1924.4029211997986, -204.1686183810234, 0.0800000037997961, -0.01600000075995922, 1.008000047877431, 0.0, 0.0, 0.0, 0.0, 0.0, 1.7075957609023545E9, 0.0, 2024-02-10 15:09:20.902
54.0, -207.2802151441574, -597.6659321188927, -2001.7141330838203, -225.47108852863312, 0.0800000037997961, -0.01600000075995922, 1.008000047877431, 0.0, 0.0, 0.0, 0.0, 0.0, 1.7075957609023545E9, 0.0, 2024-02-10 15:09:20.902
55.0, -197.70607125759125, -570.8583292365074, -1974.906530201435, -209.19504392147064, 0.0800000037997961, -0.01600000075995922, 1.008000047877431, 0.0, 0.0, 0.0, 0.0, 0.0, 1.7075957609031386E9, 0.0, 2024-02-10 15:09:20.903
55.0, -188.84998816251755, -541.6571903824806, -1912.674594938755, -196.03059607744217, 0.0800000037997961, -0.01600000075995922, 1.008000047877431, 0.0, 0.0, 0.0, 0.0, 0.0, 1.7075957609031386E9, 0.0, 2024-02-10 15:09:20.903
56.0, -213.26405507326126, -596.9478713274002, -1975.3852373957634, -220.68401658535004, 0.0800000037997961, -0.01600000075995922, 1.008000047877431, 0.0, 0.0, 0.0, 0.0, 0.0, 1.7075957609166048E9, 0.0, 2024-02-10 15:09:20.916
56.0, -202.49314320087433, -591.4427385926247, -1990.7038676142693, -218.2904806137085, 0.0800000037997961, -0.01600000075995922, 1.008000047877431, 0.0, 0.0, 0.0, 0.0, 0.0, 1.7075957609166048E9, 0.0, 2024-02-10 15:09:20.916
57.0, -188.6106345653534, -550.9919806718826, -1930.1474075317383, -202.25378960371017, 0.0800000037997961, -0.01600000075995922, 1.008000047877431, 0.0, 0.0, 0.0, 0.0, 0.0, 1.7075957609326267E9, 0.0, 2024-02-10 15:09:20.932
57.0, -203.2112039923668, -578.2782907485962, -1951.2105240821838, -216.61500543355942, 0.0800000037997961, -0.01600000075995922, 1.008000047877431, 0.0, 0.0, 0.0, 0.0, 0.0, 1.7075957609326267E9, 0.0, 2024-02-10 15:09:20.932
58.0, -210.15245831012726, -604.367832839489, -2010.570216178894, -226.6678565144539, 0.0800000037997961, -0.01600000075995922, 1.008000047877431, 0.0, 0.0, 0.0, 0.0, 0.0, 1.707595760933076E9, 0.0, 2024-02-10 15:09:20.933
58.0, -186.456452190876, -556.7364670038223, -1946.902159333229, -204.1686183810234, 0.0800000037997961, -0.01600000075995922, 1.008000047877431, 0.0, 0.0, 0.0, 0.0, 0.0, 1.707595760933076E9, 0.0, 2024-02-10 15:09:20.933
59.0, -200.5783144235611, -558.1725885868073, -1934.216418683529, -205.36538636684418, 0.0800000037997961, -0.01600000075995922, 1.008000047877431, 0.0, 0.0, 0.0, 0.0, 0.0, 1.7075957609636667E9, 0.0, 2024-02-10 15:09:20.963
59.0, -219.2478950023651, -605.0858936309814, -2011.0489233732224, -228.82203888893127, 0.0800000037997961, -0.01600000075995922, 1.008000047877431, 0.0, 0.0, 0.0, 0.0, 0.0, 1.7075957609636667E9, 0.0, 2024-02-10 15:09:20.963
60.0, -196.03059607744217, -577.5602299571037, -1982.3264917135239, -211.58857989311218, 0.0800000037997961, -0.01600000075995922, 1.008000047877431, 0.0, 0.0, 0.0, 0.0, 0.0, 1.7075957609640152E9, 0.0, 2024-02-10 15:09:20.964
60.0, -189.0893417596817, -548.1197375059128, -1923.2061532139778, -196.50930327177048, 0.0800000037997961, -0.01600000075995922, 1.008000047877431, 0.0, 0.0, 0.0, 0.0, 0.0, 1.7075957609640152E9, 0.0, 2024-02-10 15:09:20.964
61.0, -220.9233701825142, -605.8039544224739, -1996.2090003490448, -231.93363565206528, 0.0800000037997961, -0.01600000075995922, 1.008000047877431, 0.0, 0.0, 0.0, 0.0, 0.0, 1.7075957609645731E9, 0.0, 2024-02-10 15:09:20.964
61.0, -205.36538636684418, -600.0594680905342, -2004.347022652626, -225.71044212579727, 0.0800000037997961, -0.01600000075995922, 1.008000047877431, 0.0, 0.0, 0.0, 0.0, 0.0, 1.7075957609645731E9, 0.0, 2024-02-10 15:09:20.964
62.0, -184.54162341356277, -547.8803839087486, -1925.3603355884552, -199.62090003490448, 0.0800000037997961, -0.01600000075995922, 1.008000047877431, 0.0, 0.0, 0.0, 0.0, 0.0, 1.7075957609766235E9, 0.0, 2024-02-10 15:09:20.976
62.0, -202.73249679803848, -570.140268445015, -1955.0401816368103, -217.09371262788773, 0.0800000037997961, -0.01600000075995922, 1.008000047877431, 0.0, 0.0, 0.0, 0.0, 0.0, 1.7075957609766235E9, 0.0, 2024-02-10 15:09:20.976
63.0, -221.64143097400665, -610.8303799629211, -2014.1605201363564, -230.01880687475204, 0.0800000037997961, -0.01600000075995922, 1.008000047877431, 0.0, 0.0, 0.0, 0.0, 0.0, 1.7075957609922895E9, 0.0, 2024-02-10 15:09:20.992
63.0, -204.88667917251587, -567.5073788762093, -1955.0401816368103, -208.9556903243065, 0.0800000037997961, -0.01600000075995922, 1.008000047877431, 0.0, 0.0, 0.0, 0.0, 0.0, 1.7075957609922895E9, 0.0, 2024-02-10 15:09:20.992
64.0, -216.85435903072357, -580.6718267202377, -1953.8434136509895, -228.58268529176712, 0.0800000037997961, -0.01600000075995922, 1.008000047877431, 0.0, 0.0, 0.0, 0.0, 0.0, 1.7075957609930208E9, 0.0, 2024-02-10 15:09:20.993
64.0, -239.83230435848236, -630.2180213332176, -2023.9740176200867, -242.7045475244522, 0.0800000037997961, -0.01600000075995922, 1.008000047877431, 0.0, 0.0, 0.0, 0.0, 0.0, 1.7075957609930208E9, 0.0, 2024-02-10 15:09:20.993
65.0, -199.38154643774033, -578.5176443457603, -1963.6569111347198, -193.63706010580063, 0.0800000037997961, -0.01600000075995922, 1.008000047877431, 0.0, 0.0, 0.0, 0.0, 0.0, 1.7075957610068412E9, 0.0, 2024-02-10 15:09:21.006
65.0, -205.36538636684418, -550.5132734775543, -1915.5468381047249, -185.73839139938354, 0.0800000037997961, -0.01600000075995922, 1.008000047877431, 0.0, 0.0, 0.0, 0.0, 0.0, 1.7075957610068412E9, 0.0, 2024-02-10 15:09:21.006
66.0, -236.72070759534836, -605.5646008253098, -1978.2574805617332, -214.22146946191788, 0.0800000037997961, -0.01600000075995922, 1.008000047877431, 0.0, 0.0, 0.0, 0.0, 0.0, 1.7075957610223513E9, 0.0, 2024-02-10 15:09:21.022
