%OpenBCI Raw EXG Data
%Number of channels = 4
%Sample Rate = 200 Hz
%Board = OpenBCI_GUI$BoardGanglionBLE
Sample Index, EXG Channel 0, EXG Channel 1, EXG Channel 2, EXG Channel 3, Accel Channel 0, Accel Channel 1, Accel Channel 2, Other, Other, Other, Other, Other, Timestamp, Other, Timestamp (Formatted)
0.0, 9.813497483730316, -78.74733346700668, -87.12470936775208, 452.85700583457947, 0.0, 0.0, 1.008000047877431, 0.0, 0.0, 0.0, 0.0, 0.0, 1.7054298525079997E9, 0.0, 2024-01-16 13:30:52.507
0.0, -94.784024477005, -234.80587881803513, -190.04675614833832, 340.83952236175537, 0.0, 0.0, 1.008000047877431, 0.0, 0.0, 0.0, 0.0, 0.0, 1.7054298525079997E9, 0.0, 2024-01-16 13:30:52.507
1.0, -66.77965360879898, -156.05854535102844, -128.77223527431488, 382.247694671154, 0.0, -1.008000047877431, 1.008000047877431, 0.0, 0.0, 0.0, 0.0, 0.0, 1.7054298525226667E9, 0.0, 2024-01-16 13:30:52.522
1.0, 29.919199645519257, -33.27015000581741, -58.8809849023819, 471.28723281621933, 0.0, -1.008000047877431, 1.008000047877431, 0.0, 0.0, 0.0, 0.0, 0.0, 1.7054298525226667E9, 0.0, 2024-01-16 13:30:52.522
2.0, -64.86482483148575, -195.07318168878555, -160.36691009998322, 372.4341971874237, -1.008000047877431, -1.008000047877431, 1.008000047877431, 0.0, 0.0, 0.0, 0.0, 0.0, 1.7054298525371296E9, 0.0, 2024-01-16 13:30:52.537
2.0, -118.2406769990921, -226.90721011161804, -192.679645717144, 323.12735617160797, -1.008000047877431, -1.008000047877431, 1.008000047877431, 0.0, 0.0, 0.0, 0.0, 0.0, 1.7054298525371296E9, 0.0, 2024-01-16 13:30:52.537
3.0, 15.31863021850586, -55.290680944919586, -63.90741044282913, 445.915751516819, -1.008000047877431, -1.008000047877431, 1.008000047877431, 0.0, 0.0, 0.0, 0.0, 0.0, 1.705429852537851E9, 0.0, 2024-01-16 13:30:52.537
3.0, -7.65931510925293, -126.37869930267334, -112.97489786148071, 414.5604302883148, -1.008000047877431, -1.008000047877431, 1.008000047877431, 0.0, 0.0, 0.0, 0.0, 0.0, 1.705429852537851E9, 0.0, 2024-01-16 13:30:52.537
4.0, -93.34790289402008, -224.0349669456482, -191.00417053699493, 315.46804106235504, -1.008000047877431, -1.008000047877431, 1.008000047877431, 0.0, 0.0, 0.0, 0.0, 0.0, 1.7054298525519152E9, 0.0, 2024-01-16 13:30:52.551
4.0, -16.276044607162476, -86.64600217342377, -87.84277015924454, 413.84236949682236, -1.008000047877431, -1.008000047877431, 1.008000047877431, 0.0, 0.0, 0.0, 0.0, 0.0, 1.7054298525519152E9, 0.0, 2024-01-16 13:30:52.551
5.0, 22.49923813343048, -68.2157751917839, -76.83250468969345, 459.5589065551758, -1.008000047877431, -1.008000047877431, 1.008000047877431, 0.0, 0.0, 0.0, 0.0, 0.0, 1.7054298525671995E9, 0.0, 2024-01-16 13:30:52.567
5.0, -96.93820685148239, -236.0026468038559, -195.55188888311386, 338.92469358444214, -1.008000047877431, -1.008000047877431, 1.008000047877431, 0.0, 0.0, 0.0, 0.0, 0.0, 1.7054298525671995E9, 0.0, 2024-01-16 13:30:52.567
6.0, -71.32737195491791, -159.64884930849075, -139.0644399523735, 359.74845653772354, -1.008000047877431, -1.008000047877431, 1.008000047877431, 0.0, 0.0, 0.0, 0.0, 0.0, 1.7054298525678587E9, 0.0, 2024-01-16 13:30:52.567
6.0, 27.525663673877716, -50.98231619596481, -73.24220073223114, 446.15510511398315, -1.008000047877431, -1.008000047877431, 1.008000047877431, 0.0, 0.0, 0.0, 0.0, 0.0, 1.7054298525678587E9, 0.0, 2024-01-16 13:30:52.567
7.0, -67.25836080312729, -207.75892233848572, -182.62679463624954, 333.8982680439949, -1.008000047877431, -1.008000047877431, 1.008000047877431, 0.0, 0.0, 0.0, 0.0, 0.0, 1.7054298525817137E9, 0.0, 2024-01-16 13:30:52.581
7.0, -105.79428994655609, -221.16272377967834, -178.31842988729477, 323.12735617160797, -1.008000047877431, -1.008000047877431, 1.008000047877431, 0.0, 0.0, 0.0, 0.0, 0.0, 1.7054298525817137E9, 0.0, 2024-01-16 13:30:52.581
8.0, 16.51539820432663, -56.2480953335762, -55.290680944919586, 468.4149896502495, -1.008000047877431, -1.008000047877431, 1.008000047877431, 0.0, 0.0, 0.0, 0.0, 0.0, 1.7054298525972714E9, 0.0, 2024-01-16 13:30:52.597
8.0, -24.89277410507202, -141.93668311834335, -128.29352807998657, 404.50757920742035, -1.008000047877431, -1.008000047877431, 1.008000047877431, 0.0, 0.0, 0.0, 0.0, 0.0, 1.7054298525972714E9, 0.0, 2024-01-16 13:30:52.597
9.0, -112.97489786148071, -238.87488996982574, -193.15835291147232, 319.2976986169815, -1.008000047877431, -1.008000047877431, 1.008000047877431, 0.0, 0.0, 0.0, 0.0, 0.0, 1.7054298525980213E9, 0.0, 2024-01-16 13:30:52.598
9.0, -12.44638705253601, -83.05569821596146, -89.03953814506531, 421.9803918004036, -1.008000047877431, -1.008000047877431, 1.008000047877431, 0.0, 0.0, 0.0, 0.0, 0.0, 1.7054298525980213E9, 0.0, 2024-01-16 13:30:52.598
10.0, 22.259884536266327, -74.91767591238022, -82.57699102163315, 444.4796299338341, -1.008000047877431, -1.008000047877431, 0.5440000258386135, 0.0, 0.0, 0.0, 0.0, 0.0, 1.705429852627849E9, 0.0, 2024-01-16 13:30:52.627
10.0, -101.96463239192963, -247.4916194677353, -200.0996072292328, 313.5532122850418, -1.008000047877431, -1.008000047877431, 0.5440000258386135, 0.0, 0.0, 0.0, 0.0, 0.0, 1.705429852627849E9, 0.0, 2024-01-16 13:30:52.627
11.0, -54.572620153427124, -143.13345110416412, -128.29352807998657, 380.57221949100494, -1.008000047877431, -0.5440000258386135, 0.5440000258386135, 0.0, 0.0, 0.0, 0.0, 0.0, 1.7054298526285694E9, 0.0, 2024-01-16 13:30:52.628
11.0, 37.81786835193634, -43.80170828104019, -55.05132734775543, 476.31365835666656, -1.008000047877431, -0.5440000258386135, 0.5440000258386135, 0.0, 0.0, 0.0, 0.0, 0.0, 1.7054298526285694E9, 0.0, 2024-01-16 13:30:52.628
12.0, -64.6254712343216, -200.0996072292328, -173.29200434684753, 357.8336277604103, -0.5440000258386135, -0.5440000258386135, 0.5440000258386135, 0.0, 0.0, 0.0, 0.0, 0.0, 1.7054298526294916E9, 0.0, 2024-01-16 13:30:52.629
12.0, -97.89562124013901, -209.67375111579895, -179.27584427595139, 324.80283135175705, -0.5440000258386135, -0.5440000258386135, 0.5440000258386135, 0.0, 0.0, 0.0, 0.0, 0.0, 1.7054298526294916E9, 0.0, 2024-01-16 13:30:52.629
13.0, 12.44638705253601, -59.359692096710205, -65.1041784286499, 447.5912266969681, -0.5440000258386135, -0.5440000258386135, 0.5440000258386135, 0.0, 0.0, 0.0, 0.0, 0.0, 1.7054298526584415E9, 0.0, 2024-01-16 13:30:52.658
13.0, -15.557983815670013, -137.62831836938858, -132.60189282894135, 398.5237392783165, -0.5440000258386135, -0.5440000258386135, 0.5440000258386135, 0.0, 0.0, 0.0, 0.0, 0.0, 1.7054298526584415E9, 0.0, 2024-01-16 13:30:52.658
14.0, -104.59752196073532, -236.4813539981842, -201.0570216178894, 301.5855324268341, -0.5440000258386135, -0.5440000258386135, 0.5440000258386135, 0.0, 0.0, 0.0, 0.0, 0.0, 1.7054298526588104E9, 0.0, 2024-01-16 13:30:52.658
14.0, -19.38764137029648, -89.27889174222946, -83.77375900745392, 432.5119500756264, -0.5440000258386135, -0.5440000258386135, 0.5440000258386135, 0.0, 0.0, 0.0, 0.0, 0.0, 1.7054298526588104E9, 0.0, 2024-01-16 13:30:52.658
15.0, 7.65931510925293, -82.8163446187973, -84.01311260461807, 449.5060554742813, -0.5440000258386135, -0.5440000258386135, 0.5440000258386135, 0.0, 0.0, 0.0, 0.0, 0.0, 1.705429852659335E9, 0.0, 2024-01-16 13:30:52.659
15.0, -99.09238922595978, -233.13040363788605, -202.97185039520264, 318.57963782548904, -0.5440000258386135, -0.5440000258386135, 0.5440000258386135, 0.0, 0.0, 0.0, 0.0, 0.0, 1.705429852659335E9, 0.0, 2024-01-16 13:30:52.659
16.0, -58.40227770805359, -151.51082700490952, -131.16577124595642, 379.13609790802, -0.5440000258386135, -0.5440000258386135, 0.5440000258386135, 0.0, 0.0, 0.0, 0.0, 0.0, 1.705429852671495E9, 0.0, 2024-01-16 13:30:52.671
16.0, 38.77528274059296, -42.12623310089111, -58.162924110889435, 458.362138569355, -0.5440000258386135, -0.5440000258386135, 0.5440000258386135, 0.0, 0.0, 0.0, 0.0, 0.0, 1.705429852671495E9, 0.0, 2024-01-16 13:30:52.671
17.0, -52.65779137611389, -191.96158492565155, -166.59010362625122, 359.26974934339523, -0.5440000258386135, -0.5440000258386135, 0.5440000258386135, 0.0, 0.0, 0.0, 0.0, 0.0, 1.7054298526871767E9, 0.0, 2024-01-16 13:30:52.687
17.0, -88.32147735357285, -202.25378960371017, -163.71786046028137, 342.7543511390686, -0.5440000258386135, -0.5440000258386135, 0.5440000258386135, 0.0, 0.0, 0.0, 0.0, 0.0, 1.7054298526871767E9, 0.0, 2024-01-16 13:30:52.687
18.0, 24.89277410507202, -40.21140432357788, -53.375852167606354, 456.9260169863701, -0.5440000258386135, -0.5440000258386135, 0.5440000258386135, 0.0, 0.0, 0.0, 0.0, 0.0, 1.7054298526878407E9, 0.0, 2024-01-16 13:30:52.687
18.0, -12.207033455371857, -135.71348959207535, -119.67679858207703, 400.91727524995804, -0.5440000258386135, -0.5440000258386135, 0.5440000258386135, 0.0, 0.0, 0.0, 0.0, 0.0, 1.7054298526878407E9, 0.0, 2024-01-16 13:30:52.687
19.0, -106.03364354372025, -234.32717162370682, -190.52546334266663, 322.8880025744438, -0.5440000258386135, -0.5440000258386135, 0.5440000258386135, 0.0, 0.0, 0.0, 0.0, 0.0, 1.7054298527015395E9, 0.0, 2024-01-16 13:30:52.701
19.0, -1.4361215829849243, -77.0718582868576, -72.28478634357452, 439.692557990551, -0.5440000258386135, -0.5440000258386135, 0.5440000258386135, 0.0, 0.0, 0.0, 0.0, 0.0, 1.7054298527015395E9, 0.0, 2024-01-16 13:30:52.701
20.0, 27.76501727104187, -72.04543274641037, -75.15702950954437, 456.2079561948776, -0.5440000258386135, -0.5440000258386135, 0.7680000364780426, 0.0, 0.0, 0.0, 0.0, 0.0, 1.7054298527171843E9, 0.0, 2024-01-16 13:30:52.717
20.0, -90.47565972805023, -226.90721011161804, -200.33896082639694, 321.21252739429474, -0.5440000258386135, -0.5440000258386135, 0.7680000364780426, 0.0, 0.0, 0.0, 0.0, 0.0, 1.7054298527171843E9, 0.0, 2024-01-16 13:30:52.717
21.0, -56.966156125068665, -145.2876334786415, -125.66063851118088, 381.2902802824974, -0.5440000258386135, -0.7680000364780426, 0.7680000364780426, 0.0, 0.0, 0.0, 0.0, 0.0, 1.7054298527180552E9, 0.0, 2024-01-16 13:30:52.718
21.0, 33.74885720014572, -42.36558669805527, -51.46102339029312, 472.24464720487595, -0.5440000258386135, -0.7680000364780426, 0.7680000364780426, 0.0, 0.0, 0.0, 0.0, 0.0, 1.7054298527180552E9, 0.0, 2024-01-16 13:30:52.718
22.0, -57.20550972223282, -194.11576730012894, -162.76044607162476, 362.86005330085754, -0.7680000364780426, -0.7680000364780426, 0.7680000364780426, 0.0, 0.0, 0.0, 0.0, 0.0, 1.7054298527314737E9, 0.0, 2024-01-16 13:30:52.731
22.0, -90.71501332521439, -206.8015079498291, -160.60626369714737, 336.5311576128006, -0.7680000364780426, -0.7680000364780426, 0.7680000364780426, 0.0, 0.0, 0.0, 0.0, 0.0, 1.7054298527314737E9, 0.0, 2024-01-16 13:30:52.731
23.0, 25.610834896564484, -43.80170828104019, -61.753228068351746, 439.2138507962227, -0.7680000364780426, -0.7680000364780426, 0.7680000364780426, 0.0, 0.0, 0.0, 0.0, 0.0, 1.7054298527470696E9, 0.0, 2024-01-16 13:30:52.747
23.0, -1.6754751801490784, -129.01158887147903, -128.05417448282242, 394.69408172369003, -0.7680000364780426, -0.7680000364780426, 0.7680000364780426, 0.0, 0.0, 0.0, 0.0, 0.0, 1.7054298527470696E9, 0.0, 2024-01-16 13:30:52.747
24.0, -107.23041152954102, -245.3374370932579, -199.86025363206863, 319.53705221414566, -0.7680000364780426, -0.7680000364780426, 0.7680000364780426, 0.0, 0.0, 0.0, 0.0, 0.0, 1.7054298527789063E9, 0.0, 2024-01-16 13:30:52.778
24.0, -10.531558275222778, -87.36406296491623, -94.06596368551254, 414.5604302883148, -0.7680000364780426, -0.7680000364780426, 0.7680000364780426, 0.0, 0.0, 0.0, 0.0, 0.0, 1.7054298527789063E9, 0.0, 2024-01-16 13:30:52.778
25.0, 12.207033455371857, -84.01311260461807, -85.449234187603, 443.7615691423416, -0.7680000364780426, -0.7680000364780426, 0.7680000364780426, 0.0, 0.0, 0.0, 0.0, 0.0, 1.7054298527793033E9, 0.0, 2024-01-16 13:30:52.779
25.0, -100.28915721178055, -248.4490338563919, -204.1686183810234, 310.4416155219078, -0.7680000364780426, -0.7680000364780426, 0.7680000364780426, 0.0, 0.0, 0.0, 0.0, 0.0, 1.7054298527793033E9, 0.0, 2024-01-16 13:30:52.779
26.0, -64.86482483148575, -166.35075002908707, -143.85151189565659, 348.73819106817245, -0.7680000364780426, -0.7680000364780426, 0.7680000364780426, 0.0, 0.0, 0.0, 0.0, 0.0, 1.7054298527800188E9, 0.0, 2024-01-16 13:30:52.780
26.0, 27.046956479549408, -54.572620153427124, -68.2157751917839, 453.57506662607193, -0.7680000364780426, -0.7680000364780426, 0.7680000364780426, 0.0, 0.0, 0.0, 0.0, 0.0, 1.7054298527800188E9, 0.0, 2024-01-16 13:30:52.780
27.0, -58.64163130521774, -196.98801046609879, -168.2655788064003, 364.5355284810066, -0.7680000364780426, -0.7680000364780426, 0.7680000364780426, 0.0, 0.0, 0.0, 0.0, 0.0, 1.705429852780764E9, 0.0, 2024-01-16 13:30:52.780
27.0, -91.91178131103516, -205.84409356117249, -173.77071154117584, 337.0098648071289, -0.7680000364780426, -0.7680000364780426, 0.7680000364780426, 0.0, 0.0, 0.0, 0.0, 0.0, 1.705429852780764E9, 0.0, 2024-01-16 13:30:52.780
28.0, 17.472812592983246, -55.53003454208374, -63.90741044282913, 454.2931274175644, -0.7680000364780426, -0.7680000364780426, 0.7680000364780426, 0.0, 0.0, 0.0, 0.0, 0.0, 1.705429852791702E9, 0.0, 2024-01-16 13:30:52.791
28.0, -24.17471331357956, -146.00569427013397, -129.2509424686432, 398.0450320839882, -0.7680000364780426, -0.7680000364780426, 0.7680000364780426, 0.0, 0.0, 0.0, 0.0, 0.0, 1.705429852791702E9, 0.0, 2024-01-16 13:30:52.791
29.0, -113.45360505580902, -252.51804500818253, -201.29637521505356, 313.79256588220596, -0.7680000364780426, -0.7680000364780426, 0.7680000364780426, 0.0, 0.0, 0.0, 0.0, 0.0, 1.7054298528073244E9, 0.0, 2024-01-16 13:30:52.807
29.0, -26.5682492852211, -101.96463239192963, -98.13497483730316, 403.7895184159279, -0.7680000364780426, -0.7680000364780426, 0.7680000364780426, 0.0, 0.0, 0.0, 0.0, 0.0, 1.7054298528073244E9, 0.0, 2024-01-16 13:30:52.807
30.0, 24.89277410507202, -88.32147735357285, -92.15113490819931, 430.59712129831314, -0.7680000364780426, -0.7680000364780426, 0.8800000417977571, 0.0, 0.0, 0.0, 0.0, 0.0, 1.7054298528080263E9, 0.0, 2024-01-16 13:30:52.808
30.0, -85.449234187603, -233.13040363788605, -208.71633672714233, 308.7661403417587, -0.7680000364780426, -0.7680000364780426, 0.8800000417977571, 0.0, 0.0, 0.0, 0.0, 0.0, 1.7054298528080263E9, 0.0, 2024-01-16 13:30:52.808
31.0, -58.8809849023819, -154.62242376804352, -129.2509424686432, 362.86005330085754, -0.7680000364780426, -0.8800000417977571, 0.8800000417977571, 0.0, 0.0, 0.0, 0.0, 0.0, 1.705429852821478E9, 0.0, 2024-01-16 13:30:52.821
31.0, 29.679846048355103, -51.22166979312897, -57.20550972223282, 462.6705033183098, -0.7680000364780426, -0.8800000417977571, 0.8800000417977571, 0.0, 0.0, 0.0, 0.0, 0.0, 1.705429852821478E9, 0.0, 2024-01-16 13:30:52.821
32.0, -63.66805684566498, -207.99827593564987, -174.9674795269966, 354.243323802948, -0.8800000417977571, -0.8800000417977571, 0.8800000417977571, 0.0, 0.0, 0.0, 0.0, 0.0, 1.7054298528371313E9, 0.0, 2024-01-16 13:30:52.837
32.0, -100.0498036146164, -215.41823744773865, -186.21709859371185, 314.27127307653427, -0.8800000417977571, -0.8800000417977571, 0.8800000417977571, 0.0, 0.0, 0.0, 0.0, 0.0, 1.7054298528371313E9, 0.0, 2024-01-16 13:30:52.837
33.0, 10.770911872386932, -63.18934965133667, -67.49771440029144, 445.67639791965485, -0.8800000417977571, -0.8800000417977571, 0.8800000417977571, 0.0, 0.0, 0.0, 0.0, 0.0, 1.705429852837822E9, 0.0, 2024-01-16 13:30:52.837
33.0, -18.90893417596817, -138.82508635520935, -131.16577124595642, 401.87468963861465, -0.8800000417977571, -0.8800000417977571, 0.8800000417977571, 0.0, 0.0, 0.0, 0.0, 0.0, 1.705429852837822E9, 0.0, 2024-01-16 13:30:52.837
34.0, -105.79428994655609, -241.50777953863144, -202.01443600654602, 312.83515149354935, -0.8800000417977571, -0.8800000417977571, 0.8800000417977571, 0.0, 0.0, 0.0, 0.0, 0.0, 1.7054298528514574E9, 0.0, 2024-01-16 13:30:52.851
34.0, -14.121862232685089, -94.54467087984085, -96.45949965715408, 408.8159439563751, -0.8800000417977571, -0.8800000417977571, 0.8800000417977571, 0.0, 0.0, 0.0, 0.0, 0.0, 1.7054298528514574E9, 0.0, 2024-01-16 13:30:52.851
35.0, 19.148287773132324, -80.18345504999161, -84.97052699327469, 433.9480716586113, -0.8800000417977571, -0.8800000417977571, 0.8800000417977571, 0.0, 0.0, 0.0, 0.0, 0.0, 1.7054298528671165E9, 0.0, 2024-01-16 13:30:52.867
35.0, -97.89562124013901, -241.02907234430313, -195.07318168878555, 324.0847705602646, -0.8800000417977571, -0.8800000417977571, 0.8800000417977571, 0.0, 0.0, 0.0, 0.0, 0.0, 1.7054298528671165E9, 0.0, 2024-01-16 13:30:52.867
36.0, -54.093912959098816, -141.6973295211792, -128.53288167715073, 367.40777164697647, -0.8800000417977571, -0.8800000417977571, 0.8800000417977571, 0.0, 0.0, 0.0, 0.0, 0.0, 1.7054298528678114E9, 0.0, 2024-01-16 13:30:52.867
36.0, 39.97205072641373, -48.82813382148743, -51.46102339029312, 461.9524425268173, -0.8800000417977571, -0.8800000417977571, 0.8800000417977571, 0.0, 0.0, 0.0, 0.0, 0.0, 1.7054298528678114E9, 0.0, 2024-01-16 13:30:52.867
37.0, -52.41843777894974, -194.11576730012894, -165.1539820432663, 352.32849502563477, -0.8800000417977571, -0.8800000417977571, 0.8800000417977571, 0.0, 0.0, 0.0, 0.0, 0.0, 1.7054298528814485E9, 0.0, 2024-01-16 13:30:52.881
37.0, -77.78991907835007, -193.63706010580063, -169.46234679222107, 332.70150005817413, -0.8800000417977571, -0.8800000417977571, 0.8800000417977571, 0.0, 0.0, 0.0, 0.0, 0.0, 1.7054298528814485E9, 0.0, 2024-01-16 13:30:52.881
38.0, 22.97794532775879, -44.2804154753685, -60.07775288820267, 448.78799468278885, -0.8800000417977571, -0.8800000417977571, 0.8800000417977571, 0.0, 0.0, 0.0, 0.0, 0.0, 1.705429852912858E9, 0.0, 2024-01-16 13:30:52.912
38.0, -22.259884536266327, -144.09086549282074, -131.40512484312057, 396.60891050100327, -0.8800000417977571, -0.8800000417977571, 0.8800000417977571, 0.0, 0.0, 0.0, 0.0, 0.0, 1.705429852912858E9, 0.0, 2024-01-16 13:30:52.912
39.0, -112.73554426431656, -247.25226587057114, -202.01443600654602, 300.6281180381775, -0.8800000417977571, -0.8800000417977571, 0.8800000417977571, 0.0, 0.0, 0.0, 0.0, 0.0, 1.7054298529135737E9, 0.0, 2024-01-16 13:30:52.913
39.0, -18.430226981639862, -92.15113490819931, -85.9279413819313, 428.2035853266716, -0.8800000417977571, -0.8800000417977571, 0.8800000417977571, 0.0, 0.0, 0.0, 0.0, 0.0, 1.7054298529135737E9, 0.0, 2024-01-16 13:30:52.913
40.0, 14.121862232685089, -87.84277015924454, -96.22014605998993, 440.41061878204346, -0.8800000417977571, -0.8800000417977571, 0.9280000440776348, 0.0, 0.0, 0.0, 0.0, 0.0, 1.705429852914294E9, 0.0, 2024-01-16 13:30:52.914
40.0, -84.49181979894638, -234.80587881803513, -195.79124248027802, 324.5634777545929, -0.8800000417977571, -0.8800000417977571, 0.9280000440776348, 0.0, 0.0, 0.0, 0.0, 0.0, 1.705429852914294E9, 0.0, 2024-01-16 13:30:52.914
41.0, -52.65779137611389, -147.4418158531189, -125.89999210834503, 375.0670867562294, -0.8800000417977571, -0.9280000440776348, 0.9280000440776348, 0.0, 0.0, 0.0, 0.0, 0.0, 1.7054298529271803E9, 0.0, 2024-01-16 13:30:52.927
41.0, 40.69011151790619, -38.5359291434288, -60.79581367969513, 457.4047241806984, -0.8800000417977571, -0.9280000440776348, 0.9280000440776348, 0.0, 0.0, 0.0, 0.0, 0.0, 1.7054298529271803E9, 0.0, 2024-01-16 13:30:52.927
42.0, -57.20550972223282, -193.39770650863647, -166.1113964319229, 349.69560545682907, -0.9280000440776348, -0.9280000440776348, 0.9280000440776348, 0.0, 0.0, 0.0, 0.0, 0.0, 1.7054298529278712E9, 0.0, 2024-01-16 13:30:52.927
42.0, -86.40664857625961, -202.97185039520264, -166.1113964319229, 338.685339987278, -0.9280000440776348, -0.9280000440776348, 0.9280000440776348, 0.0, 0.0, 0.0, 0.0, 0.0, 1.7054298529278712E9, 0.0, 2024-01-16 13:30:52.927
43.0, 32.07338201999664, -41.647525906562805, -44.99847626686096, 460.5163209438324, -0.9280000440776348, -0.9280000440776348, 0.9280000440776348, 0.0, 0.0, 0.0, 0.0, 0.0, 1.705429852941704E9, 0.0, 2024-01-16 13:30:52.941
43.0, -12.925094246864319, -133.55930721759796, -124.22451692819595, 393.97602093219757, -0.9280000440776348, -0.9280000440776348, 0.9280000440776348, 0.0, 0.0, 0.0, 0.0, 0.0, 1.705429852941704E9, 0.0, 2024-01-16 13:30:52.941
44.0, -101.48592519760132, -237.19941478967667, -189.56804895401, 319.2976986169815, -0.9280000440776348, -0.9280000440776348, 0.9280000440776348, 0.0, 0.0, 0.0, 0.0, 0.0, 1.705429852957173E9, 0.0, 2024-01-16 13:30:52.957
44.0, -13.403801441192627, -92.62984210252762, -79.22604066133499, 424.85263496637344, -0.9280000440776348, -0.9280000440776348, 0.9280000440776348, 0.0, 0.0, 0.0, 0.0, 0.0, 1.705429852957173E9, 0.0, 2024-01-16 13:30:52.957
45.0, 18.90893417596817, -79.46539425849915, -82.8163446187973, 439.2138507962227, -0.9280000440776348, -0.9280000440776348, 0.9280000440776348, 0.0, 0.0, 0.0, 0.0, 0.0, 1.7054298529579303E9, 0.0, 2024-01-16 13:30:52.957
45.0, -97.17756044864655, -243.42260831594467, -200.33896082639694, 319.2976986169815, -0.9280000440776348, -0.9280000440776348, 0.9280000440776348, 0.0, 0.0, 0.0, 0.0, 0.0, 1.7054298529579303E9, 0.0, 2024-01-16 13:30:52.957
46.0, -79.22604066133499, -175.44618672132492, -144.56957268714905, 356.63685977458954, -0.9280000440776348, -0.9280000440776348, 0.9280000440776348, 0.0, 0.0, 0.0, 0.0, 0.0, 1.7054298529721065E9, 0.0, 2024-01-16 13:30:52.972
46.0, 48.110073029994965, -39.49334353208542, -61.753228068351746, 454.2931274175644, -0.9280000440776348, -0.9280000440776348, 0.9280000440776348, 0.0, 0.0, 0.0, 0.0, 0.0, 1.7054298529721065E9, 0.0, 2024-01-16 13:30:52.972
47.0, -50.0249018073082, -193.15835291147232, -160.12755650281906, 354.96138459444046, -0.9280000440776348, -0.9280000440776348, 0.9280000440776348, 0.0, 0.0, 0.0, 0.0, 0.0, 1.705429852987245E9, 0.0, 2024-01-16 13:30:52.987
47.0, -75.87509030103683, -203.2112039923668, -165.1539820432663, 323.3667097687721, -0.9280000440776348, -0.9280000440776348, 0.9280000440776348, 0.0, 0.0, 0.0, 0.0, 0.0, 1.705429852987245E9, 0.0, 2024-01-16 13:30:52.987
48.0, 30.397906839847565, -41.647525906562805, -52.41843777894974, 459.79826015233994, -0.9280000440776348, -0.9280000440776348, 0.9280000440776348, 0.0, 0.0, 0.0, 0.0, 0.0, 1.705429852987998E9, 0.0, 2024-01-16 13:30:52.987
48.0, -11.24961906671524, -139.30379354953766, -122.78839534521103, 398.28438568115234, -0.9280000440776348, -0.9280000440776348, 0.9280000440776348, 0.0, 0.0, 0.0, 0.0, 0.0, 1.705429852987998E9, 0.0, 2024-01-16 13:30:52.987
49.0, -108.42717951536179, -242.2258403301239, -203.6899111866951, 306.61195796728134, -0.9280000440776348, -0.9280000440776348, 0.9280000440776348, 0.0, 0.0, 0.0, 0.0, 0.0, 1.7054298530018733E9, 0.0, 2024-01-16 13:30:53.001
49.0, -13.643155038356781, -90.71501332521439, -90.23630613088608, 410.4914191365242, -0.9280000440776348, -0.9280000440776348, 0.9280000440776348, 0.0, 0.0, 0.0, 0.0, 0.0, 1.7054298530018733E9, 0.0, 2024-01-16 13:30:53.001
50.0, 20.58440935611725, -83.29505181312561, -85.9279413819313, 433.9480716586113, -0.9280000440776348, -0.9280000440776348, 0.9760000463575125, 0.0, 0.0, 0.0, 0.0, 0.0, 1.7054298530173059E9, 0.0, 2024-01-16 13:30:53.017
50.0, -89.03953814506531, -237.67812198400497, -203.2112039923668, 309.9629083275795, -0.9280000440776348, -0.9280000440776348, 0.9760000463575125, 0.0, 0.0, 0.0, 0.0, 0.0, 1.7054298530173059E9, 0.0, 2024-01-16 13:30:53.017
51.0, -54.33326655626297, -159.4094957113266, -147.4418158531189, 342.99370473623276, -0.9280000440776348, -0.9760000463575125, 0.9760000463575125, 0.0, 0.0, 0.0, 0.0, 0.0, 1.7054298530179348E9, 0.0, 2024-01-16 13:30:53.017
51.0, 25.610834896564484, -56.487448930740356, -77.31121188402176, 427.7248781323433, -0.9280000440776348, -0.9760000463575125, 0.9760000463575125, 0.0, 0.0, 0.0, 0.0, 0.0, 1.7054298530179348E9, 0.0, 2024-01-16 13:30:53.017
52.0, -59.83839929103851, -199.38154643774033, -178.79713708162308, 346.58400869369507, -0.9760000463575125, -0.9760000463575125, 0.9760000463575125, 0.0, 0.0, 0.0, 0.0, 0.0, 1.705429853031479E9, 0.0, 2024-01-16 13:30:53.031
52.0, -91.1937205195427, -210.3918119072914, -179.7545514702797, 316.1861018538475, -0.9760000463575125, -0.9760000463575125, 0.9760000463575125, 0.0, 0.0, 0.0, 0.0, 0.0, 1.705429853031479E9, 0.0, 2024-01-16 13:30:53.031
53.0, 26.5682492852211, -46.19524425268173, -58.8809849023819, 437.77772921323776, -0.9760000463575125, -0.9760000463575125, 0.9760000463575125, 0.0, 0.0, 0.0, 0.0, 0.0, 1.7054298530473318E9, 0.0, 2024-01-16 13:30:53.047
53.0, -11.967679858207703, -144.09086549282074, -135.4741359949112, 383.9231698513031, -0.9760000463575125, -0.9760000463575125, 0.9760000463575125, 0.0, 0.0, 0.0, 0.0, 0.0, 1.7054298530473318E9, 0.0, 2024-01-16 13:30:53.047
54.0, -103.87946116924286, -240.07165795564651, -209.67375111579895, 285.30948781967163, -0.9760000463575125, -0.9760000463575125, 0.9760000463575125, 0.0, 0.0, 0.0, 0.0, 0.0, 1.705429853047874E9, 0.0, 2024-01-16 13:30:53.047
54.0, -3.3509503602981567, -83.29505181312561, -101.48592519760132, 406.4224079847336, -0.9760000463575125, -0.9760000463575125, 0.9760000463575125, 0.0, 0.0, 0.0, 0.0, 0.0, 1.705429853047874E9, 0.0, 2024-01-16 13:30:53.047
55.0, 22.020530939102173, -85.68858778476715, -93.58725649118423, 429.1609997153282, -0.9760000463575125, -0.9760000463575125, 0.9760000463575125, 0.0, 0.0, 0.0, 0.0, 0.0, 1.705429853061462E9, 0.0, 2024-01-16 13:30:53.061
55.0, -84.25246620178223, -238.39618277549744, -205.60473996400833, 303.97906839847565, -0.9760000463575125, -0.9760000463575125, 0.9760000463575125, 0.0, 0.0, 0.0, 0.0, 0.0, 1.705429853061462E9, 0.0, 2024-01-16 13:30:53.061
56.0, -46.67395144701004, -142.89409750699997, -131.16577124595642, 369.08324682712555, -0.9760000463575125, -0.9760000463575125, 0.9760000463575125, 0.0, 0.0, 0.0, 0.0, 0.0, 1.705429853077426E9, 0.0, 2024-01-16 13:30:53.077
56.0, 46.434597849845886, -44.041061878204346, -68.69448238611221, 452.138945043087, -0.9760000463575125, -0.9760000463575125, 0.9760000463575125, 0.0, 0.0, 0.0, 0.0, 0.0, 1.705429853077426E9, 0.0, 2024-01-16 13:30:53.077
57.0, -46.434597849845886, -198.18477845191956, -176.40360110998154, 343.9511191248894, -0.9760000463575125, -0.9760000463575125, 0.9760000463575125, 0.0, 0.0, 0.0, 0.0, 0.0, 1.7054298530780933E9, 0.0, 2024-01-16 13:30:53.078
57.0, -79.22604066133499, -194.59447449445724, -175.92489391565323, 317.1435162425041, -0.9760000463575125, -0.9760000463575125, 0.9760000463575125, 0.0, 0.0, 0.0, 0.0, 0.0, 1.7054298530780933E9, 0.0, 2024-01-16 13:30:53.078
58.0, 37.33916115760803, -41.88687950372696, -67.7370679974556, 422.69845259189606, -0.9760000463575125, -0.9760000463575125, 0.9760000463575125, 0.0, 0.0, 0.0, 0.0, 0.0, 1.7054298530914724E9, 0.0, 2024-01-16 13:30:53.091
58.0, -18.669580578804016, -149.11729103326797, -131.88383203744888, 391.1037777662277, -0.9760000463575125, -0.9760000463575125, 0.9760000463575125, 0.0, 0.0, 0.0, 0.0, 0.0, 1.7054298530914724E9, 0.0, 2024-01-16 13:30:53.091
59.0, -100.0498036146164, -235.76329320669174, -192.679645717144, 310.4416155219078, -0.9760000463575125, -0.9760000463575125, 0.9760000463575125, 0.0, 0.0, 0.0, 0.0, 0.0, 1.7054298531071136E9, 0.0, 2024-01-16 13:30:53.107
59.0, -14.839923024177551, -100.0498036146164, -99.09238922595978, 402.35339683294296, -0.9760000463575125, -0.9760000463575125, 0.9760000463575125, 0.0, 0.0, 0.0, 0.0, 0.0, 1.7054298531071136E9, 0.0, 2024-01-16 13:30:53.107
60.0, 21.78117734193802, -85.68858778476715, -95.98079246282578, 426.28875654935837, -0.9760000463575125, -0.9760000463575125, 0.9760000463575125, 0.0, 0.0, 0.0, 0.0, 0.0, 1.7054298531078484E9, 0.0, 2024-01-16 13:30:53.107
60.0, -90.71501332521439, -240.55036514997482, -210.87051910161972, 304.93648278713226, -0.9760000463575125, -0.9760000463575125, 0.9760000463575125, 0.0, 0.0, 0.0, 0.0, 0.0, 1.7054298531078484E9, 0.0, 2024-01-16 13:30:53.107
61.0, -62.231935262680054, -155.57983815670013, -132.3625392317772, 359.0303957462311, -0.9760000463575125, -0.9760000463575125, 0.9760000463575125, 0.0, 0.0, 0.0, 0.0, 0.0, 1.705429853121558E9, 0.0, 2024-01-16 13:30:53.121
61.0, 25.850188493728638, -62.949996054172516, -76.35379749536514, 438.4957900047302, -0.9760000463575125, -0.9760000463575125, 0.9760000463575125, 0.0, 0.0, 0.0, 0.0, 0.0, 1.705429853121558E9, 0.0, 2024-01-16 13:30:53.121
62.0, -60.31710648536682, -218.05112701654434, -207.51956874132156, 304.93648278713226, -0.9760000463575125, -0.9760000463575125, 0.9760000463575125, 0.0, 0.0, 0.0, 0.0, 0.0, 1.7054298531371553E9, 0.0, 2024-01-16 13:30:53.137
62.0, -65.1041784286499, -189.56804895401, -180.47261226177216, 309.0054939389229, -0.9760000463575125, -0.9760000463575125, 0.9760000463575125, 0.0, 0.0, 0.0, 0.0, 0.0, 1.7054298531371553E9, 0.0, 2024-01-16 13:30:53.137
63.0, 59.83839929103851, -17.233458995819092, -43.56235468387604, 450.2241162657738, -0.9760000463575125, -0.9760000463575125, 0.9760000463575125, 0.0, 0.0, 0.0, 0.0, 0.0, 1.7054298531378565E9, 0.0, 2024-01-16 13:30:53.137
63.0, 18.90893417596817, -111.53877627849579, -120.8735665678978, 393.49731373786926, -0.9760000463575125, -0.9760000463575125, 0.9760000463575125, 0.0, 0.0, 0.0, 0.0, 0.0, 1.7054298531378565E9, 0.0, 2024-01-16 13:30:53.137
64.0, -61.753228068351746, -214.93953025341034, -192.91899931430817, 295.12298530340195, -0.9760000463575125, -0.9760000463575125, 0.9760000463575125, 0.0, 0.0, 0.0, 0.0, 0.0, 1.7054298531514416E9, 0.0, 2024-01-16 13:30:53.151
64.0, 43.32300108671188, -54.81197375059128, -70.13060396909714, 405.2256399989128, -0.9760000463575125, -0.9760000463575125, 0.9760000463575125, 0.0, 0.0, 0.0, 0.0, 0.0, 1.7054298531514416E9, 0.0, 2024-01-16 13:30:53.151
65.0, 80.42280864715576, -48.110073029994965, -71.32737195491791, 428.44293892383575, -0.9760000463575125, -0.9760000463575125, 0.9760000463575125, 0.0, 0.0, 0.0, 0.0, 0.0, 1.705429853167162E9, 0.0, 2024-01-16 13:30:53.167
65.0, -33.74885720014572, -199.86025363206863, -190.76481693983078, 298.4739356637001, -0.9760000463575125, -0.9760000463575125, 0.9760000463575125, 0.0, 0.0, 0.0, 0.0, 0.0, 1.705429853167162E9, 0.0, 2024-01-16 13:30:53.167
66.0, 18.190873384475708, -97.4169140458107, -105.31558275222778, 364.0568212866783, -0.9760000463575125, -0.9760000463575125, 0.9760000463575125, 0.0, 0.0, 0.0, 0.0, 0.0, 1.7054298531678631E9, 0.0, 2024-01-16 13:30:53.167
66.0, 111.06006908416748, 0.9574143886566162, -42.36558669805527, 443.2828619480133, -0.9760000463575125, -0.9760000463575125, 0.9760000463575125, 0.0, 0.0, 0.0, 0.0, 0.0, 1.7054298531678631E9, 0.0, 2024-01-16 13:30:53.167
67.0, 21.30247014760971, -145.04827988147736, -146.72375506162643, 329.350549697876, -0.9760000463575125, -0.9760000463575125, 0.9760000463575125, 0.0, 0.0, 0.0, 0.0, 0.0, 1.705429853181441E9, 0.0, 2024-01-16 13:30:53.181
67.0, -20.345055758953094, -160.60626369714737, -154.38307017087936, 309.0054939389229, -0.9760000463575125, -0.9760000463575125, 0.9760000463575125, 0.0, 0.0, 0.0, 0.0, 0.0, 1.705429853181441E9, 0.0, 2024-01-16 13:30:53.181
68.0, 89.03953814506531, -14.121862232685089, -33.03079640865326, 440.1712651848793, -0.9760000463575125, -0.9760000463575125, 0.9760000463575125, 0.0, 0.0, 0.0, 0.0, 0.0, 1.705429853197109E9, 0.0, 2024-01-16 13:30:53.197
68.0, 45.237829864025116, -108.9058867096901, -116.80455541610718, 368.8438932299614, -0.9760000463575125, -0.9760000463575125, 0.9760000463575125, 0.0, 0.0, 0.0, 0.0, 0.0, 1.705429853197109E9, 0.0, 2024-01-16 13:30:53.197
69.0, -52.41843777894974, -213.98211586475372, -193.87641370296478, 285.5488414168358, -0.9760000463575125, -0.9760000463575125, 0.9760000463575125, 0.0, 0.0, 0.0, 0.0, 0.0, 1.7054298531978483E9, 0.0, 2024-01-16 13:30:53.197
69.0, 38.057221949100494, -54.33326655626297, -75.39638310670853, 403.3108112215996, -0.9760000463575125, -0.9760000463575125, 0.9760000463575125, 0.0, 0.0, 0.0, 0.0, 0.0, 1.7054298531978483E9, 0.0, 2024-01-16 13:30:53.197
70.0, 71.08801835775375, -55.53003454208374, -82.57699102163315, 418.3900878429413, -0.9760000463575125, -0.9760000463575125, 0.9920000471174717, 0.0, 0.0, 0.0, 0.0, 0.0, 1.705429853211604E9, 0.0, 2024-01-16 13:30:53.211
70.0, -51.93973058462143, -223.79561334848404, -194.8338280916214, 297.0378140807152, -0.9760000463575125, -0.9760000463575125, 0.9920000471174717, 0.0, 0.0, 0.0, 0.0, 0.0, 1.705429853211604E9, 0.0, 2024-01-16 13:30:53.211
71.0, -9.095436692237854, -125.18193131685257, -125.42128491401672, 348.9775446653366, -0.9760000463575125, -0.9920000471174717, 0.9920000471174717, 0.0, 0.0, 0.0, 0.0, 0.0, 1.7054298532271473E9, 0.0, 2024-01-16 13:30:53.227
71.0, 80.66216224431992, -23.456652522087097, -62.71064245700836, 436.82031482458115, -0.9760000463575125, -0.9920000471174717, 0.9920000471174717, 0.0, 0.0, 0.0, 0.0, 0.0, 1.7054298532271473E9, 0.0, 2024-01-16 13:30:53.227
72.0, -23.456652522087097, -189.56804895401, -175.20683312416077, 327.91442811489105, -0.9920000471174717, -0.9920000471174717, 0.9920000471174717, 0.0, 0.0, 0.0, 0.0, 0.0, 1.705429853227846E9, 0.0, 2024-01-16 13:30:53.227
72.0, -44.2804154753685, -181.43002665042877, -160.60626369714737, 314.7499802708626, -0.9920000471174717, -0.9920000471174717, 0.9920000471174717, 0.0, 0.0, 0.0, 0.0, 0.0, 1.705429853227846E9, 0.0, 2024-01-16 13:30:53.227
73.0, 65.34353202581406, -29.201138854026794, -60.31710648536682, 422.4590989947319, -0.9920000471174717, -0.9920000471174717, 0.9920000471174717, 0.0, 0.0, 0.0, 0.0, 0.0, 1.7054298532417405E9, 0.0, 2024-01-16 13:30:53.241
73.0, 23.935359716415405, -124.70322412252426, -127.57546728849411, 375.5457939505577, -0.9920000471174717, -0.9920000471174717, 0.9920000471174717, 0.0, 0.0, 0.0, 0.0, 0.0, 1.7054298532417405E9, 0.0, 2024-01-16 13:30:53.241
74.0, -70.60931116342545, -222.83819895982742, -200.81766802072525, 287.9423773884773, -0.9920000471174717, -0.9920000471174717, 0.9920000471174717, 0.0, 0.0, 0.0, 0.0, 0.0, 1.7054298532572072E9, 0.0, 2024-01-16 13:30:53.257
74.0, 18.190873384475708, -73.72090792655945, -88.560830950737, 390.86442416906357, -0.9920000471174717, -0.9920000471174717, 0.9920000471174717, 0.0, 0.0, 0.0, 0.0, 0.0, 1.7054298532572072E9, 0.0, 2024-01-16 13:30:53.257
75.0, 57.92357051372528, -66.54030001163483, -86.64600217342377, 418.8687950372696, -0.9920000471174717, -0.9920000471174717, 0.9920000471174717, 0.0, 0.0, 0.0, 0.0, 0.0, 1.7054298532578373E9, 0.0, 2024-01-16 13:30:53.257
75.0, -63.66805684566498, -232.8910500407219, -203.2112039923668, 296.55910688638687, -0.9920000471174717, -0.9920000471174717, 0.9920000471174717, 0.0, 0.0, 0.0, 0.0, 0.0, 1.7054298532578373E9, 0.0, 2024-01-16 13:30:53.257
76.0, -22.97794532775879, -135.4741359949112, -128.77223527431488, 345.14788711071014, -0.9920000471174717, -0.9920000471174717, 0.9920000471174717, 0.0, 0.0, 0.0, 0.0, 0.0, 1.7054298532878916E9, 0.0, 2024-01-16 13:30:53.287
76.0, 67.7370679974556, -36.860453963279724, -61.51387447118759, 435.86290043592453, -0.9920000471174717, -0.9920000471174717, 0.9920000471174717, 0.0, 0.0, 0.0, 0.0, 0.0, 1.7054298532878916E9, 0.0, 2024-01-16 13:30:53.287
77.0, -33.27015000581741, -193.87641370296478, -173.29200434684753, 326.4783065319061, -0.9920000471174717, -0.9920000471174717, 0.9920000471174717, 0.0, 0.0, 0.0, 0.0, 0.0, 1.7054298532885773E9, 0.0, 2024-01-16 13:30:53.288
77.0, -59.12033849954605, -191.2435241341591, -170.41976118087769, 310.4416155219078, -0.9920000471174717, -0.9920000471174717, 0.9920000471174717, 0.0, 0.0, 0.0, 0.0, 0.0, 1.7054298532885773E9, 0.0, 2024-01-16 13:30:53.288
78.0, 53.85455936193466, -40.450757920742035, -60.79581367969513, 419.10814863443375, -0.9920000471174717, -0.9920000471174717, 0.9920000471174717, 0.0, 0.0, 0.0, 0.0, 0.0, 1.7054298532893283E9, 0.0, 2024-01-16 13:30:53.289
78.0, 11.967679858207703, -134.75607520341873, -140.02185434103012, 366.689710855484, -0.9920000471174717, -0.9920000471174717, 0.9920000471174717, 0.0, 0.0, 0.0, 0.0, 0.0, 1.7054298532893283E9, 0.0, 2024-01-16 13:30:53.289
79.0, -83.29505181312561, -237.43876838684082, -195.55188888311386, 295.8410460948944, -0.9920000471174717, -0.9920000471174717, 0.9920000471174717, 0.0, 0.0, 0.0, 0.0, 0.0, 1.7054298533179705E9, 0.0, 2024-01-16 13:30:53.317
79.0, 15.31863021850586, -75.39638310670853, -84.73117339611053, 402.83210402727127, -0.9920000471174717, -0.9920000471174717, 0.9920000471174717, 0.0, 0.0, 0.0, 0.0, 0.0, 1.7054298533179705E9, 0.0, 2024-01-16 13:30:53.317
80.0, 45.237829864025116, -74.91767591238022, -93.82661008834839, 419.8262094259262, -0.9920000471174717, -0.9920000471174717, 0.9920000471174717, 0.0, 0.0, 0.0, 0.0, 0.0, 1.705429853318635E9, 0.0, 2024-01-16 13:30:53.318
80.0, -63.90741044282913, -228.34333169460297, -200.5783144235611, 299.910057246685, -0.9920000471174717, -0.9920000471174717, 0.9920000471174717, 0.0, 0.0, 0.0, 0.0, 0.0, 1.705429853318635E9, 0.0, 2024-01-16 13:30:53.318
81.0, -33.74885720014572, -149.11729103326797, -150.79276621341705, 326.238952934742, -0.9920000471174717, -0.9920000471174717, 0.9920000471174717, 0.0, 0.0, 0.0, 0.0, 0.0, 1.7054298533196592E9, 0.0, 2024-01-16 13:30:53.319
81.0, 50.0249018073082, -56.00874173641205, -64.14676403999329, 436.34160763025284, -0.9920000471174717, -0.9920000471174717, 0.9920000471174717, 0.0, 0.0, 0.0, 0.0, 0.0, 1.7054298533196592E9, 0.0, 2024-01-16 13:30:53.319
82.0, -42.12623310089111, -203.45055758953094, -180.95131945610046, 336.0524504184723, -0.9920000471174717, -0.9920000471174717, 0.9920000471174717, 0.0, 0.0, 0.0, 0.0, 0.0, 1.7054298533315032E9, 0.0, 2024-01-16 13:30:53.331
82.0, -70.13060396909714, -193.39770650863647, -177.83972269296646, 312.5957978963852, -0.9920000471174717, -0.9920000471174717, 0.9920000471174717, 0.0, 0.0, 0.0, 0.0, 0.0, 1.7054298533315032E9, 0.0, 2024-01-16 13:30:53.331
83.0, 47.63136583566666, -41.88687950372696, -58.64163130521774, 437.29902201890945, -0.9920000471174717, -0.9920000471174717, 0.9920000471174717, 0.0, 0.0, 0.0, 0.0, 0.0, 1.705429853347236E9, 0.0, 2024-01-16 13:30:53.347
83.0, 3.829657554626465, -136.67090398073196, -139.30379354953766, 377.6999763250351, -0.9920000471174717, -0.9920000471174717, 0.9920000471174717, 0.0, 0.0, 0.0, 0.0, 0.0, 1.705429853347236E9, 0.0, 2024-01-16 13:30:53.347
84.0, -78.02927267551422, -226.6678565144539, -199.14219284057617, 289.6178525686264, -0.9920000471174717, -0.9920000471174717, 0.9920000471174717, 0.0, 0.0, 0.0, 0.0, 0.0, 1.7054298533478875E9, 0.0, 2024-01-16 13:30:53.347
84.0, 36.14239317178726, -66.54030001163483, -51.46102339029312, 395.17278891801834, -0.9920000471174717, -0.9920000471174717, 0.9920000471174717, 0.0, 0.0, 0.0, 0.0, 0.0, 1.7054298533478875E9, 0.0, 2024-01-16 13:30:53.347
85.0, 42.36558669805527, -75.15702950954437, -92.15113490819931, 415.2784910798073, -0.9920000471174717, -0.9920000471174717, 0.9920000471174717, 0.0, 0.0, 0.0, 0.0, 0.0, 1.7054298533617043E9, 0.0, 2024-01-16 13:30:53.361
85.0, -73.9602615237236, -241.02907234430313, -210.15245831012726, 295.3623389005661, -0.9920000471174717, -0.9920000471174717, 0.9920000471174717, 0.0, 0.0, 0.0, 0.0, 0.0, 1.7054298533617043E9, 0.0, 2024-01-16 13:30:53.361
86.0, -39.01463633775711, -156.2978989481926, -127.57546728849411, 359.26974934339523, -0.9920000471174717, -0.9920000471174717, 0.9920000471174717, 0.0, 0.0, 0.0, 0.0, 0.0, 1.7054298533771696E9, 0.0, 2024-01-16 13:30:53.377
86.0, 53.85455936193466, -44.75912266969681, -63.66805684566498, 446.3944587111473, -0.9920000471174717, -0.9920000471174717, 0.9920000471174717, 0.0, 0.0, 0.0, 0.0, 0.0, 1.7054298533771696E9, 0.0, 2024-01-16 13:30:53.377
87.0, -39.01463633775711, -199.38154643774033, -196.50930327177048, 315.94674825668335, -0.9920000471174717, -0.9920000471174717, 0.9920000471174717, 0.0, 0.0, 0.0, 0.0, 0.0, 1.7054298533779573E9, 0.0, 2024-01-16 13:30:53.377
87.0, -61.51387447118759, -191.2435241341591, -175.20683312416077, 311.3990299105644, -0.9920000471174717, -0.9920000471174717, 0.9920000471174717, 0.0, 0.0, 0.0, 0.0, 0.0, 1.7054298533779573E9, 0.0, 2024-01-16 13:30:53.377
88.0, 45.95589065551758, -37.81786835193634, -50.503609001636505, 451.89959144592285, -0.9920000471174717, -0.9920000471174717, 0.9920000471174717, 0.0, 0.0, 0.0, 0.0, 0.0, 1.7054298533916411E9, 0.0, 2024-01-16 13:30:53.391
88.0, -10.05285108089447, -147.68116945028305, -141.45797592401505, 369.801307618618, -0.9920000471174717, -0.9920000471174717, 0.9920000471174717, 0.0, 0.0, 0.0, 0.0, 0.0, 1.7054298533916411E9, 0.0, 2024-01-16 13:30:53.391
89.0, -97.4169140458107, -237.67812198400497, -216.37565183639526, 277.1714655160904, -0.9920000471174717, -0.9920000471174717, 0.9920000471174717, 0.0, 0.0, 0.0, 0.0, 0.0, 1.7054298534071376E9, 0.0, 2024-01-16 13:30:53.407
89.0, -1.6754751801490784, -92.15113490819931, -106.51235073804855, 380.8115730881691, -0.9920000471174717, -0.9920000471174717, 0.9920000471174717, 0.0, 0.0, 0.0, 0.0, 0.0, 1.7054298534071376E9, 0.0, 2024-01-16 13:30:53.407
90.0, 25.850188493728638, -97.89562124013901, -111.29942268133163, 380.8115730881691, -0.9920000471174717, -0.9920000471174717, 0.9920000471174717, 0.0, 0.0, 0.0, 0.0, 0.0, 1.7054298534078937E9, 0.0, 2024-01-16 13:30:53.407
90.0, -87.60341656208038, -247.4916194677353, -216.85435903072357, 292.49009573459625, -0.9920000471174717, -0.9920000471174717, 0.9920000471174717, 0.0, 0.0, 0.0, 0.0, 0.0, 1.7054298534078937E9, 0.0, 2024-01-16 13:30:53.407
91.0, -37.09980756044388, -147.68116945028305, -134.03801441192627, 358.3123349547386, -0.9920000471174717, -0.9920000471174717, 0.9920000471174717, 0.0, 0.0, 0.0, 0.0, 0.0, 1.7054298534214823E9, 0.0, 2024-01-16 13:30:53.421
91.0, 63.18934965133667, -36.860453963279724, -63.90741044282913, 450.2241162657738, -0.9920000471174717, -0.9920000471174717, 0.9920000471174717, 0.0, 0.0, 0.0, 0.0, 0.0, 1.7054298534214823E9, 0.0, 2024-01-16 13:30:53.421
92.0, -33.50950360298157, -183.10550183057785, -171.3771755695343, 340.36081516742706, -0.9920000471174717, -0.9920000471174717, 0.9920000471174717, 0.0, 0.0, 0.0, 0.0, 0.0, 1.7054298534376633E9, 0.0, 2024-01-16 13:30:53.437
92.0, -65.34353202581406, -193.15835291147232, -171.8558827638626, 313.0745050907135, -0.9920000471174717, -0.9920000471174717, 0.9920000471174717, 0.0, 0.0, 0.0, 0.0, 0.0, 1.7054298534376633E9, 0.0, 2024-01-16 13:30:53.437
93.0, 46.67395144701004, -46.67395144701004, -67.25836080312729, 423.8952205777168, -0.9920000471174717, -0.9920000471174717, 0.9920000471174717, 0.0, 0.0, 0.0, 0.0, 0.0, 1.7054298534381135E9, 0.0, 2024-01-16 13:30:53.438
93.0, -4.787071943283081, -142.89409750699997, -144.09086549282074, 351.37108063697815, -0.9920000471174717, -0.9920000471174717, 0.9920000471174717, 0.0, 0.0, 0.0, 0.0, 0.0, 1.7054298534381135E9, 0.0, 2024-01-16 13:30:53.438
94.0, -78.02927267551422, -232.65169644355774, -201.0570216178894, 290.0965597629547, -0.9920000471174717, -0.9920000471174717, 0.9920000471174717, 0.0, 0.0, 0.0, 0.0, 0.0, 1.7054298534678419E9, 0.0, 2024-01-16 13:30:53.467
94.0, 9.813497483730316, -79.7047478556633, -75.87509030103683, 419.58685582876205, -0.9920000471174717, -0.9920000471174717, 0.9920000471174717, 0.0, 0.0, 0.0, 0.0, 0.0, 1.7054298534678419E9, 0.0, 2024-01-16 13:30:53.467
95.0, 37.09980756044388, -80.66216224431992, -93.10854929685593, 422.4590989947319, -0.9920000471174717, -0.9920000471174717, 0.9920000471174717, 0.0, 0.0, 0.0, 0.0, 0.0, 1.7054298534685657E9, 0.0, 2024-01-16 13:30:53.468
95.0, -72.76349353790283, -229.54009968042374, -202.01443600654602, 292.49009573459625, -0.9920000471174717, -0.9920000471174717, 0.9920000471174717, 0.0, 0.0, 0.0, 0.0, 0.0, 1.7054298534685657E9, 0.0, 2024-01-16 13:30:53.468
96.0, -30.876614034175873, -133.08060002326965, -139.5431471467018, 339.40340077877045, -0.9920000471174717, -0.9920000471174717, 0.9920000471174717, 0.0, 0.0, 0.0, 0.0, 0.0, 1.705429853469336E9, 0.0, 2024-01-16 13:30:53.469
96.0, 52.897144973278046, -49.54619461297989, -66.06159281730652, 455.48989540338516, -0.9920000471174717, -0.9920000471174717, 0.9920000471174717, 0.0, 0.0, 0.0, 0.0, 0.0, 1.705429853469336E9, 0.0, 2024-01-16 13:30:53.469
97.0, -42.844293892383575, -202.25378960371017, -173.05265074968338, 345.8659479022026, -0.9920000471174717, -0.9920000471174717, 0.9920000471174717, 0.0, 0.0, 0.0, 0.0, 0.0, 1.7054298534818883E9, 0.0, 2024-01-16 13:30:53.481
97.0, -68.69448238611221, -200.0996072292328, -174.4887723326683, 320.73382019996643, -0.9920000471174717, -0.9920000471174717, 0.9920000471174717, 0.0, 0.0, 0.0, 0.0, 0.0, 1.7054298534818883E9, 0.0, 2024-01-16 13:30:53.481
98.0, 39.01463633775711, -45.237829864025116, -61.51387447118759, 437.29902201890945, -0.9920000471174717, -0.9920000471174717, 0.9920000471174717, 0.0, 0.0, 0.0, 0.0, 0.0, 1.7054298534964292E9, 0.0, 2024-01-16 13:30:53.496
98.0, -1.9148287773132324, -140.02185434103012, -133.55930721759796, 383.68381625413895, -0.9920000471174717, -0.9920000471174717, 0.9920000471174717, 0.0, 0.0, 0.0, 0.0, 0.0, 1.7054298534964292E9, 0.0, 2024-01-16 13:30:53.496
0.0, 7.65931510925293, -75.15702950954437, -87.60341656208038, 406.4224079847336, -0.9920000471174717, -0.9920000471174717, 0.9920000471174717, 0.0, 0.0, 0.0, 0.0, 0.0, 1.7054298535121396E9, 0.0, 2024-01-16 13:30:53.512
0.0, 40.69011151790619, -69.41254317760468, -100.76786440610886, 413.1243087053299, -0.9920000471174717, -0.9920000471174717, 0.9920000471174717, 0.0, 0.0, 0.0, 0.0, 0.0, 1.7054298535121396E9, 0.0, 2024-01-16 13:30:53.512
1.0, -74.43896871805191, -239.1142435669899, -207.04086154699326, 294.16557091474533, -0.9920000471174717, -0.06400000303983688, 0.9920000471174717, 0.0, 0.0, 0.0, 0.0, 0.0, 1.705429853512849E9, 0.0, 2024-01-16 13:30:53.512
1.0, -34.22756439447403, -134.51672160625458, -126.13934570550919, 367.1684180498123, -0.9920000471174717, -0.06400000303983688, 0.9920000471174717, 0.0, 0.0, 0.0, 0.0, 0.0, 1.705429853512849E9, 0.0, 2024-01-16 13:30:53.512
2.0, 51.93973058462143, -31.83402842283249, -59.12033849954605, 448.30928748846054, 0.09600000455975533, -0.06400000303983688, 0.9920000471174717, 0.0, 0.0, 0.0, 0.0, 0.0, 1.7054298535264409E9, 0.0, 2024-01-16 13:30:53.526
2.0, -51.93973058462143, -205.12603276968002, -177.83972269296646, 330.7866712808609, 0.09600000455975533, -0.06400000303983688, 0.9920000471174717, 0.0, 0.0, 0.0, 0.0, 0.0, 1.7054298535264409E9, 0.0, 2024-01-16 13:30:53.526
3.0, -80.66216224431992, -201.77508240938187, -180.7119658589363, 309.72355473041534, 0.09600000455975533, -0.06400000303983688, 0.9920000471174717, 0.0, 0.0, 0.0, 0.0, 0.0, 1.7054298535421948E9, 0.0, 2024-01-16 13:30:53.542
3.0, 33.50950360298157, -47.87071943283081, -64.6254712343216, 430.357767701149, 0.09600000455975533, -0.06400000303983688, 0.9920000471174717, 0.0, 0.0, 0.0, 0.0, 0.0, 1.7054298535421948E9, 0.0, 2024-01-16 13:30:53.542
4.0, -2.6328895688056946, -138.5857327580452, -135.9528431892395, 376.26385474205017, 0.09600000455975533, -0.06400000303983688, 0.9920000471174717, 0.0, 0.0, 0.0, 0.0, 0.0, 1.7054298535429027E9, 0.0, 2024-01-16 13:30:53.542
4.0, -80.90151584148407, -224.5136741399765, -190.28610974550247, 301.5855324268341, 0.09600000455975533, -0.06400000303983688, 0.9920000471174717, 0.0, 0.0, 0.0, 0.0, 0.0, 1.7054298535429027E9, 0.0, 2024-01-16 13:30:53.542
5.0, 17.7121661901474, -61.03516727685928, -73.72090792655945, 424.134574174881, 0.09600000455975533, -0.06400000303983688, 0.9920000471174717, 0.0, 0.0, 0.0, 0.0, 0.0, 1.7054298535728595E9, 0.0, 2024-01-16 13:30:53.572
5.0, 33.74885720014572, -76.35379749536514, -95.02337807416916, 427.48552453517914, 0.09600000455975533, -0.06400000303983688, 0.9920000471174717, 0.0, 0.0, 0.0, 0.0, 0.0, 1.7054298535728595E9, 0.0, 2024-01-16 13:30:53.572
6.0, -72.76349353790283, -235.5239396095276, -194.11576730012894, 313.0745050907135, 0.09600000455975533, -0.06400000303983688, 0.9920000471174717, 0.0, 0.0, 0.0, 0.0, 0.0, 1.7054298535735917E9, 0.0, 2024-01-16 13:30:53.573
6.0, -27.76501727104187, -130.44771045446396, -114.17166584730148, 383.20510905981064, 0.09600000455975533, -0.06400000303983688, 0.9920000471174717, 0.0, 0.0, 0.0, 0.0, 0.0, 1.7054298535735917E9, 0.0, 2024-01-16 13:30:53.573
7.0, 61.9925816655159, -25.850188493728638, -47.15265864133835, 465.54274648427963, 0.09600000455975533, -0.06400000303983688, 0.9920000471174717, 0.0, 0.0, 0.0, 0.0, 0.0, 1.705429853574314E9, 0.0, 2024-01-16 13:30:53.574
7.0, -37.81786835193634, -187.41386657953262, -172.57394355535507, 332.46214646101, 0.09600000455975533, -0.06400000303983688, 0.9920000471174717, 0.0, 0.0, 0.0, 0.0, 0.0, 1.705429853574314E9, 0.0, 2024-01-16 13:30:53.574
8.0, -74.91767591238022, -190.52546334266663, -168.7442860007286, 323.84541696310043, 0.09600000455975533, -0.06400000303983688, 0.9920000471174717, 0.0, 0.0, 0.0, 0.0, 0.0, 1.7054298535867567E9, 0.0, 2024-01-16 13:30:53.586
8.0, 40.92946511507034, -36.14239317178726, -63.66805684566498, 400.1992144584656, 0.09600000455975533, -0.06400000303983688, 0.9920000471174717, 0.0, 0.0, 0.0, 0.0, 0.0, 1.7054298535867567E9, 0.0, 2024-01-16 13:30:53.586
9.0, -5.026425540447235, -148.63858383893967, -130.92641764879227, 405.7043471932411, 0.09600000455975533, -0.06400000303983688, 0.9920000471174717, 0.0, 0.0, 0.0, 0.0, 0.0, 1.7054298536024635E9, 0.0, 2024-01-16 13:30:53.602
9.0, -87.60341656208038, -231.45492845773697, -192.44029211997986, 319.53705221414566, 0.09600000455975533, -0.06400000303983688, 0.9920000471174717, 0.0, 0.0, 0.0, 0.0, 0.0, 1.7054298536024635E9, 0.0, 2024-01-16 13:30:53.602
10.0, 1.9148287773132324, -80.18345504999161, -83.77375900745392, 417.911380648613, 0.09600000455975533, -0.06400000303983688, 1.008000047877431, 0.0, 0.0, 0.0, 0.0, 0.0, 1.705429853603057E9, 0.0, 2024-01-16 13:30:53.603
10.0, 44.519769072532654, -69.41254317760468, -87.60341656208038, 429.8790605068207, 0.09600000455975533, -0.06400000303983688, 1.008000047877431, 0.0, 0.0, 0.0, 0.0, 0.0, 1.705429853603057E9, 0.0, 2024-01-16 13:30:53.603
11.0, -79.22604066133499, -238.39618277549744, -201.29637521505356, 302.30359321832657, 0.09600000455975533, -0.06400000303983688, 1.008000047877431, 0.0, 0.0, 0.0, 0.0, 0.0, 1.705429853616545E9, 0.0, 2024-01-16 13:30:53.616
11.0, -37.09980756044388, -132.12318563461304, -125.66063851118088, 366.689710855484, 0.09600000455975533, -0.06400000303983688, 1.008000047877431, 0.0, 0.0, 0.0, 0.0, 0.0, 1.705429853616545E9, 0.0, 2024-01-16 13:30:53.616
12.0, 47.3920122385025, -50.74296259880066, -67.97642159461975, 438.0170828104019, 0.09600000455975533, -0.06400000303983688, 1.008000047877431, 0.0, 0.0, 0.0, 0.0, 0.0, 1.705429853632207E9, 0.0, 2024-01-16 13:30:53.632
12.0, -44.75912266969681, -191.00417053699493, -173.5313579440117, 348.4988374710083, 0.09600000455975533, -0.06400000303983688, 1.008000047877431, 0.0, 0.0, 0.0, 0.0, 0.0, 1.705429853632207E9, 0.0, 2024-01-16 13:30:53.632
13.0, -63.90741044282913, -185.25968420505524, -169.46234679222107, 334.8556824326515, 0.09600000455975533, -0.06400000303983688, 1.008000047877431, 0.0, 0.0, 0.0, 0.0, 0.0, 1.7054298536328757E9, 0.0, 2024-01-16 13:30:53.632
13.0, 39.97205072641373, -42.60494029521942, -53.85455936193466, 454.2931274175644, 0.09600000455975533, -0.06400000303983688, 1.008000047877431, 0.0, 0.0, 0.0, 0.0, 0.0, 1.7054298536328757E9, 0.0, 2024-01-16 13:30:53.632
14.0, -8.138022303581238, -139.5431471467018, -129.01158887147903, 387.75282740592957, 0.09600000455975533, -0.06400000303983688, 1.008000047877431, 0.0, 0.0, 0.0, 0.0, 0.0, 1.7054298536465476E9, 0.0, 2024-01-16 13:30:53.646
14.0, -91.43307411670685, -233.13040363788605, -202.49314320087433, 284.59142702817917, 0.09600000455975533, -0.06400000303983688, 1.008000047877431, 0.0, 0.0, 0.0, 0.0, 0.0, 1.7054298536465476E9, 0.0, 2024-01-16 13:30:53.646
15.0, 4.787071943283081, -80.66216224431992, -89.27889174222946, 395.4121425151825, 0.09600000455975533, -0.06400000303983688, 1.008000047877431, 0.0, 0.0, 0.0, 0.0, 0.0, 1.7054298536622148E9, 0.0, 2024-01-16 13:30:53.662
15.0, 25.37148129940033, -93.10854929685593, -84.73117339611053, 439.692557990551, 0.09600000455975533, -0.06400000303983688, 1.008000047877431, 0.0, 0.0, 0.0, 0.0, 0.0, 1.7054298536622148E9, 0.0, 2024-01-16 13:30:53.662
16.0, -72.52413994073868, -223.79561334848404, -192.44029211997986, 322.8880025744438, 0.09600000455975533, -0.06400000303983688, 1.008000047877431, 0.0, 0.0, 0.0, 0.0, 0.0, 1.70542985366297E9, 0.0, 2024-01-16 13:30:53.662
16.0, -29.44049245119095, -127.33611369132996, -120.15550577640533, 374.34902596473694, 0.09600000455975533, -0.06400000303983688, 1.008000047877431, 0.0, 0.0, 0.0, 0.0, 0.0, 1.70542985366297E9, 0.0, 2024-01-16 13:30:53.662
17.0, 50.503609001636505, -38.29657554626465, -57.44486331939697, 453.0963594317436, 0.09600000455975533, -0.06400000303983688, 1.008000047877431, 0.0, 0.0, 0.0, 0.0, 0.0, 1.7054298536766636E9, 0.0, 2024-01-16 13:30:53.676
17.0, -44.75912266969681, -197.70607125759125, -168.50493240356445, 340.1214615702629, 0.09600000455975533, -0.06400000303983688, 1.008000047877431, 0.0, 0.0, 0.0, 0.0, 0.0, 1.7054298536766636E9, 0.0, 2024-01-16 13:30:53.676
18.0, -76.11444389820099, -197.22736406326294, -167.06881082057953, 320.4944666028023, 0.09600000455975533, -0.06400000303983688, 1.008000047877431, 0.0, 0.0, 0.0, 0.0, 0.0, 1.705429853692551E9, 0.0, 2024-01-16 13:30:53.692
18.0, 39.253989934921265, -40.92946511507034, -56.72680252790451, 450.4634698629379, 0.09600000455975533, -0.06400000303983688, 1.008000047877431, 0.0, 0.0, 0.0, 0.0, 0.0, 1.705429853692551E9, 0.0, 2024-01-16 13:30:53.692
19.0, -11.488972663879395, -150.0747054219246, -136.67090398073196, 382.00834107398987, 0.09600000455975533, -0.06400000303983688, 1.008000047877431, 0.0, 0.0, 0.0, 0.0, 0.0, 1.7054298536929007E9, 0.0, 2024-01-16 13:30:53.692
19.0, -87.60341656208038, -219.2478950023651, -191.00417053699493, 310.68096911907196, 0.09600000455975533, -0.06400000303983688, 1.008000047877431, 0.0, 0.0, 0.0, 0.0, 0.0, 1.7054298536929007E9, 0.0, 2024-01-16 13:30:53.692
20.0, 19.148287773132324, -67.49771440029144, -84.73117339611053, 416.95396625995636, 0.09600000455975533, -0.06400000303983688, 1.008000047877431, 0.0, 0.0, 0.0, 0.0, 0.0, 1.7054298537067E9, 0.0, 2024-01-16 13:30:53.706
20.0, 39.49334353208542, -84.25246620178223, -90.47565972805023, 428.2035853266716, 0.09600000455975533, -0.06400000303983688, 1.008000047877431, 0.0, 0.0, 0.0, 0.0, 0.0, 1.7054298537067E9, 0.0, 2024-01-16 13:30:53.706
21.0, -71.32737195491791, -233.13040363788605, -200.0996072292328, 306.8513115644455, 0.09600000455975533, -0.06400000303983688, 1.008000047877431, 0.0, 0.0, 0.0, 0.0, 0.0, 1.7054298537221425E9, 0.0, 2024-01-16 13:30:53.722
21.0, -37.33916115760803, -137.86767196655273, -122.54904174804688, 373.6309651732445, 0.09600000455975533, -0.06400000303983688, 1.008000047877431, 0.0, 0.0, 0.0, 0.0, 0.0, 1.7054298537221425E9, 0.0, 2024-01-16 13:30:53.722
22.0, 69.17318958044052, -27.286310076713562, -45.237829864025116, 468.8936968445778, 0.11200000531971455, -0.06400000303983688, 1.008000047877431, 0.0, 0.0, 0.0, 0.0, 0.0, 1.705429853722876E9, 0.0, 2024-01-16 13:30:53.722
22.0, -1.4361215829849243, -161.56367808580399, -146.24504786729813, 372.19484359025955, 0.11200000531971455, -0.06400000303983688, 1.008000047877431, 0.0, 0.0, 0.0, 0.0, 0.0, 1.705429853722876E9, 0.0, 2024-01-16 13:30:53.722
23.0, -35.663685977458954, -168.7442860007286, -147.9205230474472, 353.7646166086197, 0.11200000531971455, -0.06400000303983688, 1.008000047877431, 0.0, 0.0, 0.0, 0.0, 0.0, 1.7054298537367585E9, 0.0, 2024-01-16 13:30:53.736
23.0, 107.23041152954102, 15.31863021850586, -22.97794532775879, 482.7762054800987, 0.11200000531971455, -0.06400000303983688, 1.008000047877431, 0.0, 0.0, 0.0, 0.0, 0.0, 1.7054298537367585E9, 0.0, 2024-01-16 13:30:53.736
24.0, 86.64600217342377, -58.64163130521774, -84.73117339611053, 432.2725964784622, 0.11200000531971455, -0.06400000303983688, 1.008000047877431, 0.0, 0.0, 0.0, 0.0, 0.0, 1.7054298537521412E9, 0.0, 2024-01-16 13:30:53.752
24.0, 10.292204678058624, -141.45797592401505, -133.08060002326965, 367.40777164697647, 0.11200000531971455, -0.06400000303983688, 1.008000047877431, 0.0, 0.0, 0.0, 0.0, 0.0, 1.7054298537521412E9, 0.0, 2024-01-16 13:30:53.752
25.0, 131.64447844028473, 29.679846048355103, -4.308364748954773, 486.84521663188934, 0.11200000531971455, -0.06400000303983688, 1.008000047877431, 0.0, 0.0, 0.0, 0.0, 0.0, 1.7054298537528844E9, 0.0, 2024-01-16 13:30:53.752
25.0, 175.92489391565323, 49.06748741865158, -3.1115967631340027, 498.81289649009705, 0.11200000531971455, -0.06400000303983688, 1.008000047877431, 0.0, 0.0, 0.0, 0.0, 0.0, 1.7054298537528844E9, 0.0, 2024-01-16 13:30:53.752
26.0, 65.58288562297821, -94.3053172826767, -101.48592519760132, 390.1463633775711, 0.11200000531971455, -0.06400000303983688, 1.008000047877431, 0.0, 0.0, 0.0, 0.0, 0.0, 1.7054298537664645E9, 0.0, 2024-01-16 13:30:53.766
26.0, 135.23478239774704, 16.994105398654938, 1.9148287773132324, 477.031719148159, 0.11200000531971455, -0.06400000303983688, 1.008000047877431, 0.0, 0.0, 0.0, 0.0, 0.0, 1.7054298537664645E9, 0.0, 2024-01-16 13:30:53.766
27.0, 222.12013816833496, 112.97489786148071, 52.65779137611389, 549.0771518945694, 0.11200000531971455, -0.06400000303983688, 1.008000047877431, 0.0, 0.0, 0.0, 0.0, 0.0, 1.7054298537823076E9, 0.0, 2024-01-16 13:30:53.782
27.0, 135.71348959207535, -28.722431659698486, -46.434597849845886, 447.5912266969681, 0.11200000531971455, -0.06400000303983688, 1.008000047877431, 0.0, 0.0, 0.0, 0.0, 0.0, 1.7054298537823076E9, 0.0, 2024-01-16 13:30:53.782
28.0, 113.21425145864487, -21.541823744773865, -33.03079640865326, 451.89959144592285, 0.11200000531971455, -0.06400000303983688, 1.008000047877431, 0.0, 0.0, 0.0, 0.0, 0.0, 1.7054298537829232E9, 0.0, 2024-01-16 13:30:53.782
28.0, 215.89694464206696, 123.9851633310318, 54.572620153427124, 543.5720191597939, 0.11200000531971455, -0.06400000303983688, 1.008000047877431, 0.0, 0.0, 0.0, 0.0, 0.0, 1.7054298537829232E9, 0.0, 2024-01-16 13:30:53.782
29.0, 175.20683312416077, 28.96178525686264, -13.403801441192627, 487.32392382621765, 0.11200000531971455, -0.06400000303983688, 1.008000047877431, 0.0, 0.0, 0.0, 0.0, 0.0, 1.7054298537965095E9, 0.0, 2024-01-16 13:30:53.796
29.0, 83.53440541028976, -70.36995756626129, -85.68858778476715, 380.8115730881691, 0.11200000531971455, -0.06400000303983688, 1.008000047877431, 0.0, 0.0, 0.0, 0.0, 0.0, 1.7054298537965095E9, 0.0, 2024-01-16 13:30:53.796
30.0, 165.6326892375946, 74.67832231521606, 19.38764137029648, 507.19027239084244, 0.11200000531971455, -0.06400000303983688, 1.008000047877431, 0.0, 0.0, 0.0, 0.0, 0.0, 1.705429853812236E9, 0.0, 2024-01-16 13:30:53.812
30.0, 170.41976118087769, 42.60494029521942, -1.1967679858207703, 522.03019541502, 0.11200000531971455, -0.06400000303983688, 1.008000047877431, 0.0, 0.0, 0.0, 0.0, 0.0, 1.705429853812236E9, 0.0, 2024-01-16 13:30:53.812
31.0, 45.716537058353424, -116.80455541610718, -113.21425145864487, 392.06119215488434, 0.11200000531971455, -0.06400000303983688, 1.008000047877431, 0.0, 0.0, 0.0, 0.0, 0.0, 1.7054298538130314E9, 0.0, 2024-01-16 13:30:53.813
31.0, 77.55056548118591, -23.69600611925125, -54.093912959098816, 436.1022540330887, 0.11200000531971455, -0.06400000303983688, 1.008000047877431, 0.0, 0.0, 0.0, 0.0, 0.0, 1.7054298538130314E9, 0.0, 2024-01-16 13:30:53.813
32.0, 139.5431471467018, 38.77528274059296, -6.9412543177604675, 505.03609001636505, 0.11200000531971455, -0.06400000303983688, 1.008000047877431, 0.0, 0.0, 0.0, 0.0, 0.0, 1.7054298538265264E9, 0.0, 2024-01-16 13:30:53.826
32.0, 26.08954209089279, -128.77223527431488, -123.02774894237518, 388.7102417945862, 0.11200000531971455, -0.06400000303983688, 1.008000047877431, 0.0, 0.0, 0.0, 0.0, 0.0, 1.7054298538265264E9, 0.0, 2024-01-16 13:30:53.826
33.0, -10.770911872386932, -131.40512484312057, -123.9851633310318, 352.5678486227989, 0.11200000531971455, -0.06400000303983688, 1.008000047877431, 0.0, 0.0, 0.0, 0.0, 0.0, 1.7054298538421552E9, 0.0, 2024-01-16 13:30:53.842
33.0, 98.61368203163147, 21.541823744773865, -24.653420507907867, 473.68076878786087, 0.11200000531971455, -0.06400000303983688, 1.008000047877431, 0.0, 0.0, 0.0, 0.0, 0.0, 1.7054298538421552E9, 0.0, 2024-01-16 13:30:53.842
34.0, 34.466917991638184, -95.74143886566162, -118.00132340192795, 397.5663248896599, 0.11200000531971455, -0.06400000303983688, 1.008000047877431, 0.0, 0.0, 0.0, 0.0, 0.0, 1.7054298538428967E9, 0.0, 2024-01-16 13:30:53.842
34.0, -61.03516727685928, -196.03059607744217, -177.36101549863815, 308.04807955026627, 0.11200000531971455, -0.06400000303983688, 1.008000047877431, 0.0, 0.0, 0.0, 0.0, 0.0, 1.7054298538428967E9, 0.0, 2024-01-16 13:30:53.842
35.0, 24.89277410507202, -50.74296259880066, -74.43896871805191, 420.54427021741867, 0.11200000531971455, -0.06400000303983688, 1.008000047877431, 0.0, 0.0, 0.0, 0.0, 0.0, 1.7054298538730807E9, 0.0, 2024-01-16 13:30:53.873
35.0, 38.77528274059296, -75.39638310670853, -88.08212375640869, 437.29902201890945, 0.11200000531971455, -0.06400000303983688, 1.008000047877431, 0.0, 0.0, 0.0, 0.0, 0.0, 1.7054298538730807E9, 0.0, 2024-01-16 13:30:53.873
36.0, -88.80018454790115, -235.04523241519928, -202.25378960371017, 299.6707036495209, 0.11200000531971455, -0.06400000303983688, 1.008000047877431, 0.0, 0.0, 0.0, 0.0, 0.0, 1.7054298538737597E9, 0.0, 2024-01-16 13:30:53.873
36.0, -52.41843777894974, -147.20246225595474, -127.81482088565826, 365.97165006399155, 0.11200000531971455, -0.06400000303983688, 1.008000047877431, 0.0, 0.0, 0.0, 0.0, 0.0, 1.7054298538737597E9, 0.0, 2024-01-16 13:30:53.873
37.0, 35.184978783130646, -50.98231619596481, -84.01311260461807, 434.9054860472679, 0.11200000531971455, -0.06400000303983688, 1.008000047877431, 0.0, 0.0, 0.0, 0.0, 0.0, 1.7054298538746061E9, 0.0, 2024-01-16 13:30:53.874
37.0, -64.38611763715744, -215.41823744773865, -192.679645717144, 320.2551130056381, 0.11200000531971455, -0.06400000303983688, 1.008000047877431, 0.0, 0.0, 0.0, 0.0, 0.0, 1.7054298538746061E9, 0.0, 2024-01-16 13:30:53.874
38.0, -92.15113490819931, -203.2112039923668, -174.72812592983246, 319.7764058113098, 0.11200000531971455, -0.06400000303983688, 1.008000047877431, 0.0, 0.0, 0.0, 0.0, 0.0, 1.7054298538864546E9, 0.0, 2024-01-16 13:30:53.886
38.0, 13.643155038356781, -63.66805684566498, -68.2157751917839, 438.7351436018944, 0.11200000531971455, -0.06400000303983688, 1.008000047877431, 0.0, 0.0, 0.0, 0.0, 0.0, 1.7054298538864546E9, 0.0, 2024-01-16 13:30:53.886
39.0, -34.70627158880234, -167.06881082057953, -154.86177736520767, 371.9554899930954, 0.11200000531971455, -0.06400000303983688, 1.008000047877431, 0.0, 0.0, 0.0, 0.0, 0.0, 1.7054298539022045E9, 0.0, 2024-01-16 13:30:53.902
39.0, -114.65037304162979, -248.92774105072021, -208.47698312997818, 288.89979177713394, 0.11200000531971455, -0.06400000303983688, 1.008000047877431, 0.0, 0.0, 0.0, 0.0, 0.0, 1.7054298539022045E9, 0.0, 2024-01-16 13:30:53.902
40.0, -20.823762953281403, -103.1614003777504, -89.51824533939362, 409.0552975535393, 0.11200000531971455, -0.06400000303983688, 1.008000047877431, 0.0, 0.0, 0.0, 0.0, 0.0, 1.7054298539028852E9, 0.0, 2024-01-16 13:30:53.902
40.0, 0.23935359716415405, -109.14524030685425, -107.94847232103348, 418.62944144010544, 0.11200000531971455, -0.06400000303983688, 1.008000047877431, 0.0, 0.0, 0.0, 0.0, 0.0, 1.7054298539028852E9, 0.0, 2024-01-16 13:30:53.902
41.0, -118.2406769990921, -268.3153824210167, -220.20530939102173, 289.1391453742981, 0.11200000531971455, -0.06400000303983688, 1.008000047877431, 0.0, 0.0, 0.0, 0.0, 0.0, 1.7054298539166512E9, 0.0, 2024-01-16 13:30:53.916
41.0, -80.66216224431992, -167.54751801490784, -149.35664463043213, 334.8556824326515, 0.11200000531971455, -0.06400000303983688, 1.008000047877431, 0.0, 0.0, 0.0, 0.0, 0.0, 1.7054298539166512E9, 0.0, 2024-01-16 13:30:53.916
42.0, 0.9574143886566162, -89.27889174222946, -98.13497483730316, 422.21974539756775, 0.09600000455975533, -0.06400000303983688, 1.008000047877431, 0.0, 0.0, 0.0, 0.0, 0.0, 1.7054298539321923E9, 0.0, 2024-01-16 13:30:53.932
42.0, -93.58725649118423, -233.60911083221436, -196.26994967460632, 318.57963782548904, 0.09600000455975533, -0.06400000303983688, 1.008000047877431, 0.0, 0.0, 0.0, 0.0, 0.0, 1.7054298539321923E9, 0.0, 2024-01-16 13:30:53.932
43.0, -112.73554426431656, -224.5136741399765, -189.32869535684586, 301.5855324268341, 0.09600000455975533, -0.06400000303983688, 1.008000047877431, 0.0, 0.0, 0.0, 0.0, 0.0, 1.7054298539328792E9, 0.0, 2024-01-16 13:30:53.932
43.0, -1.9148287773132324, -83.29505181312561, -82.8163446187973, 421.022977411747, 0.09600000455975533, -0.06400000303983688, 1.008000047877431, 0.0, 0.0, 0.0, 0.0, 0.0, 1.7054298539328792E9, 0.0, 2024-01-16 13:30:53.932
44.0, -48.82813382148743, -190.28610974550247, -170.65911477804184, 347.30206948518753, 0.09600000455975533, -0.06400000303983688, 1.008000047877431, 0.0, 0.0, 0.0, 0.0, 0.0, 1.705429853946699E9, 0.0, 2024-01-16 13:30:53.946
44.0, -133.08060002326965, -269.99085760116577, -220.9233701825142, 278.36823350191116, 0.09600000455975533, -0.06400000303983688, 1.008000047877431, 0.0, 0.0, 0.0, 0.0, 0.0, 1.705429853946699E9, 0.0, 2024-01-16 13:30:53.946
45.0, -35.663685977458954, -107.94847232103348, -108.18782591819763, 389.90700978040695, 0.09600000455975533, -0.06400000303983688, 1.008000047877431, 0.0, 0.0, 0.0, 0.0, 0.0, 1.7054298539622533E9, 0.0, 2024-01-16 13:30:53.962
45.0, -26.08954209089279, -140.97926872968674, -121.11292016506195, 392.3005457520485, 0.09600000455975533, -0.06400000303983688, 1.008000047877431, 0.0, 0.0, 0.0, 0.0, 0.0, 1.7054298539622533E9, 0.0, 2024-01-16 13:30:53.962
46.0, -136.19219678640366, -284.352073431015, -237.19941478967667, 278.36823350191116, 0.09600000455975533, -0.06400000303983688, 1.008000047877431, 0.0, 0.0, 0.0, 0.0, 0.0, 1.7054298539629917E9, 0.0, 2024-01-16 13:30:53.962
46.0, -79.46539425849915, -172.09523636102676, -147.4418158531189, 335.0950360298157, 0.09600000455975533, -0.06400000303983688, 1.008000047877431, 0.0, 0.0, 0.0, 0.0, 0.0, 1.7054298539629917E9, 0.0, 2024-01-16 13:30:53.962
47.0, 2.3935359716415405, -84.97052699327469, -87.12470936775208, 429.8790605068207, 0.09600000455975533, -0.06400000303983688, 1.008000047877431, 0.0, 0.0, 0.0, 0.0, 0.0, 1.7054298539767208E9, 0.0, 2024-01-16 13:30:53.976
47.0, -92.62984210252762, -242.46519392728806, -207.04086154699326, 312.83515149354935, 0.09600000455975533, -0.06400000303983688, 1.008000047877431, 0.0, 0.0, 0.0, 0.0, 0.0, 1.7054298539767208E9, 0.0, 2024-01-16 13:30:53.976
48.0, -113.93231225013733, -230.2581604719162, -193.39770650863647, 295.8410460948944, 0.09600000455975533, -0.06400000303983688, 1.008000047877431, 0.0, 0.0, 0.0, 0.0, 0.0, 1.705429853992178E9, 0.0, 2024-01-16 13:30:53.992
48.0, -3.1115967631340027, -73.24220073223114, -77.0718582868576, 421.5016846060753, 0.09600000455975533, -0.06400000303983688, 1.008000047877431, 0.0, 0.0, 0.0, 0.0, 0.0, 1.705429853992178E9, 0.0, 2024-01-16 13:30:53.992
49.0, -50.98231619596481, -172.09523636102676, -159.17014211416245, 368.12583243846893, 0.09600000455975533, -0.06400000303983688, 1.008000047877431, 0.0, 0.0, 0.0, 0.0, 0.0, 1.7054298539929037E9, 0.0, 2024-01-16 13:30:53.992
49.0, -136.4315503835678, -268.3153824210167, -215.89694464206696, 284.352073431015, 0.09600000455975533, -0.06400000303983688, 1.008000047877431, 0.0, 0.0, 0.0, 0.0, 0.0, 1.7054298539929037E9, 0.0, 2024-01-16 13:30:53.992
50.0, -41.40817230939865, -117.04390901327133, -111.77812987565994, 385.83799862861633, 0.09600000455975533, -0.06400000303983688, 1.008000047877431, 0.0, 0.0, 0.0, 0.0, 0.0, 1.7054298540064852E9, 0.0, 2024-01-16 13:30:54.006
50.0, -20.58440935611725, -132.3625392317772, -126.85740649700165, 390.1463633775711, 0.09600000455975533, -0.06400000303983688, 1.008000047877431, 0.0, 0.0, 0.0, 0.0, 0.0, 1.7054298540064852E9, 0.0, 2024-01-16 13:30:54.006
51.0, -134.75607520341873, -285.30948781967163, -240.31101155281067, 264.0070176720619, 0.09600000455975533, -0.06400000303983688, 1.008000047877431, 0.0, 0.0, 0.0, 0.0, 0.0, 1.705429854022467E9, 0.0, 2024-01-16 13:30:54.022
51.0, -75.63573670387268, -157.73402053117752, -148.15987664461136, 356.63685977458954, 0.09600000455975533, -0.06400000303983688, 1.008000047877431, 0.0, 0.0, 0.0, 0.0, 0.0, 1.705429854022467E9, 0.0, 2024-01-16 13:30:54.022
52.0, 6.223193526268005, -78.50797986984253, -90.71501332521439, 436.1022540330887, 0.11200000531971455, -0.06400000303983688, 1.008000047877431, 0.0, 0.0, 0.0, 0.0, 0.0, 1.705429854023E9, 0.0, 2024-01-16 13:30:54.023
52.0, -105.79428994655609, -252.03933781385422, -208.71633672714233, 316.1861018538475, 0.11200000531971455, -0.06400000303983688, 1.008000047877431, 0.0, 0.0, 0.0, 0.0, 0.0, 1.705429854023E9, 0.0, 2024-01-16 13:30:54.023
53.0, -119.19809138774872, -232.41234284639359, -190.52546334266663, 304.6971291899681, 0.11200000531971455, -0.06400000303983688, 1.008000047877431, 0.0, 0.0, 0.0, 0.0, 0.0, 1.705429854036455E9, 0.0, 2024-01-16 13:30:54.036
53.0, -5.026425540447235, -83.29505181312561, -80.18345504999161, 422.4590989947319, 0.11200000531971455, -0.06400000303983688, 1.008000047877431, 0.0, 0.0, 0.0, 0.0, 0.0, 1.705429854036455E9, 0.0, 2024-01-16 13:30:54.036
54.0, -46.19524425268173, -179.7545514702797, -158.45208132266998, 366.45035725831985, 0.11200000531971455, -0.06400000303983688, 1.008000047877431, 0.0, 0.0, 0.0, 0.0, 0.0, 1.7054298540523903E9, 0.0, 2024-01-16 13:30:54.052
54.0, -122.78839534521103, -248.68838745355606, -212.78534787893295, 278.6075870990753, 0.11200000531971455, -0.06400000303983688, 1.008000047877431, 0.0, 0.0, 0.0, 0.0, 0.0, 1.7054298540523903E9, 0.0, 2024-01-16 13:30:54.052
55.0, -28.243724465370178, -101.24657160043716, -107.70911872386932, 390.1463633775711, 0.11200000531971455, -0.06400000303983688, 1.008000047877431, 0.0, 0.0, 0.0, 0.0, 0.0, 1.7054298540531487E9, 0.0, 2024-01-16 13:30:54.053
55.0, -2.8722431659698486, -118.48003059625626, -117.52261620759964, 405.46499359607697, 0.11200000531971455, -0.06400000303983688, 1.008000047877431, 0.0, 0.0, 0.0, 0.0, 0.0, 1.7054298540531487E9, 0.0, 2024-01-16 13:30:54.053
56.0, -117.52261620759964, -272.8631007671356, -222.12013816833496, 279.56500148773193, 0.11200000531971455, -0.06400000303983688, 1.008000047877431, 0.0, 0.0, 0.0, 0.0, 0.0, 1.705429854066511E9, 0.0, 2024-01-16 13:30:54.066
56.0, -75.15702950954437, -171.13782197237015, -146.24504786729813, 356.3975061774254, 0.11200000531971455, -0.06400000303983688, 1.008000047877431, 0.0, 0.0, 0.0, 0.0, 0.0, 1.705429854066511E9, 0.0, 2024-01-16 13:30:54.066
57.0, 17.472812592983246, -80.42280864715576, -76.83250468969345, 439.93191158771515, 0.11200000531971455, -0.06400000303983688, 1.008000047877431, 0.0, 0.0, 0.0, 0.0, 0.0, 1.7054298540821705E9, 0.0, 2024-01-16 13:30:54.082
57.0, -93.82661008834839, -241.7471331357956, -206.56215435266495, 304.93648278713226, 0.11200000531971455, -0.06400000303983688, 1.008000047877431, 0.0, 0.0, 0.0, 0.0, 0.0, 1.7054298540821705E9, 0.0, 2024-01-16 13:30:54.082
58.0, -107.46976512670517, -217.57241982221603, -188.84998816251755, 309.4842011332512, 0.11200000531971455, -0.06400000303983688, 1.008000047877431, 0.0, 0.0, 0.0, 0.0, 0.0, 1.7054298540829172E9, 0.0, 2024-01-16 13:30:54.082
58.0, 5.505132734775543, -71.08801835775375, -78.50797986984253, 433.23001086711884, 0.11200000531971455, -0.06400000303983688, 1.008000047877431, 0.0, 0.0, 0.0, 0.0, 0.0, 1.7054298540829172E9, 0.0, 2024-01-16 13:30:54.082
59.0, -43.80170828104019, -175.44618672132492, -164.19656765460968, 352.0891414284706, 0.11200000531971455, -0.06400000303983688, 1.008000047877431, 0.0, 0.0, 0.0, 0.0, 0.0, 1.7054298540965536E9, 0.0, 2024-01-16 13:30:54.096
59.0, -119.67679858207703, -250.6032162308693, -211.82793349027634, 288.42108458280563, 0.11200000531971455, -0.06400000303983688, 1.008000047877431, 0.0, 0.0, 0.0, 0.0, 0.0, 1.7054298540965536E9, 0.0, 2024-01-16 13:30:54.096
60.0, -18.90893417596817, -101.48592519760132, -107.46976512670517, 387.9921810030937, 0.11200000531971455, -0.06400000303983688, 1.008000047877431, 0.0, 0.0, 0.0, 0.0, 0.0, 1.7054298541122525E9, 0.0, 2024-01-16 13:30:54.112
60.0, -6.7019007205963135, -122.30968815088272, -112.0174834728241, 413.1243087053299, 0.11200000531971455, -0.06400000303983688, 1.008000047877431, 0.0, 0.0, 0.0, 0.0, 0.0, 1.7054298541122525E9, 0.0, 2024-01-16 13:30:54.112
61.0, -120.63421297073364, -271.905686378479, -229.06139248609543, 292.01138854026794, 0.11200000531971455, -0.06400000303983688, 1.008000047877431, 0.0, 0.0, 0.0, 0.0, 0.0, 1.7054298541128938E9, 0.0, 2024-01-16 13:30:54.112
61.0, -68.2157751917839, -159.64884930849075, -142.89409750699997, 356.3975061774254, 0.11200000531971455, -0.06400000303983688, 1.008000047877431, 0.0, 0.0, 0.0, 0.0, 0.0, 1.7054298541128938E9, 0.0, 2024-01-16 13:30:54.112
62.0, 18.669580578804016, -72.52413994073868, -86.88535577058792, 432.9906572699547, 0.09600000455975533, -0.06400000303983688, 1.008000047877431, 0.0, 0.0, 0.0, 0.0, 0.0, 1.7054298541264985E9, 0.0, 2024-01-16 13:30:54.126
62.0, -91.91178131103516, -234.08781802654266, -196.98801046609879, 319.53705221414566, 0.09600000455975533, -0.06400000303983688, 1.008000047877431, 0.0, 0.0, 0.0, 0.0, 0.0, 1.7054298541264985E9, 0.0, 2024-01-16 13:30:54.126
63.0, -100.0498036146164, -213.0247014760971, -179.7545514702797, 321.9305881857872, 0.09600000455975533, -0.06400000303983688, 1.008000047877431, 0.0, 0.0, 0.0, 0.0, 0.0, 1.7054298541421957E9, 0.0, 2024-01-16 13:30:54.142
63.0, 11.010265469551086, -67.7370679974556, -74.43896871805191, 429.8790605068207, 0.09600000455975533, -0.06400000303983688, 1.008000047877431, 0.0, 0.0, 0.0, 0.0, 0.0, 1.7054298541421957E9, 0.0, 2024-01-16 13:30:54.142
64.0, -37.33916115760803, -175.92489391565323, -152.94694858789444, 368.60453963279724, 0.09600000455975533, -0.06400000303983688, 1.008000047877431, 0.0, 0.0, 0.0, 0.0, 0.0, 1.7054298541429288E9, 0.0, 2024-01-16 13:30:54.142
64.0, -115.36843383312225, -246.29485148191452, -209.9131047129631, 295.3623389005661, 0.09600000455975533, -0.06400000303983688, 1.008000047877431, 0.0, 0.0, 0.0, 0.0, 0.0, 1.7054298541429288E9, 0.0, 2024-01-16 13:30:54.142
65.0, -20.58440935611725, -98.37432843446732, -97.89562124013901, 404.2682256102562, 0.09600000455975533, -0.06400000303983688, 1.008000047877431, 0.0, 0.0, 0.0, 0.0, 0.0, 1.7054298541567163E9, 0.0, 2024-01-16 13:30:54.156
65.0, -3.1115967631340027, -114.17166584730148, -123.26710253953934, 397.5663248896599, 0.09600000455975533, -0.06400000303983688, 1.008000047877431, 0.0, 0.0, 0.0, 0.0, 0.0, 1.7054298541567163E9, 0.0, 2024-01-16 13:30:54.156
66.0, -117.04390901327133, -264.2463712692261, -227.6252709031105, 282.4372446537018, 0.09600000455975533, -0.06400000303983688, 1.008000047877431, 0.0, 0.0, 0.0, 0.0, 0.0, 1.705429854172184E9, 0.0, 2024-01-16 13:30:54.172
66.0, -71.08801835775375, -163.71786046028137, -155.10113096237183, 347.78077667951584, 0.09600000455975533, -0.06400000303983688, 1.008000047877431, 0.0, 0.0, 0.0, 0.0, 0.0, 1.705429854172184E9, 0.0, 2024-01-16 13:30:54.172
67.0, 13.882508635520935, -80.66216224431992, -96.69885325431824, 424.134574174881, 0.09600000455975533, -0.06400000303983688, 1.008000047877431, 0.0, 0.0, 0.0, 0.0, 0.0, 1.7054298541728957E9, 0.0, 2024-01-16 13:30:54.172
67.0, -97.65626764297485, -252.51804500818253, -210.87051910161972, 313.79256588220596, 0.09600000455975533, -0.06400000303983688, 1.008000047877431, 0.0, 0.0, 0.0, 0.0, 0.0, 1.7054298541728957E9, 0.0, 2024-01-16 13:30:54.172
68.0, -120.63421297073364, -238.87488996982574, -199.86025363206863, 293.686863720417, 0.09600000455975533, -0.06400000303983688, 1.008000047877431, 0.0, 0.0, 0.0, 0.0, 0.0, 1.7054298541866937E9, 0.0, 2024-01-16 13:30:54.186
68.0, 3.1115967631340027, -78.50797986984253, -87.12470936775208, 419.58685582876205, 0.09600000455975533, -0.06400000303983688, 1.008000047877431, 0.0, 0.0, 0.0, 0.0, 0.0, 1.7054298541866937E9, 0.0, 2024-01-16 13:30:54.186
69.0, -44.99847626686096, -177.6003690958023, -164.675274848938, 358.7910421490669, 0.09600000455975533, -0.06400000303983688, 1.008000047877431, 0.0, 0.0, 0.0, 0.0, 0.0, 1.70542985420219E9, 0.0, 2024-01-16 13:30:54.202
69.0, -119.43744498491287, -251.0819234251976, -200.5783144235611, 308.7661403417587, 0.09600000455975533, -0.06400000303983688, 1.008000047877431, 0.0, 0.0, 0.0, 0.0, 0.0, 1.70542985420219E9, 0.0, 2024-01-16 13:30:54.202
70.0, -26.5682492852211, -101.96463239192963, -99.09238922595978, 409.29465115070343, 0.09600000455975533, -0.06400000303983688, 1.008000047877431, 0.0, 0.0, 0.0, 0.0, 0.0, 1.7054298542029045E9, 0.0, 2024-01-16 13:30:54.202
70.0, -4.308364748954773, -111.29942268133163, -117.7619698047638, 404.50757920742035, 0.09600000455975533, -0.06400000303983688, 1.008000047877431, 0.0, 0.0, 0.0, 0.0, 0.0, 1.7054298542029045E9, 0.0, 2024-01-16 13:30:54.202
71.0, -106.2729971408844, -246.53420507907867, -210.63116550445557, 301.5855324268341, 0.09600000455975533, -0.06400000303983688, 1.008000047877431, 0.0, 0.0, 0.0, 0.0, 0.0, 1.7054298542165225E9, 0.0, 2024-01-16 13:30:54.216
71.0, -68.2157751917839, -151.0321198105812, -140.50056153535843, 358.07298135757446, 0.09600000455975533, -0.06400000303983688, 1.008000047877431, 0.0, 0.0, 0.0, 0.0, 0.0, 1.7054298542165225E9, 0.0, 2024-01-16 13:30:54.216
72.0, 21.541823744773865, -67.25836080312729, -79.94410145282745, 438.7351436018944, 0.09600000455975533, -0.06400000303983688, 1.008000047877431, 0.0, 0.0, 0.0, 0.0, 0.0, 1.7054298542321467E9, 0.0, 2024-01-16 13:30:54.232
72.0, -82.09828382730484, -231.69428205490112, -193.15835291147232, 324.0847705602646, 0.09600000455975533, -0.06400000303983688, 1.008000047877431, 0.0, 0.0, 0.0, 0.0, 0.0, 1.7054298542321467E9, 0.0, 2024-01-16 13:30:54.232
73.0, -92.15113490819931, -206.8015079498291, -173.77071154117584, 320.9731737971306, 0.09600000455975533, -0.06400000303983688, 1.008000047877431, 0.0, 0.0, 0.0, 0.0, 0.0, 1.7054298542328677E9, 0.0, 2024-01-16 13:30:54.232
73.0, 19.626994967460632, -55.05132734775543, -62.949996054172516, 438.25643640756607, 0.09600000455975533, -0.06400000303983688, 1.008000047877431, 0.0, 0.0, 0.0, 0.0, 0.0, 1.7054298542328677E9, 0.0, 2024-01-16 13:30:54.232
74.0, -34.466917991638184, -161.56367808580399, -157.2553133368492, 373.3916115760803, 0.09600000455975533, -0.06400000303983688, 1.008000047877431, 0.0, 0.0, 0.0, 0.0, 0.0, 1.705429854246484E9, 0.0, 2024-01-16 13:30:54.246
74.0, -105.31558275222778, -241.98648673295975, -204.88667917251587, 297.27716767787933, 0.09600000455975533, -0.06400000303983688, 1.008000047877431, 0.0, 0.0, 0.0, 0.0, 0.0, 1.705429854246484E9, 0.0, 2024-01-16 13:30:54.246
75.0, -12.685740649700165, -92.86919569969177, -95.26273167133331, 405.2256399989128, 0.09600000455975533, -0.06400000303983688, 1.008000047877431, 0.0, 0.0, 0.0, 0.0, 0.0, 1.7054298542621691E9, 0.0, 2024-01-16 13:30:54.262
75.0, -4.069011151790619, -115.60778743028641, -115.1290802359581, 406.1830543875694, 0.09600000455975533, -0.06400000303983688, 1.008000047877431, 0.0, 0.0, 0.0, 0.0, 0.0, 1.7054298542621691E9, 0.0, 2024-01-16 13:30:54.262
76.0, -115.60778743028641, -259.9380065202713, -214.93953025341034, 293.44751012325287, 0.09600000455975533, -0.06400000303983688, 1.008000047877431, 0.0, 0.0, 0.0, 0.0, 0.0, 1.7054298542629004E9, 0.0, 2024-01-16 13:30:54.262
76.0, -57.68421691656113, -150.31405901908875, -132.8412464261055, 355.9187989830971, 0.09600000455975533, -0.06400000303983688, 1.008000047877431, 0.0, 0.0, 0.0, 0.0, 0.0, 1.7054298542629004E9, 0.0, 2024-01-16 13:30:54.262
77.0, 30.15855324268341, -65.34353202581406, -69.17318958044052, 450.2241162657738, 0.09600000455975533, -0.06400000303983688, 1.008000047877431, 0.0, 0.0, 0.0, 0.0, 0.0, 1.7054298542766578E9, 0.0, 2024-01-16 13:30:54.276
77.0, -69.41254317760468, -213.74276226758957, -187.65322017669678, 322.8880025744438, 0.09600000455975533, -0.06400000303983688, 1.008000047877431, 0.0, 0.0, 0.0, 0.0, 0.0, 1.7054298542766578E9, 0.0, 2024-01-16 13:30:54.276
78.0, -87.36406296491623, -205.84409356117249, -165.39333564043045, 331.7440856695175, 0.09600000455975533, -0.06400000303983688, 1.008000047877431, 0.0, 0.0, 0.0, 0.0, 0.0, 1.7054298542924545E9, 0.0, 2024-01-16 13:30:54.292
78.0, 22.020530939102173, -56.2480953335762, -61.753228068351746, 449.74540907144547, 0.09600000455975533, -0.06400000303983688, 1.008000047877431, 0.0, 0.0, 0.0, 0.0, 0.0, 1.7054298542924545E9, 0.0, 2024-01-16 13:30:54.292
79.0, -29.44049245119095, -155.8191917538643, -134.03801441192627, 388.94959539175034, 0.09600000455975533, -0.06400000303983688, 1.008000047877431, 0.0, 0.0, 0.0, 0.0, 0.0, 1.7054298542929132E9, 0.0, 2024-01-16 13:30:54.292
79.0, -108.66653311252594, -238.15682917833328, -201.0570216178894, 302.0642396211624, 0.09600000455975533, -0.06400000303983688, 1.008000047877431, 0.0, 0.0, 0.0, 0.0, 0.0, 1.7054298542929132E9, 0.0, 2024-01-16 13:30:54.292
80.0, -13.882508635520935, -91.1937205195427, -89.51824533939362, 408.57659035921097, 0.09600000455975533, -0.06400000303983688, 1.008000047877431, 0.0, 0.0, 0.0, 0.0, 0.0, 1.7054298543064861E9, 0.0, 2024-01-16 13:30:54.306
80.0, 8.377375900745392, -107.70911872386932, -98.85303562879562, 418.3900878429413, 0.09600000455975533, -0.06400000303983688, 1.008000047877431, 0.0, 0.0, 0.0, 0.0, 0.0, 1.7054298543064861E9, 0.0, 2024-01-16 13:30:54.306
81.0, -103.40075397491455, -252.27869141101837, -209.67375111579895, 300.6281180381775, 0.09600000455975533, -0.06400000303983688, 1.008000047877431, 0.0, 0.0, 0.0, 0.0, 0.0, 1.7054298543224041E9, 0.0, 2024-01-16 13:30:54.322
81.0, -51.700376987457275, -140.97926872968674, -136.91025757789612, 361.9026389122009, 0.09600000455975533, -0.06400000303983688, 1.008000047877431, 0.0, 0.0, 0.0, 0.0, 0.0, 1.7054298543224041E9, 0.0, 2024-01-16 13:30:54.322
82.0, 23.217298924922943, -53.61520576477051, -86.88535577058792, 416.7146126627922, 0.11200000531971455, -0.06400000303983688, 1.008000047877431, 0.0, 0.0, 0.0, 0.0, 0.0, 1.7054298543228936E9, 0.0, 2024-01-16 13:30:54.322
82.0, -84.01311260461807, -237.19941478967667, -198.4241320490837, 321.4518809914589, 0.11200000531971455, -0.06400000303983688, 1.008000047877431, 0.0, 0.0, 0.0, 0.0, 0.0, 1.7054298543228936E9, 0.0, 2024-01-16 13:30:54.322
83.0, -91.43307411670685, -204.1686183810234, -174.9674795269966, 330.06861048936844, 0.11200000531971455, -0.06400000303983688, 1.008000047877431, 0.0, 0.0, 0.0, 0.0, 0.0, 1.7054298543365324E9, 0.0, 2024-01-16 13:30:54.336
83.0, 27.286310076713562, -48.58878022432327, -53.85455936193466, 455.250541806221, 0.11200000531971455, -0.06400000303983688, 1.008000047877431, 0.0, 0.0, 0.0, 0.0, 0.0, 1.7054298543365324E9, 0.0, 2024-01-16 13:30:54.336
84.0, -27.76501727104187, -168.02622520923615, -151.51082700490952, 369.56195402145386, 0.11200000531971455, -0.06400000303983688, 1.008000047877431, 0.0, 0.0, 0.0, 0.0, 0.0, 1.7054298543521607E9, 0.0, 2024-01-16 13:30:54.352
84.0, -106.75170433521271, -236.4813539981842, -205.60473996400833, 297.9952284693718, 0.11200000531971455, -0.06400000303983688, 1.008000047877431, 0.0, 0.0, 0.0, 0.0, 0.0, 1.7054298543521607E9, 0.0, 2024-01-16 13:30:54.352
85.0, -9.095436692237854, -87.60341656208038, -80.66216224431992, 415.51784467697144, 0.11200000531971455, -0.06400000303983688, 1.008000047877431, 0.0, 0.0, 0.0, 0.0, 0.0, 1.7054298543528676E9, 0.0, 2024-01-16 13:30:54.352
85.0, 1.1967679858207703, -115.36843383312225, -104.83687555789948, 420.3049166202545, 0.11200000531971455, -0.06400000303983688, 1.008000047877431, 0.0, 0.0, 0.0, 0.0, 0.0, 1.7054298543528676E9, 0.0, 2024-01-16 13:30:54.352
86.0, -100.5285108089447, -243.18325471878052, -206.56215435266495, 292.96880292892456, 0.11200000531971455, -0.06400000303983688, 1.008000047877431, 0.0, 0.0, 0.0, 0.0, 0.0, 1.7054298543667133E9, 0.0, 2024-01-16 13:30:54.366
86.0, -50.0249018073082, -146.00569427013397, -122.78839534521103, 374.5883795619011, 0.11200000531971455, -0.06400000303983688, 1.008000047877431, 0.0, 0.0, 0.0, 0.0, 0.0, 1.7054298543667133E9, 0.0, 2024-01-16 13:30:54.366
87.0, 17.233458995819092, -72.04543274641037, -72.52413994073868, 455.48989540338516, 0.11200000531971455, -0.06400000303983688, 1.008000047877431, 0.0, 0.0, 0.0, 0.0, 0.0, 1.7054298543822143E9, 0.0, 2024-01-16 13:30:54.382
87.0, -85.20988059043884, -223.79561334848404, -200.0996072292328, 325.76024574041367, 0.11200000531971455, -0.06400000303983688, 1.008000047877431, 0.0, 0.0, 0.0, 0.0, 0.0, 1.7054298543822143E9, 0.0, 2024-01-16 13:30:54.382
88.0, -85.449234187603, -194.11576730012894, -176.40360110998154, 320.73382019996643, 0.11200000531971455, -0.06400000303983688, 1.008000047877431, 0.0, 0.0, 0.0, 0.0, 0.0, 1.7054298543971329E9, 0.0, 2024-01-16 13:30:54.397
88.0, 19.626994967460632, -54.33326655626297, -74.43896871805191, 437.0596684217453, 0.11200000531971455, -0.06400000303983688, 1.008000047877431, 0.0, 0.0, 0.0, 0.0, 0.0, 1.7054298543971329E9, 0.0, 2024-01-16 13:30:54.397
89.0, -33.74885720014572, -172.57394355535507, -152.94694858789444, 365.49294286966324, 0.11200000531971455, -0.06400000303983688, 1.008000047877431, 0.0, 0.0, 0.0, 0.0, 0.0, 1.705429854397914E9, 0.0, 2024-01-16 13:30:54.397
89.0, -98.61368203163147, -236.0026468038559, -197.4667176604271, 287.22431659698486, 0.11200000531971455, -0.06400000303983688, 1.008000047877431, 0.0, 0.0, 0.0, 0.0, 0.0, 1.705429854397914E9, 0.0, 2024-01-16 13:30:54.397
90.0, -12.207033455371857, -94.3053172826767, -92.86919569969177, 413.1243087053299, 0.11200000531971455, -0.06400000303983688, 1.008000047877431, 0.0, 0.0, 0.0, 0.0, 0.0, 1.705429854427868E9, 0.0, 2024-01-16 13:30:54.427
90.0, 8.138022303581238, -107.23041152954102, -98.85303562879562, 432.7513036727905, 0.11200000531971455, -0.06400000303983688, 1.008000047877431, 0.0, 0.0, 0.0, 0.0, 0.0, 1.705429854427868E9, 0.0, 2024-01-16 13:30:54.427
91.0, -104.59752196073532, -247.73097306489944, -207.75892233848572, 302.5429468154907, 0.11200000531971455, -0.06400000303983688, 1.008000047877431, 0.0, 0.0, 0.0, 0.0, 0.0, 1.7054298544286327E9, 0.0, 2024-01-16 13:30:54.428
91.0, -59.59904569387436, -153.6650093793869, -135.23478239774704, 365.97165006399155, 0.11200000531971455, -0.06400000303983688, 1.008000047877431, 0.0, 0.0, 0.0, 0.0, 0.0, 1.7054298544286327E9, 0.0, 2024-01-16 13:30:54.428
92.0, 17.472812592983246, -76.5931510925293, -91.43307411670685, 431.7938892841339, 0.11200000531971455, -0.06400000303983688, 1.008000047877431, 0.0, 0.0, 0.0, 0.0, 0.0, 1.705429854429376E9, 0.0, 2024-01-16 13:30:54.429
92.0, -82.57699102163315, -222.83819895982742, -193.63706010580063, 320.73382019996643, 0.11200000531971455, -0.06400000303983688, 1.008000047877431, 0.0, 0.0, 0.0, 0.0, 0.0, 1.705429854429376E9, 0.0, 2024-01-16 13:30:54.429
93.0, -87.84277015924454, -210.15245831012726, -175.92489391565323, 324.80283135175705, 0.11200000531971455, -0.06400000303983688, 1.008000047877431, 0.0, 0.0, 0.0, 0.0, 0.0, 1.7054298544426105E9, 0.0, 2024-01-16 13:30:54.442
93.0, 32.55208921432495, -48.110073029994965, -60.07775288820267, 456.68666338920593, 0.11200000531971455, -0.06400000303983688, 1.008000047877431, 0.0, 0.0, 0.0, 0.0, 0.0, 1.7054298544426105E9, 0.0, 2024-01-16 13:30:54.442
94.0, -27.525663673877716, -161.56367808580399, -156.53725254535675, 365.2535892724991, 0.11200000531971455, -0.06400000303983688, 1.008000047877431, 0.0, 0.0, 0.0, 0.0, 0.0, 1.7054298544429808E9, 0.0, 2024-01-16 13:30:54.442
94.0, -102.20398598909378, -237.67812198400497, -188.13192737102509, 304.2184219956398, 0.11200000531971455, -0.06400000303983688, 1.008000047877431, 0.0, 0.0, 0.0, 0.0, 0.0, 1.7054298544429808E9, 0.0, 2024-01-16 13:30:54.442
95.0, -7.898668706417084, -83.29505181312561, -87.12470936775208, 416.2359054684639, 0.11200000531971455, -0.06400000303983688, 1.008000047877431, 0.0, 0.0, 0.0, 0.0, 0.0, 1.70542985445647E9, 0.0, 2024-01-16 13:30:54.456
95.0, 15.31863021850586, -98.13497483730316, -100.0498036146164, 426.28875654935837, 0.11200000531971455, -0.06400000303983688, 1.008000047877431, 0.0, 0.0, 0.0, 0.0, 0.0, 1.70542985445647E9, 0.0, 2024-01-16 13:30:54.456
96.0, -84.49181979894638, -225.23173493146896, -195.55188888311386, 316.90416264533997, 0.11200000531971455, -0.06400000303983688, 1.008000047877431, 0.0, 0.0, 0.0, 0.0, 0.0, 1.7054298544722097E9, 0.0, 2024-01-16 13:30:54.472
96.0, -43.32300108671188, -134.03801441192627, -124.94257771968842, 376.26385474205017, 0.11200000531971455, -0.06400000303983688, 1.008000047877431, 0.0, 0.0, 0.0, 0.0, 0.0, 1.7054298544722097E9, 0.0, 2024-01-16 13:30:54.472
97.0, 36.381746768951416, -64.86482483148575, -71.08801835775375, 452.85700583457947, 0.11200000531971455, -0.06400000303983688, 1.008000047877431, 0.0, 0.0, 0.0, 0.0, 0.0, 1.7054298544729173E9, 0.0, 2024-01-16 13:30:54.472
97.0, -59.59904569387436, -212.5459942817688, -183.8235626220703, 336.77051120996475, 0.11200000531971455, -0.06400000303983688, 1.008000047877431, 0.0, 0.0, 0.0, 0.0, 0.0, 1.7054298544729173E9, 0.0, 2024-01-16 13:30:54.472
98.0, -78.74733346700668, -197.4667176604271, -170.41976118087769, 320.2551130056381, 0.11200000531971455, -0.06400000303983688, 1.008000047877431, 0.0, 0.0, 0.0, 0.0, 0.0, 1.7054298544868617E9, 0.0, 2024-01-16 13:30:54.486
98.0, 35.184978783130646, -45.716537058353424, -56.966156125068665, 448.30928748846054, 0.11200000531971455, -0.06400000303983688, 1.008000047877431, 0.0, 0.0, 0.0, 0.0, 0.0, 1.7054298544868617E9, 0.0, 2024-01-16 13:30:54.486
99.0, -26.08954209089279, -159.4094957113266, -144.56957268714905, 380.3328658938408, 0.11200000531971455, -0.06400000303983688, 1.008000047877431, 0.0, 0.0, 0.0, 0.0, 0.0, 1.7054298545014932E9, 0.0, 2024-01-16 13:30:54.501
99.0, -109.3845939040184, -241.98648673295975, -200.33896082639694, 299.19199645519257, 0.11200000531971455, -0.06400000303983688, 1.008000047877431, 0.0, 0.0, 0.0, 0.0, 0.0, 1.7054298545014932E9, 0.0, 2024-01-16 13:30:54.501
0.0, 15.557983815670013, -100.76786440610886, -100.28915721178055, 427.48552453517914, 0.11200000531971455, -0.06400000303983688, 1.008000047877431, 0.0, 0.0, 0.0, 0.0, 0.0, 1.7054298545171876E9, 0.0, 2024-01-16 13:30:54.517
0.0, -95.98079246282578, -248.92774105072021, -205.84409356117249, 301.82488602399826, 0.11200000531971455, -0.06400000303983688, 1.008000047877431, 0.0, 0.0, 0.0, 0.0, 0.0, 1.7054298545171876E9, 0.0, 2024-01-16 13:30:54.517
1.0, -42.36558669805527, -140.02185434103012, -134.27736800909042, 359.74845653772354, 0.11200000531971455, -0.06400000303983688, 1.008000047877431, 0.0, 0.0, 0.0, 0.0, 0.0, 1.705429854517903E9, 0.0, 2024-01-16 13:30:54.517
1.0, 28.004370868206024, -68.45512878894806, -64.38611763715744, 456.9260169863701, 0.11200000531971455, -0.06400000303983688, 1.008000047877431, 0.0, 0.0, 0.0, 0.0, 0.0, 1.705429854517903E9, 0.0, 2024-01-16 13:30:54.517
2.0, -72.52413994073868, -218.05112701654434, -182.14808744192123, 337.72792559862137, 0.11200000531971455, -0.06400000303983688, 1.008000047877431, 0.0, 0.0, 0.0, 0.0, 0.0, 1.7054298545318692E9, 0.0, 2024-01-16 13:30:54.531
2.0, -82.09828382730484, -191.2435241341591, -170.898468375206, 324.80283135175705, 0.11200000531971455, -0.06400000303983688, 1.008000047877431, 0.0, 0.0, 0.0, 0.0, 0.0, 1.7054298545318692E9, 0.0, 2024-01-16 13:30:54.531
3.0, 29.679846048355103, -50.0249018073082, -61.9925816655159, 444.9583371281624, 0.11200000531971455, -0.06400000303983688, 1.008000047877431, 0.0, 0.0, 0.0, 0.0, 0.0, 1.7054298545471747E9, 0.0, 2024-01-16 13:30:54.547
3.0, -26.08954209089279, -151.75018060207367, -148.15987664461136, 375.0670867562294, 0.11200000531971455, -0.06400000303983688, 1.008000047877431, 0.0, 0.0, 0.0, 0.0, 0.0, 1.7054298545471747E9, 0.0, 2024-01-16 13:30:54.547
4.0, -86.88535577058792, -224.0349669456482, -176.40360110998154, 330.06861048936844, 0.11200000531971455, -0.06400000303983688, 1.008000047877431, 0.0, 0.0, 0.0, 0.0, 0.0, 1.7054298545479145E9, 0.0, 2024-01-16 13:30:54.547
4.0, 0.7180607914924622, -81.14086943864822, -84.25246620178223, 418.62944144010544, 0.11200000531971455, -0.06400000303983688, 1.008000047877431, 0.0, 0.0, 0.0, 0.0, 0.0, 1.7054298545479145E9, 0.0, 2024-01-16 13:30:54.547
5.0, 21.541823744773865, -89.75759893655777, -99.81045001745224, 420.54427021741867, 0.11200000531971455, -0.06400000303983688, 1.008000047877431, 0.0, 0.0, 0.0, 0.0, 0.0, 1.7054298545615077E9, 0.0, 2024-01-16 13:30:54.561
5.0, -96.22014605998993, -239.83230435848236, -193.63706010580063, 313.31385868787766, 0.11200000531971455, -0.06400000303983688, 1.008000047877431, 0.0, 0.0, 0.0, 0.0, 0.0, 1.7054298545615077E9, 0.0, 2024-01-16 13:30:54.561
6.0, -36.860453963279724, -123.50645613670349, -110.10265469551086, 384.64123064279556, 0.11200000531971455, -0.06400000303983688, 1.008000047877431, 0.0, 0.0, 0.0, 0.0, 0.0, 1.7054298545773673E9, 0.0, 2024-01-16 13:30:54.577
6.0, 48.110073029994965, -40.69011151790619, -56.00874173641205, 461.23438173532486, 0.11200000531971455, -0.06400000303983688, 1.008000047877431, 0.0, 0.0, 0.0, 0.0, 0.0, 1.7054298545773673E9, 0.0, 2024-01-16 13:30:54.577
7.0, -52.897144973278046, -196.74865686893463, -172.33458995819092, 346.10530149936676, 0.11200000531971455, -0.06400000303983688, 1.008000047877431, 0.0, 0.0, 0.0, 0.0, 0.0, 1.7054298545779097E9, 0.0, 2024-01-16 13:30:54.577
7.0, -70.36995756626129, -186.21709859371185, -162.28173887729645, 338.2066327929497, 0.11200000531971455, -0.06400000303983688, 1.008000047877431, 0.0, 0.0, 0.0, 0.0, 0.0, 1.7054298545779097E9, 0.0, 2024-01-16 13:30:54.577
8.0, 49.306841015815735, -35.90303957462311, -53.61520576477051, 451.89959144592285, 0.11200000531971455, -0.06400000303983688, 1.008000047877431, 0.0, 0.0, 0.0, 0.0, 0.0, 1.7054298545915205E9, 0.0, 2024-01-16 13:30:54.591
8.0, -18.190873384475708, -154.86177736520767, -147.4418158531189, 370.9980756044388, 0.11200000531971455, -0.06400000303983688, 1.008000047877431, 0.0, 0.0, 0.0, 0.0, 0.0, 1.7054298545915205E9, 0.0, 2024-01-16 13:30:54.591
9.0, -101.72527879476547, -236.9600611925125, -198.66348564624786, 304.45777559280396, 0.11200000531971455, -0.06400000303983688, 1.008000047877431, 0.0, 0.0, 0.0, 0.0, 0.0, 1.705429854607567E9, 0.0, 2024-01-16 13:30:54.607
9.0, -7.65931510925293, -85.449234187603, -85.449234187603, 416.2359054684639, 0.11200000531971455, -0.06400000303983688, 1.008000047877431, 0.0, 0.0, 0.0, 0.0, 0.0, 1.705429854607567E9, 0.0, 2024-01-16 13:30:54.607
10.0, 9.334790289402008, -98.61368203163147, -111.77812987565994, 408.3372367620468, 0.11200000531971455, -0.06400000303983688, 1.008000047877431, 0.0, 0.0, 0.0, 0.0, 0.0, 1.705429854608128E9, 0.0, 2024-01-16 13:30:54.608
10.0, -97.4169140458107, -244.8587298989296, -199.62090003490448, 306.13325077295303, 0.11200000531971455, -0.06400000303983688, 1.008000047877431, 0.0, 0.0, 0.0, 0.0, 0.0, 1.705429854608128E9, 0.0, 2024-01-16 13:30:54.608
11.0, -34.94562518596649, -131.40512484312057, -125.89999210834503, 373.3916115760803, 0.11200000531971455, -0.06400000303983688, 1.008000047877431, 0.0, 0.0, 0.0, 0.0, 0.0, 1.70542985462149E9, 0.0, 2024-01-16 13:30:54.621
11.0, 40.69011151790619, -58.8809849023819, -75.63573670387268, 446.63381230831146, 0.11200000531971455, -0.06400000303983688, 1.008000047877431, 0.0, 0.0, 0.0, 0.0, 0.0, 1.70542985462149E9, 0.0, 2024-01-16 13:30:54.621
12.0, -63.428703248500824, -213.74276226758957, -196.98801046609879, 320.2551130056381, 0.09600000455975533, -0.06400000303983688, 1.008000047877431, 0.0, 0.0, 0.0, 0.0, 0.0, 1.705429854637226E9, 0.0, 2024-01-16 13:30:54.637
12.0, -63.90741044282913, -171.3771755695343, -150.31405901908875, 343.9511191248894, 0.09600000455975533, -0.06400000303983688, 1.008000047877431, 0.0, 0.0, 0.0, 0.0, 0.0, 1.705429854637226E9, 0.0, 2024-01-16 13:30:54.637
13.0, 34.70627158880234, -51.700376987457275, -50.98231619596481, 455.48989540338516, 0.09600000455975533, -0.06400000303983688, 1.008000047877431, 0.0, 0.0, 0.0, 0.0, 0.0, 1.7054298546378963E9, 0.0, 2024-01-16 13:30:54.637
13.0, -22.97794532775879, -158.9307885169983, -143.37280470132828, 386.79541301727295, 0.09600000455975533, -0.06400000303983688, 1.008000047877431, 0.0, 0.0, 0.0, 0.0, 0.0, 1.7054298546378963E9, 0.0, 2024-01-16 13:30:54.637
14.0, -92.62984210252762, -226.18914932012558, -190.04675614833832, 309.9629083275795, 0.09600000455975533, -0.06400000303983688, 1.008000047877431, 0.0, 0.0, 0.0, 0.0, 0.0, 1.7054298546520889E9, 0.0, 2024-01-16 13:30:54.652
14.0, 15.557983815670013, -63.90741044282913, -75.87509030103683, 420.54427021741867, 0.09600000455975533, -0.06400000303983688, 1.008000047877431, 0.0, 0.0, 0.0, 0.0, 0.0, 1.7054298546520889E9, 0.0, 2024-01-16 13:30:54.652
15.0, 23.456652522087097, -90.71501332521439, -92.86919569969177, 433.23001086711884, 0.09600000455975533, -0.06400000303983688, 1.008000047877431, 0.0, 0.0, 0.0, 0.0, 0.0, 1.7054298546671689E9, 0.0, 2024-01-16 13:30:54.667
15.0, -101.72527879476547, -254.91158097982407, -203.92926478385925, 310.4416155219078, 0.09600000455975533, -0.06400000303983688, 1.008000047877431, 0.0, 0.0, 0.0, 0.0, 0.0, 1.7054298546671689E9, 0.0, 2024-01-16 13:30:54.667
16.0, -39.253989934921265, -129.01158887147903, -116.32584822177887, 386.79541301727295, 0.09600000455975533, -0.06400000303983688, 1.008000047877431, 0.0, 0.0, 0.0, 0.0, 0.0, 1.7054298546678777E9, 0.0, 2024-01-16 13:30:54.667
16.0, 48.34942662715912, -42.844293892383575, -59.359692096710205, 463.1492105126381, 0.09600000455975533, -0.06400000303983688, 1.008000047877431, 0.0, 0.0, 0.0, 0.0, 0.0, 1.7054298546678777E9, 0.0, 2024-01-16 13:30:54.667
17.0, -69.17318958044052, -208.9556903243065, -185.9777449965477, 327.43572092056274, 0.09600000455975533, -0.06400000303983688, 1.008000047877431, 0.0, 0.0, 0.0, 0.0, 0.0, 1.7054298546815436E9, 0.0, 2024-01-16 13:30:54.681
17.0, -83.53440541028976, -196.50930327177048, -170.898468375206, 325.5208921432495, 0.09600000455975533, -0.06400000303983688, 1.008000047877431, 0.0, 0.0, 0.0, 0.0, 0.0, 1.7054298546815436E9, 0.0, 2024-01-16 13:30:54.681
18.0, 38.77528274059296, -48.110073029994965, -66.30094641447067, 428.92164611816406, 0.09600000455975533, -0.06400000303983688, 1.008000047877431, 0.0, 0.0, 0.0, 0.0, 0.0, 1.7054298546971707E9, 0.0, 2024-01-16 13:30:54.697
18.0, -19.626994967460632, -162.76044607162476, -152.46824139356613, 364.5355284810066, 0.09600000455975533, -0.06400000303983688, 1.008000047877431, 0.0, 0.0, 0.0, 0.0, 0.0, 1.7054298546971707E9, 0.0, 2024-01-16 13:30:54.697
19.0, -107.94847232103348, -237.19941478967667, -210.87051910161972, 294.4049245119095, 0.09600000455975533, -0.06400000303983688, 1.008000047877431, 0.0, 0.0, 0.0, 0.0, 0.0, 1.705429854697886E9, 0.0, 2024-01-16 13:30:54.697
19.0, 0.0, -74.91767591238022, -74.19961512088776, 428.2035853266716, 0.09600000455975533, -0.06400000303983688, 1.008000047877431, 0.0, 0.0, 0.0, 0.0, 0.0, 1.705429854697886E9, 0.0, 2024-01-16 13:30:54.697
20.0, 12.207033455371857, -107.46976512670517, -95.98079246282578, 423.8952205777168, 0.09600000455975533, -0.06400000303983688, 1.008000047877431, 0.0, 0.0, 0.0, 0.0, 0.0, 1.7054298547115364E9, 0.0, 2024-01-16 13:30:54.711
20.0, -91.1937205195427, -243.66196191310883, -204.88667917251587, 303.97906839847565, 0.09600000455975533, -0.06400000303983688, 1.008000047877431, 0.0, 0.0, 0.0, 0.0, 0.0, 1.7054298547115364E9, 0.0, 2024-01-16 13:30:54.711
21.0, -35.663685977458954, -124.46387052536011, -125.42128491401672, 374.34902596473694, 0.09600000455975533, -0.06400000303983688, 1.008000047877431, 0.0, 0.0, 0.0, 0.0, 0.0, 1.7054298547271628E9, 0.0, 2024-01-16 13:30:54.727
21.0, 40.92946511507034, -53.61520576477051, -73.9602615237236, 446.3944587111473, 0.09600000455975533, -0.06400000303983688, 1.008000047877431, 0.0, 0.0, 0.0, 0.0, 0.0, 1.7054298547271628E9, 0.0, 2024-01-16 13:30:54.727
22.0, -64.14676403999329, -208.9556903243065, -187.41386657953262, 328.87184250354767, 0.09600000455975533, -0.06400000303983688, 1.008000047877431, 0.0, 0.0, 0.0, 0.0, 0.0, 1.7054298547278852E9, 0.0, 2024-01-16 13:30:54.727
22.0, -73.00284713506699, -185.4990378022194, -161.80303168296814, 332.9408536553383, 0.09600000455975533, -0.06400000303983688, 1.008000047877431, 0.0, 0.0, 0.0, 0.0, 0.0, 1.7054298547278852E9, 0.0, 2024-01-16 13:30:54.727
23.0, 35.90303957462311, -39.253989934921265, -61.27452087402344, 441.6073867678642, 0.09600000455975533, -0.06400000303983688, 1.008000047877431, 0.0, 0.0, 0.0, 0.0, 0.0, 1.7054298547415824E9, 0.0, 2024-01-16 13:30:54.741
23.0, -25.132127702236176, -157.73402053117752, -155.34048455953598, 373.3916115760803, 0.09600000455975533, -0.06400000303983688, 1.008000047877431, 0.0, 0.0, 0.0, 0.0, 0.0, 1.7054298547415824E9, 0.0, 2024-01-16 13:30:54.741
24.0, -97.65626764297485, -233.60911083221436, -194.11576730012894, 313.0745050907135, 0.09600000455975533, -0.06400000303983688, 1.008000047877431, 0.0, 0.0, 0.0, 0.0, 0.0, 1.7054298547571673E9, 0.0, 2024-01-16 13:30:54.757
24.0, 8.616729497909546, -72.04543274641037, -84.25246620178223, 425.0919885635376, 0.09600000455975533, -0.06400000303983688, 1.008000047877431, 0.0, 0.0, 0.0, 0.0, 0.0, 1.7054298547571673E9, 0.0, 2024-01-16 13:30:54.757
25.0, 3.1115967631340027, -112.0174834728241, -118.48003059625626, 407.61917597055435, 0.09600000455975533, -0.06400000303983688, 1.008000047877431, 0.0, 0.0, 0.0, 0.0, 0.0, 1.7054298547578695E9, 0.0, 2024-01-16 13:30:54.757
25.0, -100.28915721178055, -244.61937630176544, -213.98211586475372, 292.7294493317604, 0.09600000455975533, -0.06400000303983688, 1.008000047877431, 0.0, 0.0, 0.0, 0.0, 0.0, 1.7054298547578695E9, 0.0, 2024-01-16 13:30:54.757
26.0, -45.95589065551758, -137.14961117506027, -127.57546728849411, 369.56195402145386, 0.09600000455975533, -0.06400000303983688, 1.008000047877431, 0.0, 0.0, 0.0, 0.0, 0.0, 1.7054298547714925E9, 0.0, 2024-01-16 13:30:54.771
26.0, 34.22756439447403, -59.59904569387436, -67.01900720596313, 445.19769072532654, 0.09600000455975533, -0.06400000303983688, 1.008000047877431, 0.0, 0.0, 0.0, 0.0, 0.0, 1.7054298547714925E9, 0.0, 2024-01-16 13:30:54.771
27.0, -67.01900720596313, -219.00854140520096, -196.03059607744217, 322.4092953801155, 0.09600000455975533, -0.06400000303983688, 1.008000047877431, 0.0, 0.0, 0.0, 0.0, 0.0, 1.7054298547874737E9, 0.0, 2024-01-16 13:30:54.787
27.0, -84.01311260461807, -198.18477845191956, -178.31842988729477, 314.0319194793701, 0.09600000455975533, -0.06400000303983688, 1.008000047877431, 0.0, 0.0, 0.0, 0.0, 0.0, 1.7054298547874737E9, 0.0, 2024-01-16 13:30:54.787
28.0, 32.3127356171608, -49.78554821014404, -69.17318958044052, 435.14483964443207, 0.09600000455975533, -0.06400000303983688, 1.008000047877431, 0.0, 0.0, 0.0, 0.0, 0.0, 1.7054298547880003E9, 0.0, 2024-01-16 13:30:54.788
28.0, -18.669580578804016, -144.09086549282074, -151.0321198105812, 379.3754515051842, 0.09600000455975533, -0.06400000303983688, 1.008000047877431, 0.0, 0.0, 0.0, 0.0, 0.0, 1.7054298547880003E9, 0.0, 2024-01-16 13:30:54.788
29.0, -101.24657160043716, -239.35359716415405, -207.99827593564987, 296.08039969205856, 0.09600000455975533, -0.06400000303983688, 1.008000047877431, 0.0, 0.0, 0.0, 0.0, 0.0, 1.7054298548014925E9, 0.0, 2024-01-16 13:30:54.801
29.0, -4.547718346118927, -89.03953814506531, -79.94410145282745, 417.43267345428467, 0.09600000455975533, -0.06400000303983688, 1.008000047877431, 0.0, 0.0, 0.0, 0.0, 0.0, 1.7054298548014925E9, 0.0, 2024-01-16 13:30:54.801
30.0, 14.121862232685089, -102.20398598909378, -103.1614003777504, 409.5340047478676, 0.09600000455975533, -0.06400000303983688, 1.008000047877431, 0.0, 0.0, 0.0, 0.0, 0.0, 1.7054298548172033E9, 0.0, 2024-01-16 13:30:54.817
30.0, -89.75759893655777, -236.0026468038559, -211.10987269878387, 294.64427810907364, 0.09600000455975533, -0.06400000303983688, 1.008000047877431, 0.0, 0.0, 0.0, 0.0, 0.0, 1.7054298548172033E9, 0.0, 2024-01-16 13:30:54.817
31.0, -28.96178525686264, -124.46387052536011, -119.19809138774872, 380.57221949100494, 0.09600000455975533, -0.06400000303983688, 1.008000047877431, 0.0, 0.0, 0.0, 0.0, 0.0, 1.7054298548178759E9, 0.0, 2024-01-16 13:30:54.817
31.0, 45.237829864025116, -60.556460082530975, -62.949996054172516, 454.2931274175644, 0.09600000455975533, -0.06400000303983688, 1.008000047877431, 0.0, 0.0, 0.0, 0.0, 0.0, 1.7054298548178759E9, 0.0, 2024-01-16 13:30:54.817
32.0, -58.162924110889435, -207.75892233848572, -171.8558827638626, 340.36081516742706, 0.09600000455975533, -0.06400000303983688, 1.008000047877431, 0.0, 0.0, 0.0, 0.0, 0.0, 1.7054298548316908E9, 0.0, 2024-01-16 13:30:54.831
32.0, -70.13060396909714, -181.43002665042877, -159.4094957113266, 337.4885720014572, 0.09600000455975533, -0.06400000303983688, 1.008000047877431, 0.0, 0.0, 0.0, 0.0, 0.0, 1.7054298548316908E9, 0.0, 2024-01-16 13:30:54.831
33.0, 42.12623310089111, -44.2804154753685, -54.33326655626297, 456.4473097920418, 0.09600000455975533, -0.06400000303983688, 1.008000047877431, 0.0, 0.0, 0.0, 0.0, 0.0, 1.7054298548471804E9, 0.0, 2024-01-16 13:30:54.847
33.0, -12.44638705253601, -152.70759499073029, -138.34637916088104, 378.41803711652756, 0.09600000455975533, -0.06400000303983688, 1.008000047877431, 0.0, 0.0, 0.0, 0.0, 0.0, 1.7054298548471804E9, 0.0, 2024-01-16 13:30:54.847
34.0, -100.5285108089447, -235.28458601236343, -193.15835291147232, 309.4842011332512, 0.09600000455975533, -0.06400000303983688, 1.008000047877431, 0.0, 0.0, 0.0, 0.0, 0.0, 1.705429854848096E9, 0.0, 2024-01-16 13:30:54.848
34.0, 7.419961512088776, -69.65189677476883, -83.05569821596146, 418.8687950372696, 0.09600000455975533, -0.06400000303983688, 1.008000047877431, 0.0, 0.0, 0.0, 0.0, 0.0, 1.705429854848096E9, 0.0, 2024-01-16 13:30:54.848
35.0, 12.925094246864319, -100.76786440610886, -93.10854929685593, 430.357767701149, 0.09600000455975533, -0.06400000303983688, 1.008000047877431, 0.0, 0.0, 0.0, 0.0, 0.0, 1.7054298548615139E9, 0.0, 2024-01-16 13:30:54.861
35.0, -99.09238922595978, -243.18325471878052, -200.0996072292328, 311.87773710489273, 0.09600000455975533, -0.06400000303983688, 1.008000047877431, 0.0, 0.0, 0.0, 0.0, 0.0, 1.7054298548615139E9, 0.0, 2024-01-16 13:30:54.861
36.0, -36.14239317178726, -126.6180528998375, -116.32584822177887, 379.3754515051842, 0.09600000455975533, -0.06400000303983688, 1.008000047877431, 0.0, 0.0, 0.0, 0.0, 0.0, 1.7054298548772192E9, 0.0, 2024-01-16 13:30:54.877
36.0, 39.73269712924957, -53.61520576477051, -75.15702950954437, 441.6073867678642, 0.09600000455975533, -0.06400000303983688, 1.008000047877431, 0.0, 0.0, 0.0, 0.0, 0.0, 1.7054298548772192E9, 0.0, 2024-01-16 13:30:54.877
37.0, -70.60931116342545, -215.6575910449028, -187.65322017669678, 331.2653784751892, 0.09600000455975533, -0.06400000303983688, 1.008000047877431, 0.0, 0.0, 0.0, 0.0, 0.0, 1.7054298548778856E9, 0.0, 2024-01-16 13:30:54.877
37.0, -80.66216224431992, -194.11576730012894, -168.7442860007286, 326.4783065319061, 0.09600000455975533, -0.06400000303983688, 1.008000047877431, 0.0, 0.0, 0.0, 0.0, 0.0, 1.7054298548778856E9, 0.0, 2024-01-16 13:30:54.877
38.0, 34.94562518596649, -42.60494029521942, -67.7370679974556, 446.3944587111473, 0.09600000455975533, -0.06400000303983688, 1.008000047877431, 0.0, 0.0, 0.0, 0.0, 0.0, 1.7054298548915193E9, 0.0, 2024-01-16 13:30:54.891
38.0, -30.15855324268341, -166.59010362625122, -151.98953419923782, 370.9980756044388, 0.09600000455975533, -0.06400000303983688, 1.008000047877431, 0.0, 0.0, 0.0, 0.0, 0.0, 1.7054298548915193E9, 0.0, 2024-01-16 13:30:54.891
39.0, -102.68269318342209, -235.04523241519928, -188.13192737102509, 315.46804106235504, 0.09600000455975533, -0.06400000303983688, 1.008000047877431, 0.0, 0.0, 0.0, 0.0, 0.0, 1.7054298549074361E9, 0.0, 2024-01-16 13:30:54.907
39.0, 9.095436692237854, -68.45512878894806, -71.56672555208206, 432.9906572699547, 0.09600000455975533, -0.06400000303983688, 1.008000047877431, 0.0, 0.0, 0.0, 0.0, 0.0, 1.7054298549074361E9, 0.0, 2024-01-16 13:30:54.907
40.0, 17.7121661901474, -84.97052699327469, -101.96463239192963, 421.74103820323944, 0.09600000455975533, -0.06400000303983688, 0.9920000471174717, 0.0, 0.0, 0.0, 0.0, 0.0, 1.7054298549079387E9, 0.0, 2024-01-16 13:30:54.907
40.0, -97.17756044864655, -236.4813539981842, -205.12603276968002, 308.04807955026627, 0.09600000455975533, -0.06400000303983688, 0.9920000471174717, 0.0, 0.0, 0.0, 0.0, 0.0, 1.7054298549079387E9, 0.0, 2024-01-16 13:30:54.907
41.0, -25.37148129940033, -118.95873779058456, -109.3845939040184, 387.5134738087654, 0.09600000455975533, -0.06400000303983688, 0.9920000471174717, 0.0, 0.0, 0.0, 0.0, 0.0, 1.705429854921487E9, 0.0, 2024-01-16 13:30:54.921
41.0, 44.2804154753685, -53.85455936193466, -65.34353202581406, 459.0801993608475, 0.09600000455975533, -0.06400000303983688, 0.9920000471174717, 0.0, 0.0, 0.0, 0.0, 0.0, 1.705429854921487E9, 0.0, 2024-01-16 13:30:54.921
42.0, -63.90741044282913, -213.98211586475372, -185.25968420505524, 337.0098648071289, 0.09600000455975533, -0.06400000303983688, 0.9920000471174717, 0.0, 0.0, 0.0, 0.0, 0.0, 1.7054298549372168E9, 0.0, 2024-01-16 13:30:54.937
42.0, -73.72090792655945, -176.88230830430984, -151.98953419923782, 348.4988374710083, 0.09600000455975533, -0.06400000303983688, 0.9920000471174717, 0.0, 0.0, 0.0, 0.0, 0.0, 1.7054298549372168E9, 0.0, 2024-01-16 13:30:54.937
43.0, 31.594674825668335, -40.450757920742035, -49.78554821014404, 463.6279177069664, 0.09600000455975533, -0.06400000303983688, 0.9920000471174717, 0.0, 0.0, 0.0, 0.0, 0.0, 1.705429854937919E9, 0.0, 2024-01-16 13:30:54.937
43.0, -32.07338201999664, -160.84561729431152, -148.63858383893967, 378.6573907136917, 0.09600000455975533, -0.06400000303983688, 0.9920000471174717, 0.0, 0.0, 0.0, 0.0, 0.0, 1.705429854937919E9, 0.0, 2024-01-16 13:30:54.937
44.0, -106.2729971408844, -242.94390112161636, -198.4241320490837, 303.97906839847565, 0.09600000455975533, -0.06400000303983688, 0.9920000471174717, 0.0, 0.0, 0.0, 0.0, 0.0, 1.705429854951782E9, 0.0, 2024-01-16 13:30:54.951
44.0, -10.05285108089447, -89.27889174222946, -89.99695253372192, 409.0552975535393, 0.09600000455975533, -0.06400000303983688, 0.9920000471174717, 0.0, 0.0, 0.0, 0.0, 0.0, 1.705429854951782E9, 0.0, 2024-01-16 13:30:54.951
45.0, 5.265779137611389, -106.03364354372025, -115.1290802359581, 408.8159439563751, 0.09600000455975533, -0.06400000303983688, 0.9920000471174717, 0.0, 0.0, 0.0, 0.0, 0.0, 1.7054298549829516E9, 0.0, 2024-01-16 13:30:54.982
45.0, -106.51235073804855, -260.8954209089279, -219.2478950023651, 287.9423773884773, 0.09600000455975533, -0.06400000303983688, 0.9920000471174717, 0.0, 0.0, 0.0, 0.0, 0.0, 1.7054298549829516E9, 0.0, 2024-01-16 13:30:54.982
46.0, -56.00874173641205, -143.85151189565659, -135.23478239774704, 373.6309651732445, 0.09600000455975533, -0.06400000303983688, 0.9920000471174717, 0.0, 0.0, 0.0, 0.0, 0.0, 1.7054298549836304E9, 0.0, 2024-01-16 13:30:54.983
46.0, 36.381746768951416, -52.17908418178558, -63.428703248500824, 458.8408457636833, 0.09600000455975533, -0.06400000303983688, 0.9920000471174717, 0.0, 0.0, 0.0, 0.0, 0.0, 1.7054298549836304E9, 0.0, 2024-01-16 13:30:54.983
47.0, -63.428703248500824, -203.92926478385925, -183.10550183057785, 334.13762164115906, 0.09600000455975533, -0.06400000303983688, 0.9920000471174717, 0.0, 0.0, 0.0, 0.0, 0.0, 1.7054298549843504E9, 0.0, 2024-01-16 13:30:54.984
47.0, -71.32737195491791, -182.8661482334137, -149.35664463043213, 354.00397020578384, 0.09600000455975533, -0.06400000303983688, 0.9920000471174717, 0.0, 0.0, 0.0, 0.0, 0.0, 1.7054298549843504E9, 0.0, 2024-01-16 13:30:54.984
48.0, 43.80170828104019, -24.17471331357956, -42.12623310089111, 471.5265864133835, 0.09600000455975533, -0.06400000303983688, 0.9920000471174717, 0.0, 0.0, 0.0, 0.0, 0.0, 1.705429854997193E9, 0.0, 2024-01-16 13:30:54.997
48.0, -21.30247014760971, -158.21272772550583, -136.67090398073196, 379.6148051023483, 0.09600000455975533, -0.06400000303983688, 0.9920000471174717, 0.0, 0.0, 0.0, 0.0, 0.0, 1.705429854997193E9, 0.0, 2024-01-16 13:30:54.997
49.0, -92.62984210252762, -226.18914932012558, -186.21709859371185, 305.41518998146057, 0.09600000455975533, -0.06400000303983688, 0.9920000471174717, 0.0, 0.0, 0.0, 0.0, 0.0, 1.705429854997955E9, 0.0, 2024-01-16 13:30:54.997
49.0, 15.557983815670013, -56.72680252790451, -69.41254317760468, 429.6397069096565, 0.09600000455975533, -0.06400000303983688, 0.9920000471174717, 0.0, 0.0, 0.0, 0.0, 0.0, 1.705429854997955E9, 0.0, 2024-01-16 13:30:54.997
50.0, 29.44049245119095, -87.12470936775208, -88.560830950737, 433.9480716586113, 0.09600000455975533, -0.06400000303983688, 1.008000047877431, 0.0, 0.0, 0.0, 0.0, 0.0, 1.7054298550114937E9, 0.0, 2024-01-16 13:30:55.011
50.0, -84.49181979894638, -227.38591730594635, -202.97185039520264, 307.56937235593796, 0.09600000455975533, -0.06400000303983688, 1.008000047877431, 0.0, 0.0, 0.0, 0.0, 0.0, 1.7054298550114937E9, 0.0, 2024-01-16 13:30:55.011
51.0, -34.22756439447403, -125.89999210834503, -113.45360505580902, 379.3754515051842, 0.09600000455975533, -0.06400000303983688, 1.008000047877431, 0.0, 0.0, 0.0, 0.0, 0.0, 1.7054298550272112E9, 0.0, 2024-01-16 13:30:55.027
51.0, 48.82813382148743, -50.503609001636505, -60.07775288820267, 464.585332095623, 0.09600000455975533, -0.06400000303983688, 1.008000047877431, 0.0, 0.0, 0.0, 0.0, 0.0, 1.7054298550272112E9, 0.0, 2024-01-16 13:30:55.027
52.0, -62.949996054172516, -214.22146946191788, -185.4990378022194, 332.9408536553383, 0.09600000455975533, -0.06400000303983688, 1.008000047877431, 0.0, 0.0, 0.0, 0.0, 0.0, 1.7054298550279355E9, 0.0, 2024-01-16 13:30:55.027
52.0, -70.60931116342545, -175.44618672132492, -157.01595973968506, 334.61632883548737, 0.09600000455975533, -0.06400000303983688, 1.008000047877431, 0.0, 0.0, 0.0, 0.0, 0.0, 1.7054298550279355E9, 0.0, 2024-01-16 13:30:55.027
53.0, 42.36558669805527, -34.22756439447403, -57.20550972223282, 445.67639791965485, 0.09600000455975533, -0.06400000303983688, 1.008000047877431, 0.0, 0.0, 0.0, 0.0, 0.0, 1.7054298550418303E9, 0.0, 2024-01-16 13:30:55.041
53.0, -22.259884536266327, -157.01595973968506, -147.20246225595474, 372.4341971874237, 0.09600000455975533, -0.06400000303983688, 1.008000047877431, 0.0, 0.0, 0.0, 0.0, 0.0, 1.7054298550418303E9, 0.0, 2024-01-16 13:30:55.041
54.0, -101.00721800327301, -238.39618277549744, -193.87641370296478, 305.8938971757889, 0.09600000455975533, -0.06400000303983688, 1.008000047877431, 0.0, 0.0, 0.0, 0.0, 0.0, 1.705429855057208E9, 0.0, 2024-01-16 13:30:55.057
54.0, 11.24961906671524, -67.7370679974556, -72.76349353790283, 433.469364464283, 0.09600000455975533, -0.06400000303983688, 1.008000047877431, 0.0, 0.0, 0.0, 0.0, 0.0, 1.705429855057208E9, 0.0, 2024-01-16 13:30:55.057
55.0, 26.08954209089279, -87.84277015924454, -93.34790289402008, 433.23001086711884, 0.09600000455975533, -0.06400000303983688, 1.008000047877431, 0.0, 0.0, 0.0, 0.0, 0.0, 1.7054298550579708E9, 0.0, 2024-01-16 13:30:55.057
55.0, -87.12470936775208, -235.5239396095276, -194.11576730012894, 316.42545545101166, 0.09600000455975533, -0.06400000303983688, 1.008000047877431, 0.0, 0.0, 0.0, 0.0, 0.0, 1.7054298550579708E9, 0.0, 2024-01-16 13:30:55.057
56.0, -28.96178525686264, -119.19809138774872, -110.82071548700333, 387.0347666144371, 0.09600000455975533, -0.06400000303983688, 1.008000047877431, 0.0, 0.0, 0.0, 0.0, 0.0, 1.7054298550714998E9, 0.0, 2024-01-16 13:30:55.071
56.0, 41.1688187122345, -44.519769072532654, -69.89125037193298, 446.63381230831146, 0.09600000455975533, -0.06400000303983688, 1.008000047877431, 0.0, 0.0, 0.0, 0.0, 0.0, 1.7054298550714998E9, 0.0, 2024-01-16 13:30:55.071
57.0, -60.79581367969513, -209.67375111579895, -186.456452190876, 330.3079640865326, 0.09600000455975533, -0.06400000303983688, 1.008000047877431, 0.0, 0.0, 0.0, 0.0, 0.0, 1.7054298550874112E9, 0.0, 2024-01-16 13:30:55.087
57.0, -69.89125037193298, -187.89257377386093, -159.8882029056549, 329.350549697876, 0.09600000455975533, -0.06400000303983688, 1.008000047877431, 0.0, 0.0, 0.0, 0.0, 0.0, 1.7054298550874112E9, 0.0, 2024-01-16 13:30:55.087
58.0, 42.60494029521942, -39.01463633775711, -49.06748741865158, 453.0963594317436, 0.09600000455975533, -0.06400000303983688, 1.008000047877431, 0.0, 0.0, 0.0, 0.0, 0.0, 1.7054298550880723E9, 0.0, 2024-01-16 13:30:55.088
58.0, -23.217298924922943, -162.28173887729645, -141.93668311834335, 381.52963387966156, 0.09600000455975533, -0.06400000303983688, 1.008000047877431, 0.0, 0.0, 0.0, 0.0, 0.0, 1.7054298550880723E9, 0.0, 2024-01-16 13:30:55.088
59.0, -106.03364354372025, -243.18325471878052, -194.8338280916214, 319.05834501981735, 0.09600000455975533, -0.06400000303983688, 1.008000047877431, 0.0, 0.0, 0.0, 0.0, 0.0, 1.7054298551016245E9, 0.0, 2024-01-16 13:30:55.101
59.0, 3.3509503602981567, -78.26862627267838, -83.29505181312561, 425.81004935503006, 0.09600000455975533, -0.06400000303983688, 1.008000047877431, 0.0, 0.0, 0.0, 0.0, 0.0, 1.7054298551016245E9, 0.0, 2024-01-16 13:30:55.101
60.0, 9.334790289402008, -111.77812987565994, -104.59752196073532, 416.7146126627922, 0.09600000455975533, -0.06400000303983688, 1.008000047877431, 0.0, 0.0, 0.0, 0.0, 0.0, 1.7054298551171756E9, 0.0, 2024-01-16 13:30:55.117
60.0, -101.72527879476547, -246.29485148191452, -203.92926478385925, 304.93648278713226, 0.09600000455975533, -0.06400000303983688, 1.008000047877431, 0.0, 0.0, 0.0, 0.0, 0.0, 1.7054298551171756E9, 0.0, 2024-01-16 13:30:55.117
61.0, -35.184978783130646, -123.50645613670349, -119.67679858207703, 383.4444626569748, 0.09600000455975533, -0.06400000303983688, 1.008000047877431, 0.0, 0.0, 0.0, 0.0, 0.0, 1.705429855117898E9, 0.0, 2024-01-16 13:30:55.117
61.0, 35.4243323802948, -61.753228068351746, -82.09828382730484, 443.52221554517746, 0.09600000455975533, -0.06400000303983688, 1.008000047877431, 0.0, 0.0, 0.0, 0.0, 0.0, 1.705429855117898E9, 0.0, 2024-01-16 13:30:55.117
62.0, -79.94410145282745, -235.04523241519928, -197.4667176604271, 319.7764058113098, 0.11200000531971455, -0.06400000303983688, 1.008000047877431, 0.0, 0.0, 0.0, 0.0, 0.0, 1.7054298551318161E9, 0.0, 2024-01-16 13:30:55.131
62.0, -77.31121188402176, -193.39770650863647, -160.36691009998322, 339.6427543759346, 0.11200000531971455, -0.06400000303983688, 1.008000047877431, 0.0, 0.0, 0.0, 0.0, 0.0, 1.7054298551318161E9, 0.0, 2024-01-16 13:30:55.131
63.0, 37.33916115760803, -43.08364748954773, -65.58288562297821, 446.15510511398315, 0.11200000531971455, -0.06400000303983688, 1.008000047877431, 0.0, 0.0, 0.0, 0.0, 0.0, 1.7054298551471968E9, 0.0, 2024-01-16 13:30:55.147
63.0, -21.541823744773865, -164.91462844610214, -151.98953419923782, 366.45035725831985, 0.11200000531971455, -0.06400000303983688, 1.008000047877431, 0.0, 0.0, 0.0, 0.0, 0.0, 1.7054298551471968E9, 0.0, 2024-01-16 13:30:55.147
64.0, -95.50208526849747, -227.1465637087822, -192.44029211997986, 304.6971291899681, 0.11200000531971455, -0.06400000303983688, 1.008000047877431, 0.0, 0.0, 0.0, 0.0, 0.0, 1.7054298551480083E9, 0.0, 2024-01-16 13:30:55.148
64.0, -3.3509503602981567, -82.57699102163315, -82.337637424469, 422.69845259189606, 0.11200000531971455, -0.06400000303983688, 1.008000047877431, 0.0, 0.0, 0.0, 0.0, 0.0, 1.7054298551480083E9, 0.0, 2024-01-16 13:30:55.148
65.0, 26.328895688056946, -87.60341656208038, -95.98079246282578, 431.55453568696976, 0.11200000531971455, -0.06400000303983688, 1.008000047877431, 0.0, 0.0, 0.0, 0.0, 0.0, 1.705429855161538E9, 0.0, 2024-01-16 13:30:55.161
65.0, -90.47565972805023, -243.90131551027298, -211.10987269878387, 305.41518998146057, 0.11200000531971455, -0.06400000303983688, 1.008000047877431, 0.0, 0.0, 0.0, 0.0, 0.0, 1.705429855161538E9, 0.0, 2024-01-16 13:30:55.161
66.0, -30.397906839847565, -123.50645613670349, -109.3845939040184, 386.5560594201088, 0.11200000531971455, -0.06400000303983688, 1.008000047877431, 0.0, 0.0, 0.0, 0.0, 0.0, 1.7054298551771944E9, 0.0, 2024-01-16 13:30:55.177
66.0, 38.5359291434288, -62.47128885984421, -67.01900720596313, 449.5060554742813, 0.11200000531971455, -0.06400000303983688, 1.008000047877431, 0.0, 0.0, 0.0, 0.0, 0.0, 1.7054298551771944E9, 0.0, 2024-01-16 13:30:55.177
