%OpenBCI Raw EXG Data
%Number of channels = 4
%Sample Rate = 200 Hz
%Board = OpenBCI_GUI$BoardGanglionBLE
Sample Index, EXG Channel 0, EXG Channel 1, EXG Channel 2, EXG Channel 3, Accel Channel 0, Accel Channel 1, Accel Channel 2, Other, Other, Other, Other, Other, Timestamp, Other, Timestamp (Formatted)
0.0, 511.4986371397972, -65.34353202581406, 125.89999210834503, -50.503609001636505, 0.0, 0.0, 0.9920000471174717, 0.0, 0.0, 0.0, 0.0, 0.0, 1.7052701505462933E9, 0.0, 2024-01-14 17:09:10.546
0.0, 445.4370443224907, -179.27584427595139, 443.04350835084915, -159.17014211416245, 0.0, 0.0, 0.9920000471174717, 0.0, 0.0, 0.0, 0.0, 0.0, 1.7052701505462933E9, 0.0, 2024-01-14 17:09:10.546
1.0, 396.60891050100327, -148.63858383893967, 78.74733346700668, -134.99542880058289, 0.0, -0.9920000471174717, 0.9920000471174717, 0.0, 0.0, 0.0, 0.0, 0.0, 1.7052701505609577E9, 0.0, 2024-01-14 17:09:10.560
1.0, 476.31365835666656, -67.25836080312729, 78.02927267551422, -56.00874173641205, 0.0, -0.9920000471174717, 0.9920000471174717, 0.0, 0.0, 0.0, 0.0, 0.0, 1.7052701505609577E9, 0.0, 2024-01-14 17:09:10.560
2.0, 483.73361986875534, -106.03364354372025, 316.1861018538475, -92.39048850536346, -0.9920000471174717, -0.9920000471174717, 0.9920000471174717, 0.0, 0.0, 0.0, 0.0, 0.0, 1.7052701505754392E9, 0.0, 2024-01-14 17:09:10.575
2.0, 401.1566288471222, -145.04827988147736, 132.12318563461304, -135.9528431892395, -0.9920000471174717, -0.9920000471174717, 0.9920000471174717, 0.0, 0.0, 0.0, 0.0, 0.0, 1.7052701505754392E9, 0.0, 2024-01-14 17:09:10.575
3.0, 443.7615691423416, -66.77965360879898, -1.4361215829849243, -62.949996054172516, -0.9920000471174717, -0.9920000471174717, 0.9920000471174717, 0.0, 0.0, 0.0, 0.0, 0.0, 1.7052701505761192E9, 0.0, 2024-01-14 17:09:10.576
3.0, 503.360614836216, -69.41254317760468, 254.6722273826599, -65.1041784286499, -0.9920000471174717, -0.9920000471174717, 0.9920000471174717, 0.0, 0.0, 0.0, 0.0, 0.0, 1.7052701505761192E9, 0.0, 2024-01-14 17:09:10.576
4.0, 419.10814863443375, -156.53725254535675, 193.63706010580063, -145.04827988147736, -0.9920000471174717, -0.9920000471174717, 0.9920000471174717, 0.0, 0.0, 0.0, 0.0, 0.0, 1.7052701505899332E9, 0.0, 2024-01-14 17:09:10.589
4.0, 412.40624791383743, -110.10265469551086, -50.74296259880066, -95.74143886566162, -0.9920000471174717, -0.9920000471174717, 0.9920000471174717, 0.0, 0.0, 0.0, 0.0, 0.0, 1.7052701505899332E9, 0.0, 2024-01-14 17:09:10.589
5.0, 504.55738282203674, -57.44486331939697, 147.9205230474472, -39.97205072641373, -0.9920000471174717, -0.9920000471174717, 0.9920000471174717, 0.0, 0.0, 0.0, 0.0, 0.0, 1.7052701506054363E9, 0.0, 2024-01-14 17:09:10.605
5.0, 454.2931274175644, -124.46387052536011, 268.794089615345, -112.73554426431656, -0.9920000471174717, -0.9920000471174717, 0.9920000471174717, 0.0, 0.0, 0.0, 0.0, 0.0, 1.7052701506054363E9, 0.0, 2024-01-14 17:09:10.605
6.0, 395.17278891801834, -128.53288167715073, 14.839923024177551, -120.15550577640533, -0.9920000471174717, -0.9920000471174717, 0.9920000471174717, 0.0, 0.0, 0.0, 0.0, 0.0, 1.7052701506061013E9, 0.0, 2024-01-14 17:09:10.606
6.0, 474.6381831765175, -57.68421691656113, 52.41843777894974, -48.110073029994965, -0.9920000471174717, -0.9920000471174717, 0.9920000471174717, 0.0, 0.0, 0.0, 0.0, 0.0, 1.7052701506061013E9, 0.0, 2024-01-14 17:09:10.606
7.0, 476.5530119538307, -108.18782591819763, 280.52241587638855, -87.12470936775208, -0.9920000471174717, -0.9920000471174717, 0.9920000471174717, 0.0, 0.0, 0.0, 0.0, 0.0, 1.7052701506198068E9, 0.0, 2024-01-14 17:09:10.619
7.0, 391.1037777662277, -148.3992302417755, 103.1614003777504, -138.82508635520935, -0.9920000471174717, -0.9920000471174717, 0.9920000471174717, 0.0, 0.0, 0.0, 0.0, 0.0, 1.7052701506198068E9, 0.0, 2024-01-14 17:09:10.619
8.0, 436.580961227417, -66.54030001163483, -14.839923024177551, -64.6254712343216, -0.9920000471174717, -0.9920000471174717, 0.9920000471174717, 0.0, 0.0, 0.0, 0.0, 0.0, 1.7052701506355176E9, 0.0, 2024-01-14 17:09:10.635
8.0, 505.2754436135292, -59.59904569387436, 241.02907234430313, -54.33326655626297, -0.9920000471174717, -0.9920000471174717, 0.9920000471174717, 0.0, 0.0, 0.0, 0.0, 0.0, 1.7052701506355176E9, 0.0, 2024-01-14 17:09:10.635
9.0, 422.21974539756775, -140.50056153535843, 208.47698312997818, -126.37869930267334, -0.9920000471174717, -0.9920000471174717, 0.9920000471174717, 0.0, 0.0, 0.0, 0.0, 0.0, 1.7052701506361995E9, 0.0, 2024-01-14 17:09:10.636
9.0, 413.36366230249405, -97.17756044864655, -23.217298924922943, -87.36406296491623, -0.9920000471174717, -0.9920000471174717, 0.9920000471174717, 0.0, 0.0, 0.0, 0.0, 0.0, 1.7052701506361995E9, 0.0, 2024-01-14 17:09:10.636
10.0, 504.3180292248726, -46.19524425268173, 153.90436297655106, -38.29657554626465, -0.9920000471174717, -0.9920000471174717, 0.5120000243186951, 0.0, 0.0, 0.0, 0.0, 0.0, 1.7052701506661928E9, 0.0, 2024-01-14 17:09:10.666
10.0, 447.83058029413223, -126.13934570550919, 262.81024968624115, -116.32584822177887, -0.9920000471174717, -0.9920000471174717, 0.5120000243186951, 0.0, 0.0, 0.0, 0.0, 0.0, 1.7052701506661928E9, 0.0, 2024-01-14 17:09:10.666
11.0, 388.2315346002579, -135.9528431892395, 3.590303957462311, -129.01158887147903, -0.9920000471174717, -0.5120000243186951, 0.5120000243186951, 0.0, 0.0, 0.0, 0.0, 0.0, 1.705270150666865E9, 0.0, 2024-01-14 17:09:10.666
11.0, 473.920122385025, -58.8809849023819, 43.08364748954773, -50.503609001636505, -0.9920000471174717, -0.5120000243186951, 0.5120000243186951, 0.0, 0.0, 0.0, 0.0, 0.0, 1.705270150666865E9, 0.0, 2024-01-14 17:09:10.666
12.0, 472.0052936077118, -118.71938419342041, 265.44313925504684, -98.85303562879562, -0.5120000243186951, -0.5120000243186951, 0.5120000243186951, 0.0, 0.0, 0.0, 0.0, 0.0, 1.7052701506677065E9, 0.0, 2024-01-14 17:09:10.667
12.0, 382.00834107398987, -175.44618672132492, 78.74733346700668, -156.05854535102844, -0.5120000243186951, -0.5120000243186951, 0.5120000243186951, 0.0, 0.0, 0.0, 0.0, 0.0, 1.7052701506677065E9, 0.0, 2024-01-14 17:09:10.667
13.0, 431.07582849264145, -93.58725649118423, -35.184978783130646, -81.38022303581238, -0.5120000243186951, -0.5120000243186951, 0.5120000243186951, 0.0, 0.0, 0.0, 0.0, 0.0, 1.7052701506797743E9, 0.0, 2024-01-14 17:09:10.679
13.0, 486.1271558403969, -83.53440541028976, 225.47108852863312, -73.00284713506699, -0.5120000243186951, -0.5120000243186951, 0.5120000243186951, 0.0, 0.0, 0.0, 0.0, 0.0, 1.7052701506797743E9, 0.0, 2024-01-14 17:09:10.679
14.0, 416.7146126627922, -155.8191917538643, 190.76481693983078, -140.73991513252258, -0.5120000243186951, -0.5120000243186951, 0.5120000243186951, 0.0, 0.0, 0.0, 0.0, 0.0, 1.705270150695932E9, 0.0, 2024-01-14 17:09:10.695
14.0, 405.7043471932411, -109.86330109834671, -35.663685977458954, -104.11881476640701, -0.5120000243186951, -0.5120000243186951, 0.5120000243186951, 0.0, 0.0, 0.0, 0.0, 0.0, 1.705270150695932E9, 0.0, 2024-01-14 17:09:10.695
15.0, 498.81289649009705, -48.82813382148743, 151.98953419923782, -45.47718346118927, -0.5120000243186951, -0.5120000243186951, 0.5120000243186951, 0.0, 0.0, 0.0, 0.0, 0.0, 1.7052701506962917E9, 0.0, 2024-01-14 17:09:10.696
15.0, 454.05377382040024, -130.2083568572998, 263.28895688056946, -116.56520181894302, -0.5120000243186951, -0.5120000243186951, 0.5120000243186951, 0.0, 0.0, 0.0, 0.0, 0.0, 1.7052701506962917E9, 0.0, 2024-01-14 17:09:10.696
16.0, 394.69408172369003, -134.51672160625458, 11.967679858207703, -125.66063851118088, -0.5120000243186951, -0.5120000243186951, 0.5120000243186951, 0.0, 0.0, 0.0, 0.0, 0.0, 1.7052701507099216E9, 0.0, 2024-01-14 17:09:10.709
16.0, 481.57943749427795, -48.34942662715912, 61.27452087402344, -44.99847626686096, -0.5120000243186951, -0.5120000243186951, 0.5120000243186951, 0.0, 0.0, 0.0, 0.0, 0.0, 1.7052701507099216E9, 0.0, 2024-01-14 17:09:10.709
17.0, 485.4090950489044, -94.3053172826767, 284.352073431015, -84.01311260461807, -0.5120000243186951, -0.5120000243186951, 0.5120000243186951, 0.0, 0.0, 0.0, 0.0, 0.0, 1.7052701507261336E9, 0.0, 2024-01-14 17:09:10.726
17.0, 404.50757920742035, -151.27147340774536, 106.51235073804855, -136.19219678640366, -0.5120000243186951, -0.5120000243186951, 0.5120000243186951, 0.0, 0.0, 0.0, 0.0, 0.0, 1.7052701507261336E9, 0.0, 2024-01-14 17:09:10.726
18.0, 446.15510511398315, -65.58288562297821, -0.7180607914924622, -69.17318958044052, -0.5120000243186951, -0.5120000243186951, 0.5120000243186951, 0.0, 0.0, 0.0, 0.0, 0.0, 1.7052701507262087E9, 0.0, 2024-01-14 17:09:10.726
18.0, 505.03609001636505, -66.54030001163483, 235.28458601236343, -56.2480953335762, -0.5120000243186951, -0.5120000243186951, 0.5120000243186951, 0.0, 0.0, 0.0, 0.0, 0.0, 1.7052701507262087E9, 0.0, 2024-01-14 17:09:10.726
19.0, 426.5281101465225, -147.9205230474472, 202.25378960371017, -134.27736800909042, -0.5120000243186951, -0.5120000243186951, 0.5120000243186951, 0.0, 0.0, 0.0, 0.0, 0.0, 1.705270150740077E9, 0.0, 2024-01-14 17:09:10.740
19.0, 405.9437007904053, -108.18782591819763, -38.77528274059296, -103.6401075720787, -0.5120000243186951, -0.5120000243186951, 0.5120000243186951, 0.0, 0.0, 0.0, 0.0, 0.0, 1.705270150740077E9, 0.0, 2024-01-14 17:09:10.740
20.0, 497.3767749071121, -58.162924110889435, 137.14961117506027, -44.99847626686096, -0.5120000243186951, -0.5120000243186951, 0.7840000372380018, 0.0, 0.0, 0.0, 0.0, 0.0, 1.705270150755446E9, 0.0, 2024-01-14 17:09:10.755
20.0, 444.71898353099823, -133.55930721759796, 259.459299325943, -120.15550577640533, -0.5120000243186951, -0.5120000243186951, 0.7840000372380018, 0.0, 0.0, 0.0, 0.0, 0.0, 1.705270150755446E9, 0.0, 2024-01-14 17:09:10.755
21.0, 380.3328658938408, -142.1760367155075, 14.839923024177551, -137.86767196655273, -0.5120000243186951, -0.7840000372380018, 0.7840000372380018, 0.0, 0.0, 0.0, 0.0, 0.0, 1.7052701507561648E9, 0.0, 2024-01-14 17:09:10.756
21.0, 466.97886806726456, -56.487448930740356, 51.22166979312897, -57.92357051372528, -0.5120000243186951, -0.7840000372380018, 0.7840000372380018, 0.0, 0.0, 0.0, 0.0, 0.0, 1.7052701507561648E9, 0.0, 2024-01-14 17:09:10.756
22.0, 475.35624396800995, -111.77812987565994, 275.017283141613, -99.33174282312393, -0.7840000372380018, -0.7840000372380018, 0.7840000372380018, 0.0, 0.0, 0.0, 0.0, 0.0, 1.7052701507697563E9, 0.0, 2024-01-14 17:09:10.769
22.0, 386.79541301727295, -158.21272772550583, 93.58725649118423, -151.51082700490952, -0.7840000372380018, -0.7840000372380018, 0.7840000372380018, 0.0, 0.0, 0.0, 0.0, 0.0, 1.7052701507697563E9, 0.0, 2024-01-14 17:09:10.769
23.0, 438.25643640756607, -81.61957663297653, -11.24961906671524, -74.43896871805191, -0.7840000372380018, -0.7840000372380018, 0.7840000372380018, 0.0, 0.0, 0.0, 0.0, 0.0, 1.7052701507854753E9, 0.0, 2024-01-14 17:09:10.785
23.0, 500.7277252674103, -66.54030001163483, 232.41234284639359, -59.359692096710205, -0.7840000372380018, -0.7840000372380018, 0.7840000372380018, 0.0, 0.0, 0.0, 0.0, 0.0, 1.7052701507854753E9, 0.0, 2024-01-14 17:09:10.785
24.0, 418.8687950372696, -146.72375506162643, 196.74865686893463, -137.62831836938858, -0.7840000372380018, -0.7840000372380018, 0.7840000372380018, 0.0, 0.0, 0.0, 0.0, 0.0, 1.7052701507861395E9, 0.0, 2024-01-14 17:09:10.786
24.0, 409.29465115070343, -108.42717951536179, -30.63726043701172, -99.33174282312393, -0.7840000372380018, -0.7840000372380018, 0.7840000372380018, 0.0, 0.0, 0.0, 0.0, 0.0, 1.7052701507861395E9, 0.0, 2024-01-14 17:09:10.786
25.0, 497.3767749071121, -48.110073029994965, 151.98953419923782, -46.434597849845886, -0.7840000372380018, -0.7840000372380018, 0.7840000372380018, 0.0, 0.0, 0.0, 0.0, 0.0, 1.7052701507998376E9, 0.0, 2024-01-14 17:09:10.799
25.0, 455.7292490005493, -128.77223527431488, 257.54447054862976, -114.65037304162979, -0.7840000372380018, -0.7840000372380018, 0.7840000372380018, 0.0, 0.0, 0.0, 0.0, 0.0, 1.7052701507998376E9, 0.0, 2024-01-14 17:09:10.799
26.0, 397.5663248896599, -132.3625392317772, 24.414066910743713, -125.66063851118088, -0.7840000372380018, -0.7840000372380018, 0.7840000372380018, 0.0, 0.0, 0.0, 0.0, 0.0, 1.7052701508154833E9, 0.0, 2024-01-14 17:09:10.815
26.0, 477.98913353681564, -51.700376987457275, 62.949996054172516, -44.99847626686096, -0.7840000372380018, -0.7840000372380018, 0.7840000372380018, 0.0, 0.0, 0.0, 0.0, 0.0, 1.7052701508154833E9, 0.0, 2024-01-14 17:09:10.815
27.0, 489.47810620069504, -91.672427713871, 288.42108458280563, -81.85893023014069, -0.7840000372380018, -0.7840000372380018, 0.7840000372380018, 0.0, 0.0, 0.0, 0.0, 0.0, 1.7052701508161547E9, 0.0, 2024-01-14 17:09:10.816
27.0, 408.09788316488266, -143.85151189565659, 120.63421297073364, -130.2083568572998, -0.7840000372380018, -0.7840000372380018, 0.7840000372380018, 0.0, 0.0, 0.0, 0.0, 0.0, 1.7052701508161547E9, 0.0, 2024-01-14 17:09:10.816
28.0, 444.4796299338341, -68.2157751917839, 7.180607914924622, -62.47128885984421, -0.7840000372380018, -0.7840000372380018, 0.7840000372380018, 0.0, 0.0, 0.0, 0.0, 0.0, 1.7052701508306663E9, 0.0, 2024-01-14 17:09:10.830
28.0, 500.96707886457443, -70.13060396909714, 234.56652522087097, -61.27452087402344, -0.7840000372380018, -0.7840000372380018, 0.7840000372380018, 0.0, 0.0, 0.0, 0.0, 0.0, 1.7052701508306663E9, 0.0, 2024-01-14 17:09:10.830
29.0, 421.022977411747, -150.0747054219246, 198.66348564624786, -139.0644399523735, -0.7840000372380018, -0.7840000372380018, 0.7840000372380018, 0.0, 0.0, 0.0, 0.0, 0.0, 1.705270150845504E9, 0.0, 2024-01-14 17:09:10.845
29.0, 406.9011151790619, -109.3845939040184, -26.08954209089279, -105.31558275222778, -0.7840000372380018, -0.7840000372380018, 0.7840000372380018, 0.0, 0.0, 0.0, 0.0, 0.0, 1.705270150845504E9, 0.0, 2024-01-14 17:09:10.845
30.0, 496.65871411561966, -54.81197375059128, 148.3992302417755, -51.93973058462143, -0.7840000372380018, -0.7840000372380018, 0.8960000425577164, 0.0, 0.0, 0.0, 0.0, 0.0, 1.7052701508461592E9, 0.0, 2024-01-14 17:09:10.846
30.0, 446.15510511398315, -131.16577124595642, 257.7838241457939, -119.91615217924118, -0.7840000372380018, -0.7840000372380018, 0.8960000425577164, 0.0, 0.0, 0.0, 0.0, 0.0, 1.7052701508461592E9, 0.0, 2024-01-14 17:09:10.846
31.0, 391.1037777662277, -135.9528431892395, 15.797337412834167, -129.2509424686432, -0.7840000372380018, -0.8960000425577164, 0.8960000425577164, 0.0, 0.0, 0.0, 0.0, 0.0, 1.705270150859976E9, 0.0, 2024-01-14 17:09:10.859
31.0, 475.35624396800995, -60.79581367969513, 54.33326655626297, -49.78554821014404, -0.7840000372380018, -0.8960000425577164, 0.8960000425577164, 0.0, 0.0, 0.0, 0.0, 0.0, 1.705270150859976E9, 0.0, 2024-01-14 17:09:10.859
32.0, 481.8187910914421, -95.26273167133331, 283.63401263952255, -83.53440541028976, -0.8960000425577164, -0.8960000425577164, 0.8960000425577164, 0.0, 0.0, 0.0, 0.0, 0.0, 1.7052701508920124E9, 0.0, 2024-01-14 17:09:10.892
32.0, 397.0876176953316, -148.3992302417755, 115.84714102745056, -145.52698707580566, -0.8960000425577164, -0.8960000425577164, 0.8960000425577164, 0.0, 0.0, 0.0, 0.0, 0.0, 1.7052701508920124E9, 0.0, 2024-01-14 17:09:10.892
33.0, 444.4796299338341, -84.25246620178223, -13.403801441192627, -74.67832231521606, -0.8960000425577164, -0.8960000425577164, 0.8960000425577164, 0.0, 0.0, 0.0, 0.0, 0.0, 1.7052701508925498E9, 0.0, 2024-01-14 17:09:10.892
33.0, 503.1212612390518, -69.41254317760468, 229.30074608325958, -57.92357051372528, -0.8960000425577164, -0.8960000425577164, 0.8960000425577164, 0.0, 0.0, 0.0, 0.0, 0.0, 1.7052701508925498E9, 0.0, 2024-01-14 17:09:10.892
34.0, 425.33134216070175, -144.56957268714905, 197.9454248547554, -139.0644399523735, -0.8960000425577164, -0.8960000425577164, 0.8960000425577164, 0.0, 0.0, 0.0, 0.0, 0.0, 1.7052701508933234E9, 0.0, 2024-01-14 17:09:10.893
34.0, 411.4488335251808, -105.79428994655609, -24.17471331357956, -97.4169140458107, -0.8960000425577164, -0.8960000425577164, 0.8960000425577164, 0.0, 0.0, 0.0, 0.0, 0.0, 1.7052701508933234E9, 0.0, 2024-01-14 17:09:10.893
35.0, 493.3077637553215, -57.92357051372528, 146.72375506162643, -45.47718346118927, -0.8960000425577164, -0.8960000425577164, 0.8960000425577164, 0.0, 0.0, 0.0, 0.0, 0.0, 1.7052701508940468E9, 0.0, 2024-01-14 17:09:10.894
35.0, 449.027348279953, -128.05417448282242, 261.13477450609207, -114.41101944446564, -0.8960000425577164, -0.8960000425577164, 0.8960000425577164, 0.0, 0.0, 0.0, 0.0, 0.0, 1.7052701508940468E9, 0.0, 2024-01-14 17:09:10.894
36.0, 390.86442416906357, -140.50056153535843, 20.823762953281403, -132.3625392317772, -0.8960000425577164, -0.8960000425577164, 0.8960000425577164, 0.0, 0.0, 0.0, 0.0, 0.0, 1.7052701509048676E9, 0.0, 2024-01-14 17:09:10.904
36.0, 463.38856410980225, -62.949996054172516, 51.22166979312897, -60.556460082530975, -0.8960000425577164, -0.8960000425577164, 0.8960000425577164, 0.0, 0.0, 0.0, 0.0, 0.0, 1.7052701509048676E9, 0.0, 2024-01-14 17:09:10.904
37.0, 470.3298184275627, -113.93231225013733, 258.2625313401222, -99.33174282312393, -0.8960000425577164, -0.8960000425577164, 0.8960000425577164, 0.0, 0.0, 0.0, 0.0, 0.0, 1.705270150919989E9, 0.0, 2024-01-14 17:09:10.919
37.0, 396.60891050100327, -154.86177736520767, 101.72527879476547, -146.48440146446228, -0.8960000425577164, -0.8960000425577164, 0.8960000425577164, 0.0, 0.0, 0.0, 0.0, 0.0, 1.705270150919989E9, 0.0, 2024-01-14 17:09:10.919
38.0, 440.6499723792076, -83.53440541028976, -11.728326261043549, -74.67832231521606, -0.8960000425577164, -0.8960000425577164, 0.8960000425577164, 0.0, 0.0, 0.0, 0.0, 0.0, 1.70527015093558E9, 0.0, 2024-01-14 17:09:10.935
38.0, 486.1271558403969, -82.09828382730484, 222.12013816833496, -76.83250468969345, -0.8960000425577164, -0.8960000425577164, 0.8960000425577164, 0.0, 0.0, 0.0, 0.0, 0.0, 1.70527015093558E9, 0.0, 2024-01-14 17:09:10.935
39.0, 409.29465115070343, -158.21272772550583, 186.456452190876, -147.20246225595474, -0.8960000425577164, -0.8960000425577164, 0.8960000425577164, 0.0, 0.0, 0.0, 0.0, 0.0, 1.7052701509362671E9, 0.0, 2024-01-14 17:09:10.936
39.0, 398.76309287548065, -117.7619698047638, -33.27015000581741, -110.10265469551086, -0.8960000425577164, -0.8960000425577164, 0.8960000425577164, 0.0, 0.0, 0.0, 0.0, 0.0, 1.7052701509362671E9, 0.0, 2024-01-14 17:09:10.936
40.0, 475.1168903708458, -68.45512878894806, 133.08060002326965, -65.58288562297821, -0.8960000425577164, -0.8960000425577164, 0.944000044837594, 0.0, 0.0, 0.0, 0.0, 0.0, 1.70527015094972E9, 0.0, 2024-01-14 17:09:10.949
40.0, 424.85263496637344, -150.5534126162529, 233.60911083221436, -136.4315503835678, -0.8960000425577164, -0.8960000425577164, 0.944000044837594, 0.0, 0.0, 0.0, 0.0, 0.0, 1.70527015094972E9, 0.0, 2024-01-14 17:09:10.949
41.0, 380.09351229667664, -155.34048455953598, -1.9148287773132324, -146.24504786729813, -0.8960000425577164, -0.944000044837594, 0.944000044837594, 0.0, 0.0, 0.0, 0.0, 0.0, 1.7052701509654999E9, 0.0, 2024-01-14 17:09:10.965
41.0, 452.37829864025116, -77.0718582868576, 29.679846048355103, -75.15702950954437, -0.8960000425577164, -0.944000044837594, 0.944000044837594, 0.0, 0.0, 0.0, 0.0, 0.0, 1.7052701509654999E9, 0.0, 2024-01-14 17:09:10.965
42.0, 462.43114972114563, -121.59162735939026, 251.79998421669006, -105.55493634939194, -0.944000044837594, -0.944000044837594, 0.944000044837594, 0.0, 0.0, 0.0, 0.0, 0.0, 1.7052701509661524E9, 0.0, 2024-01-14 17:09:10.966
42.0, 395.8908497095108, -151.98953419923782, 95.02337807416916, -139.5431471467018, -0.944000044837594, -0.944000044837594, 0.944000044837594, 0.0, 0.0, 0.0, 0.0, 0.0, 1.7052701509661524E9, 0.0, 2024-01-14 17:09:10.966
43.0, 450.4634698629379, -69.17318958044052, -10.05285108089447, -57.44486331939697, -0.944000044837594, -0.944000044837594, 0.944000044837594, 0.0, 0.0, 0.0, 0.0, 0.0, 1.7052701509798E9, 0.0, 2024-01-14 17:09:10.979
43.0, 514.1315267086029, -55.53003454208374, 230.97622126340866, -43.80170828104019, -0.944000044837594, -0.944000044837594, 0.944000044837594, 0.0, 0.0, 0.0, 0.0, 0.0, 1.7052701509798E9, 0.0, 2024-01-14 17:09:10.979
44.0, 461.71308892965317, -108.18782591819763, 229.30074608325958, -97.89562124013901, -0.944000044837594, -0.944000044837594, 0.944000044837594, 0.0, 0.0, 0.0, 0.0, 0.0, 1.7052701509955049E9, 0.0, 2024-01-14 17:09:10.995
44.0, 464.34597849845886, -55.769388139247894, 18.669580578804016, -44.041061878204346, -0.944000044837594, -0.944000044837594, 0.944000044837594, 0.0, 0.0, 0.0, 0.0, 0.0, 1.7052701509955049E9, 0.0, 2024-01-14 17:09:10.995
45.0, 543.0933119654655, -5.744486331939697, 196.50930327177048, -1.9148287773132324, -0.944000044837594, -0.944000044837594, 0.944000044837594, 0.0, 0.0, 0.0, 0.0, 0.0, 1.7052701509961803E9, 0.0, 2024-01-14 17:09:10.996
45.0, 501.92449325323105, -78.50797986984253, 306.13325077295303, -64.86482483148575, -0.944000044837594, -0.944000044837594, 0.944000044837594, 0.0, 0.0, 0.0, 0.0, 0.0, 1.7052701509961803E9, 0.0, 2024-01-14 17:09:10.996
46.0, 449.26670187711716, -76.5931510925293, 80.42280864715576, -69.65189677476883, -0.944000044837594, -0.944000044837594, 0.944000044837594, 0.0, 0.0, 0.0, 0.0, 0.0, 1.7052701510101068E9, 0.0, 2024-01-14 17:09:11.010
46.0, 516.5250626802444, -4.069011151790619, 102.68269318342209, -4.308364748954773, -0.944000044837594, -0.944000044837594, 0.944000044837594, 0.0, 0.0, 0.0, 0.0, 0.0, 1.7052701510101068E9, 0.0, 2024-01-14 17:09:11.010
47.0, 515.5676482915878, -64.6254712343216, 305.6545435786247, -51.46102339029312, -0.944000044837594, -0.944000044837594, 0.944000044837594, 0.0, 0.0, 0.0, 0.0, 0.0, 1.7052701510417893E9, 0.0, 2024-01-14 17:09:11.041
47.0, 441.6073867678642, -107.94847232103348, 143.85151189565659, -93.58725649118423, -0.944000044837594, -0.944000044837594, 0.944000044837594, 0.0, 0.0, 0.0, 0.0, 0.0, 1.7052701510417893E9, 0.0, 2024-01-14 17:09:11.041
48.0, 479.42525511980057, -45.95589065551758, 18.430226981639862, -36.62110036611557, -0.944000044837594, -0.944000044837594, 0.944000044837594, 0.0, 0.0, 0.0, 0.0, 0.0, 1.7052701510425584E9, 0.0, 2024-01-14 17:09:11.042
48.0, 512.9347587227821, -54.81197375059128, 241.02907234430313, -41.647525906562805, -0.944000044837594, -0.944000044837594, 0.944000044837594, 0.0, 0.0, 0.0, 0.0, 0.0, 1.7052701510425584E9, 0.0, 2024-01-14 17:09:11.042
49.0, 443.2828619480133, -122.30968815088272, 213.0247014760971, -115.84714102745056, -0.944000044837594, -0.944000044837594, 0.944000044837594, 0.0, 0.0, 0.0, 0.0, 0.0, 1.7052701510434802E9, 0.0, 2024-01-14 17:09:11.043
49.0, 422.69845259189606, -87.12470936775208, -16.03669100999832, -85.449234187603, -0.944000044837594, -0.944000044837594, 0.944000044837594, 0.0, 0.0, 0.0, 0.0, 0.0, 1.7052701510434802E9, 0.0, 2024-01-14 17:09:11.043
50.0, 498.33418929576874, -56.2480953335762, 142.89409750699997, -45.95589065551758, -0.944000044837594, -0.944000044837594, 1.008000047877431, 0.0, 0.0, 0.0, 0.0, 0.0, 1.7052701510441782E9, 0.0, 2024-01-14 17:09:11.044
50.0, 446.63381230831146, -137.14961117506027, 245.8161442875862, -118.2406769990921, -0.944000044837594, -0.944000044837594, 1.008000047877431, 0.0, 0.0, 0.0, 0.0, 0.0, 1.7052701510441782E9, 0.0, 2024-01-14 17:09:11.044
51.0, 386.0773522257805, -138.1070255637169, 9.334790289402008, -132.12318563461304, -0.944000044837594, -1.008000047877431, 1.008000047877431, 0.0, 0.0, 0.0, 0.0, 0.0, 1.7052701510547576E9, 0.0, 2024-01-14 17:09:11.054
51.0, 460.75567454099655, -62.949996054172516, 47.87071943283081, -63.18934965133667, -0.944000044837594, -1.008000047877431, 1.008000047877431, 0.0, 0.0, 0.0, 0.0, 0.0, 1.7052701510547576E9, 0.0, 2024-01-14 17:09:11.054
52.0, 453.0963594317436, -120.39485937356949, 255.86899536848068, -108.66653311252594, -1.008000047877431, -1.008000047877431, 1.008000047877431, 0.0, 0.0, 0.0, 0.0, 0.0, 1.7052701510699148E9, 0.0, 2024-01-14 17:09:11.069
52.0, 383.68381625413895, -158.45208132266998, 91.1937205195427, -149.59599822759628, -1.008000047877431, -1.008000047877431, 1.008000047877431, 0.0, 0.0, 0.0, 0.0, 0.0, 1.7052701510699148E9, 0.0, 2024-01-14 17:09:11.069
53.0, 424.85263496637344, -89.27889174222946, -22.020530939102173, -85.20988059043884, -1.008000047877431, -1.008000047877431, 1.008000047877431, 0.0, 0.0, 0.0, 0.0, 0.0, 1.70527015108559E9, 0.0, 2024-01-14 17:09:11.085
53.0, 471.76594001054764, -90.95436692237854, 210.15245831012726, -86.64600217342377, -1.008000047877431, -1.008000047877431, 1.008000047877431, 0.0, 0.0, 0.0, 0.0, 0.0, 1.70527015108559E9, 0.0, 2024-01-14 17:09:11.085
54.0, 407.14046877622604, -162.5210924744606, 179.7545514702797, -146.00569427013397, -1.008000047877431, -1.008000047877431, 1.008000047877431, 0.0, 0.0, 0.0, 0.0, 0.0, 1.7052701510861905E9, 0.0, 2024-01-14 17:09:11.086
54.0, 398.0450320839882, -123.74580973386765, -41.88687950372696, -113.45360505580902, -1.008000047877431, -1.008000047877431, 1.008000047877431, 0.0, 0.0, 0.0, 0.0, 0.0, 1.7052701510861905E9, 0.0, 2024-01-14 17:09:11.086
55.0, 478.2284871339798, -60.07775288820267, 133.55930721759796, -59.59904569387436, -1.008000047877431, -1.008000047877431, 1.008000047877431, 0.0, 0.0, 0.0, 0.0, 0.0, 1.7052701510997863E9, 0.0, 2024-01-14 17:09:11.099
55.0, 439.2138507962227, -138.34637916088104, 236.9600611925125, -129.7296496629715, -1.008000047877431, -1.008000047877431, 1.008000047877431, 0.0, 0.0, 0.0, 0.0, 0.0, 1.7052701510997863E9, 0.0, 2024-01-14 17:09:11.099
56.0, 385.11993783712387, -140.50056153535843, 8.8560830950737, -132.8412464261055, -1.008000047877431, -1.008000047877431, 1.008000047877431, 0.0, 0.0, 0.0, 0.0, 0.0, 1.7052701511154575E9, 0.0, 2024-01-14 17:09:11.115
56.0, 459.79826015233994, -71.08801835775375, 39.49334353208542, -60.79581367969513, -1.008000047877431, -1.008000047877431, 1.008000047877431, 0.0, 0.0, 0.0, 0.0, 0.0, 1.7052701511154575E9, 0.0, 2024-01-14 17:09:11.115
57.0, 466.50016087293625, -118.00132340192795, 249.88515543937683, -101.00721800327301, -1.008000047877431, -1.008000047877431, 1.008000047877431, 0.0, 0.0, 0.0, 0.0, 0.0, 1.705270151116214E9, 0.0, 2024-01-14 17:09:11.116
57.0, 389.6676561832428, -150.79276621341705, 98.37432843446732, -141.45797592401505, -1.008000047877431, -1.008000047877431, 1.008000047877431, 0.0, 0.0, 0.0, 0.0, 0.0, 1.705270151116214E9, 0.0, 2024-01-14 17:09:11.116
58.0, 427.00681734085083, -90.23630613088608, -25.37148129940033, -81.61957663297653, -1.008000047877431, -1.008000047877431, 1.008000047877431, 0.0, 0.0, 0.0, 0.0, 0.0, 1.7052701511297786E9, 0.0, 2024-01-14 17:09:11.129
58.0, 470.56917202472687, -98.13497483730316, 196.03059607744217, -88.560830950737, -1.008000047877431, -1.008000047877431, 1.008000047877431, 0.0, 0.0, 0.0, 0.0, 0.0, 1.7052701511297786E9, 0.0, 2024-01-14 17:09:11.129
59.0, 405.46499359607697, -161.32432448863983, 177.83972269296646, -149.59599822759628, -1.008000047877431, -1.008000047877431, 1.008000047877431, 0.0, 0.0, 0.0, 0.0, 0.0, 1.7052701511457913E9, 0.0, 2024-01-14 17:09:11.145
59.0, 396.3695569038391, -121.11292016506195, -44.519769072532654, -111.77812987565994, -1.008000047877431, -1.008000047877431, 1.008000047877431, 0.0, 0.0, 0.0, 0.0, 0.0, 1.7052701511457913E9, 0.0, 2024-01-14 17:09:11.145
60.0, 477.2710727453232, -76.35379749536514, 123.02774894237518, -66.30094641447067, -1.008000047877431, -1.008000047877431, 0.9600000455975533, 0.0, 0.0, 0.0, 0.0, 0.0, 1.7052701511461835E9, 0.0, 2024-01-14 17:09:11.146
60.0, 433.70871806144714, -149.59599822759628, 225.23173493146896, -133.55930721759796, -1.008000047877431, -1.008000047877431, 0.9600000455975533, 0.0, 0.0, 0.0, 0.0, 0.0, 1.7052701511461835E9, 0.0, 2024-01-14 17:09:11.146
61.0, 373.3916115760803, -166.1113964319229, -19.866348564624786, -145.52698707580566, -1.008000047877431, -0.9600000455975533, 0.9600000455975533, 0.0, 0.0, 0.0, 0.0, 0.0, 1.705270151160211E9, 0.0, 2024-01-14 17:09:11.160
61.0, 436.34160763025284, -90.95436692237854, 22.49923813343048, -87.60341656208038, -1.008000047877431, -0.9600000455975533, 0.9600000455975533, 0.0, 0.0, 0.0, 0.0, 0.0, 1.705270151160211E9, 0.0, 2024-01-14 17:09:11.160
62.0, 454.2931274175644, -123.02774894237518, 257.54447054862976, -118.48003059625626, -0.9600000455975533, -0.9600000455975533, 0.9600000455975533, 0.0, 0.0, 0.0, 0.0, 0.0, 1.705270151175769E9, 0.0, 2024-01-14 17:09:11.175
62.0, 365.49294286966324, -178.55778348445892, 90.71501332521439, -167.786871612072, -0.9600000455975533, -0.9600000455975533, 0.9600000455975533, 0.0, 0.0, 0.0, 0.0, 0.0, 1.705270151175769E9, 0.0, 2024-01-14 17:09:11.175
63.0, 408.3372367620468, -104.59752196073532, -15.31863021850586, -97.4169140458107, -0.9600000455975533, -0.9600000455975533, 0.9600000455975533, 0.0, 0.0, 0.0, 0.0, 0.0, 1.705270151176282E9, 0.0, 2024-01-14 17:09:11.176
63.0, 444.71898353099823, -107.23041152954102, 208.47698312997818, -104.35816836357117, -0.9600000455975533, -0.9600000455975533, 0.9600000455975533, 0.0, 0.0, 0.0, 0.0, 0.0, 1.705270151176282E9, 0.0, 2024-01-14 17:09:11.176
64.0, 366.92906445264816, -183.10550183057785, 179.27584427595139, -181.43002665042877, -0.9600000455975533, -0.9600000455975533, 0.9600000455975533, 0.0, 0.0, 0.0, 0.0, 0.0, 1.7052701511897457E9, 0.0, 2024-01-14 17:09:11.189
64.0, 352.32849502563477, -155.10113096237183, -51.700376987457275, -147.4418158531189, -0.9600000455975533, -0.9600000455975533, 0.9600000455975533, 0.0, 0.0, 0.0, 0.0, 0.0, 1.7052701511897457E9, 0.0, 2024-01-14 17:09:11.189
65.0, 417.6720270514488, -101.48592519760132, 126.6180528998375, -110.58136188983917, -0.9600000455975533, -0.9600000455975533, 0.9600000455975533, 0.0, 0.0, 0.0, 0.0, 0.0, 1.7052701512222075E9, 0.0, 2024-01-14 17:09:11.222
65.0, 371.23742920160294, -178.55778348445892, 224.9923813343048, -177.83972269296646, -0.9600000455975533, -0.9600000455975533, 0.9600000455975533, 0.0, 0.0, 0.0, 0.0, 0.0, 1.7052701512222075E9, 0.0, 2024-01-14 17:09:11.222
66.0, 324.0847705602646, -175.68554031848907, -8.616729497909546, -178.79713708162308, -0.9600000455975533, -0.9600000455975533, 0.9600000455975533, 0.0, 0.0, 0.0, 0.0, 0.0, 1.7052701512225914E9, 0.0, 2024-01-14 17:09:11.222
66.0, 395.4121425151825, -103.6401075720787, 31.35532122850418, -110.82071548700333, -0.9600000455975533, -0.9600000455975533, 0.9600000455975533, 0.0, 0.0, 0.0, 0.0, 0.0, 1.7052701512225914E9, 0.0, 2024-01-14 17:09:11.222
67.0, 396.60891050100327, -155.8191917538643, 238.15682917833328, -154.1437165737152, -0.9600000455975533, -0.9600000455975533, 0.9600000455975533, 0.0, 0.0, 0.0, 0.0, 0.0, 1.7052701512234714E9, 0.0, 2024-01-14 17:09:11.223
67.0, 321.69123458862305, -197.70607125759125, 75.15702950954437, -198.66348564624786, -0.9600000455975533, -0.9600000455975533, 0.9600000455975533, 0.0, 0.0, 0.0, 0.0, 0.0, 1.7052701512234714E9, 0.0, 2024-01-14 17:09:11.223
68.0, 368.60453963279724, -130.2083568572998, -37.09980756044388, -131.88383203744888, -0.9600000455975533, -0.9600000455975533, 0.9600000455975533, 0.0, 0.0, 0.0, 0.0, 0.0, 1.7052701512240217E9, 0.0, 2024-01-14 17:09:11.224
68.0, 415.2784910798073, -132.3625392317772, 185.73839139938354, -128.77223527431488, -0.9600000455975533, -0.9600000455975533, 0.9600000455975533, 0.0, 0.0, 0.0, 0.0, 0.0, 1.7052701512240217E9, 0.0, 2024-01-14 17:09:11.224
69.0, 350.6530198454857, -203.45055758953094, 156.53725254535675, -190.28610974550247, -0.9600000455975533, -0.9600000455975533, 0.9600000455975533, 0.0, 0.0, 0.0, 0.0, 0.0, 1.7052701512352264E9, 0.0, 2024-01-14 17:09:11.235
69.0, 347.30206948518753, -159.8882029056549, -67.25836080312729, -157.01595973968506, -0.9600000455975533, -0.9600000455975533, 0.9600000455975533, 0.0, 0.0, 0.0, 0.0, 0.0, 1.7052701512352264E9, 0.0, 2024-01-14 17:09:11.235
70.0, 415.51784467697144, -116.32584822177887, 102.68269318342209, -111.77812987565994, -0.9600000455975533, -0.9600000455975533, 0.9760000463575125, 0.0, 0.0, 0.0, 0.0, 0.0, 1.7052701512499957E9, 0.0, 2024-01-14 17:09:11.249
70.0, 378.6573907136917, -191.00417053699493, 215.89694464206696, -170.65911477804184, -0.9600000455975533, -0.9600000455975533, 0.9760000463575125, 0.0, 0.0, 0.0, 0.0, 0.0, 1.7052701512499957E9, 0.0, 2024-01-14 17:09:11.249
71.0, 334.3769752383232, -178.31842988729477, -8.616729497909546, -169.46234679222107, -0.9600000455975533, -0.9760000463575125, 0.9760000463575125, 0.0, 0.0, 0.0, 0.0, 0.0, 1.705270151265865E9, 0.0, 2024-01-14 17:09:11.265
71.0, 404.98628640174866, -103.1614003777504, 23.935359716415405, -103.6401075720787, -0.9600000455975533, -0.9760000463575125, 0.9760000463575125, 0.0, 0.0, 0.0, 0.0, 0.0, 1.705270151265865E9, 0.0, 2024-01-14 17:09:11.265
72.0, 411.68818712234497, -146.24504786729813, 240.55036514997482, -140.97926872968674, -0.9760000463575125, -0.9760000463575125, 0.9760000463575125, 0.0, 0.0, 0.0, 0.0, 0.0, 1.7052701512663636E9, 0.0, 2024-01-14 17:09:11.266
72.0, 341.55758315324783, -183.10550183057785, 85.20988059043884, -185.02033060789108, -0.9760000463575125, -0.9760000463575125, 0.9760000463575125, 0.0, 0.0, 0.0, 0.0, 0.0, 1.7052701512663636E9, 0.0, 2024-01-14 17:09:11.266
73.0, 390.38571697473526, -113.93231225013733, -23.69600611925125, -113.21425145864487, -0.9760000463575125, -0.9760000463575125, 0.9760000463575125, 0.0, 0.0, 0.0, 0.0, 0.0, 1.705270151279771E9, 0.0, 2024-01-14 17:09:11.279
73.0, 428.44293892383575, -112.73554426431656, 201.0570216178894, -111.53877627849579, -0.9760000463575125, -0.9760000463575125, 0.9760000463575125, 0.0, 0.0, 0.0, 0.0, 0.0, 1.705270151279771E9, 0.0, 2024-01-14 17:09:11.279
74.0, 369.3226004242897, -189.32869535684586, 161.56367808580399, -175.92489391565323, -0.9760000463575125, -0.9760000463575125, 0.9760000463575125, 0.0, 0.0, 0.0, 0.0, 0.0, 1.705270151295446E9, 0.0, 2024-01-14 17:09:11.295
74.0, 362.38134610652924, -150.31405901908875, -51.46102339029312, -138.1070255637169, -0.9760000463575125, -0.9760000463575125, 0.9760000463575125, 0.0, 0.0, 0.0, 0.0, 0.0, 1.705270151295446E9, 0.0, 2024-01-14 17:09:11.295
75.0, 432.9906572699547, -106.51235073804855, 114.88972663879395, -104.11881476640701, -0.9760000463575125, -0.9760000463575125, 0.9760000463575125, 0.0, 0.0, 0.0, 0.0, 0.0, 1.7052701512961807E9, 0.0, 2024-01-14 17:09:11.296
75.0, 385.11993783712387, -176.16424751281738, 216.1362982392311, -167.06881082057953, -0.9760000463575125, -0.9760000463575125, 0.9760000463575125, 0.0, 0.0, 0.0, 0.0, 0.0, 1.7052701512961807E9, 0.0, 2024-01-14 17:09:11.296
76.0, 336.5311576128006, -175.92489391565323, -2.6328895688056946, -173.05265074968338, -0.9760000463575125, -0.9760000463575125, 0.9760000463575125, 0.0, 0.0, 0.0, 0.0, 0.0, 1.705270151309951E9, 0.0, 2024-01-14 17:09:11.309
76.0, 410.25206553936005, -105.79428994655609, 27.286310076713562, -103.6401075720787, -0.9760000463575125, -0.9760000463575125, 0.9760000463575125, 0.0, 0.0, 0.0, 0.0, 0.0, 1.705270151309951E9, 0.0, 2024-01-14 17:09:11.309
77.0, 428.44293892383575, -140.73991513252258, 247.01291227340698, -134.75607520341873, -0.9760000463575125, -0.9760000463575125, 0.9760000463575125, 0.0, 0.0, 0.0, 0.0, 0.0, 1.7052701513258862E9, 0.0, 2024-01-14 17:09:11.325
77.0, 350.6530198454857, -187.89257377386093, 80.66216224431992, -178.07907629013062, -0.9760000463575125, -0.9760000463575125, 0.9760000463575125, 0.0, 0.0, 0.0, 0.0, 0.0, 1.7052701513258862E9, 0.0, 2024-01-14 17:09:11.325
78.0, 391.8218385577202, -118.95873779058456, -31.35532122850418, -115.84714102745056, -0.9760000463575125, -0.9760000463575125, 0.9760000463575125, 0.0, 0.0, 0.0, 0.0, 0.0, 1.7052701513264167E9, 0.0, 2024-01-14 17:09:11.326
78.0, 441.6073867678642, -117.28326261043549, 200.5783144235611, -112.0174834728241, -0.9760000463575125, -0.9760000463575125, 0.9760000463575125, 0.0, 0.0, 0.0, 0.0, 0.0, 1.7052701513264167E9, 0.0, 2024-01-14 17:09:11.326
79.0, 369.801307618618, -184.30226981639862, 174.01006513834, -179.27584427595139, -0.9760000463575125, -0.9760000463575125, 0.9760000463575125, 0.0, 0.0, 0.0, 0.0, 0.0, 1.7052701513397386E9, 0.0, 2024-01-14 17:09:11.339
79.0, 363.0994068980217, -139.5431471467018, -44.041061878204346, -136.91025757789612, -0.9760000463575125, -0.9760000463575125, 0.9760000463575125, 0.0, 0.0, 0.0, 0.0, 0.0, 1.7052701513397386E9, 0.0, 2024-01-14 17:09:11.339
80.0, 443.2828619480133, -97.4169140458107, 121.59162735939026, -93.82661008834839, -0.9760000463575125, -0.9760000463575125, 0.9920000471174717, 0.0, 0.0, 0.0, 0.0, 0.0, 1.7052701513552313E9, 0.0, 2024-01-14 17:09:11.355
80.0, 399.0024464726448, -170.18040758371353, 225.47108852863312, -162.28173887729645, -0.9760000463575125, -0.9760000463575125, 0.9920000471174717, 0.0, 0.0, 0.0, 0.0, 0.0, 1.7052701513552313E9, 0.0, 2024-01-14 17:09:11.355
81.0, 356.3975061774254, -171.61652916669846, -2.3935359716415405, -162.76044607162476, -0.9760000463575125, -0.9920000471174717, 0.9920000471174717, 0.0, 0.0, 0.0, 0.0, 0.0, 1.7052701513704736E9, 0.0, 2024-01-14 17:09:11.370
81.0, 432.7513036727905, -95.50208526849747, 35.663685977458954, -85.449234187603, -0.9760000463575125, -0.9920000471174717, 0.9920000471174717, 0.0, 0.0, 0.0, 0.0, 0.0, 1.7052701513704736E9, 0.0, 2024-01-14 17:09:11.370
82.0, 445.67639791965485, -140.50056153535843, 241.50777953863144, -126.85740649700165, -0.9920000471174717, -0.9920000471174717, 0.9920000471174717, 0.0, 0.0, 0.0, 0.0, 0.0, 1.7052701513711627E9, 0.0, 2024-01-14 17:09:11.371
82.0, 363.81746768951416, -176.88230830430984, 83.53440541028976, -169.46234679222107, -0.9920000471174717, -0.9920000471174717, 0.9920000471174717, 0.0, 0.0, 0.0, 0.0, 0.0, 1.7052701513711627E9, 0.0, 2024-01-14 17:09:11.371
83.0, 408.8159439563751, -99.09238922595978, -16.276044607162476, -98.85303562879562, -0.9920000471174717, -0.9920000471174717, 0.9920000471174717, 0.0, 0.0, 0.0, 0.0, 0.0, 1.7052701513857718E9, 0.0, 2024-01-14 17:09:11.385
83.0, 460.0376137495041, -99.33174282312393, 221.4020773768425, -94.54467087984085, -0.9920000471174717, -0.9920000471174717, 0.9920000471174717, 0.0, 0.0, 0.0, 0.0, 0.0, 1.7052701513857718E9, 0.0, 2024-01-14 17:09:11.385
84.0, 398.76309287548065, -159.64884930849075, 193.63706010580063, -153.1863021850586, -0.9920000471174717, -0.9920000471174717, 0.9920000471174717, 0.0, 0.0, 0.0, 0.0, 0.0, 1.7052701513862762E9, 0.0, 2024-01-14 17:09:11.386
84.0, 382.00834107398987, -120.63421297073364, -30.397906839847565, -124.22451692819595, -0.9920000471174717, -0.9920000471174717, 0.9920000471174717, 0.0, 0.0, 0.0, 0.0, 0.0, 1.7052701513862762E9, 0.0, 2024-01-14 17:09:11.386
85.0, 457.8834313750267, -77.78991907835007, 136.67090398073196, -76.5931510925293, -0.9920000471174717, -0.9920000471174717, 0.9920000471174717, 0.0, 0.0, 0.0, 0.0, 0.0, 1.7052701513998382E9, 0.0, 2024-01-14 17:09:11.399
85.0, 419.58685582876205, -142.41539031267166, 240.07165795564651, -138.34637916088104, -0.9920000471174717, -0.9920000471174717, 0.9920000471174717, 0.0, 0.0, 0.0, 0.0, 0.0, 1.7052701513998382E9, 0.0, 2024-01-14 17:09:11.399
86.0, 361.18457812070847, -159.4094957113266, -1.1967679858207703, -151.98953419923782, -0.9920000471174717, -0.9920000471174717, 0.9920000471174717, 0.0, 0.0, 0.0, 0.0, 0.0, 1.705270151415442E9, 0.0, 2024-01-14 17:09:11.415
86.0, 426.5281101465225, -111.29942268133163, 20.10570216178894, -92.86919569969177, -0.9920000471174717, -0.9920000471174717, 0.9920000471174717, 0.0, 0.0, 0.0, 0.0, 0.0, 1.705270151415442E9, 0.0, 2024-01-14 17:09:11.415
87.0, 466.50016087293625, -109.14524030685425, 278.36823350191116, -101.72527879476547, -0.9920000471174717, -0.9920000471174717, 0.9920000471174717, 0.0, 0.0, 0.0, 0.0, 0.0, 1.7052701514162948E9, 0.0, 2024-01-14 17:09:11.416
87.0, 382.9657554626465, -160.36691009998322, 97.4169140458107, -152.46824139356613, -0.9920000471174717, -0.9920000471174717, 0.9920000471174717, 0.0, 0.0, 0.0, 0.0, 0.0, 1.7052701514162948E9, 0.0, 2024-01-14 17:09:11.416
88.0, 427.96423172950745, -90.23630613088608, -12.207033455371857, -85.68858778476715, -0.9920000471174717, -0.9920000471174717, 0.9920000471174717, 0.0, 0.0, 0.0, 0.0, 0.0, 1.7052701514298415E9, 0.0, 2024-01-14 17:09:11.429
88.0, 467.2182216644287, -104.59752196073532, 211.10987269878387, -94.54467087984085, -0.9920000471174717, -0.9920000471174717, 0.9920000471174717, 0.0, 0.0, 0.0, 0.0, 0.0, 1.7052701514298415E9, 0.0, 2024-01-14 17:09:11.429
89.0, 397.0876176953316, -174.4887723326683, 171.3771755695343, -163.95721405744553, -0.9920000471174717, -0.9920000471174717, 0.9920000471174717, 0.0, 0.0, 0.0, 0.0, 0.0, 1.705270151445452E9, 0.0, 2024-01-14 17:09:11.445
89.0, 387.75282740592957, -137.62831836938858, -51.700376987457275, -123.26710253953934, -0.9920000471174717, -0.9920000471174717, 0.9920000471174717, 0.0, 0.0, 0.0, 0.0, 0.0, 1.705270151445452E9, 0.0, 2024-01-14 17:09:11.445
90.0, 459.0801993608475, -104.59752196073532, 109.3845939040184, -90.95436692237854, -0.9920000471174717, -0.9920000471174717, 0.9760000463575125, 0.0, 0.0, 0.0, 0.0, 0.0, 1.7052701514461424E9, 0.0, 2024-01-14 17:09:11.446
90.0, 420.3049166202545, -164.91462844610214, 222.35949176549911, -149.83535182476044, -0.9920000471174717, -0.9920000471174717, 0.9760000463575125, 0.0, 0.0, 0.0, 0.0, 0.0, 1.7052701514461424E9, 0.0, 2024-01-14 17:09:11.446
91.0, 369.801307618618, -161.32432448863983, -1.1967679858207703, -144.8089262843132, -0.9920000471174717, -0.9760000463575125, 0.9760000463575125, 0.0, 0.0, 0.0, 0.0, 0.0, 1.70527015146006E9, 0.0, 2024-01-14 17:09:11.460
91.0, 447.83058029413223, -90.23630613088608, 36.381746768951416, -75.63573670387268, -0.9920000471174717, -0.9760000463575125, 0.9760000463575125, 0.0, 0.0, 0.0, 0.0, 0.0, 1.70527015146006E9, 0.0, 2024-01-14 17:09:11.460
92.0, 462.43114972114563, -132.60189282894135, 246.53420507907867, -116.08649462461472, -0.9760000463575125, -0.9760000463575125, 0.9760000463575125, 0.0, 0.0, 0.0, 0.0, 0.0, 1.7052701514757009E9, 0.0, 2024-01-14 17:09:11.475
92.0, 382.00834107398987, -168.7442860007286, 90.47565972805023, -155.8191917538643, -0.9760000463575125, -0.9760000463575125, 0.9760000463575125, 0.0, 0.0, 0.0, 0.0, 0.0, 1.7052701514757009E9, 0.0, 2024-01-14 17:09:11.475
93.0, 418.15073424577713, -105.55493634939194, -31.115967631340027, -97.89562124013901, -0.9760000463575125, -0.9760000463575125, 0.9760000463575125, 0.0, 0.0, 0.0, 0.0, 0.0, 1.705270151476231E9, 0.0, 2024-01-14 17:09:11.476
93.0, 472.24464720487595, -106.51235073804855, 193.63706010580063, -92.39048850536346, -0.9760000463575125, -0.9760000463575125, 0.9760000463575125, 0.0, 0.0, 0.0, 0.0, 0.0, 1.705270151476231E9, 0.0, 2024-01-14 17:09:11.476
94.0, 402.5927504301071, -174.4887723326683, 168.50493240356445, -154.62242376804352, -0.9760000463575125, -0.9760000463575125, 0.9760000463575125, 0.0, 0.0, 0.0, 0.0, 0.0, 1.705270151489908E9, 0.0, 2024-01-14 17:09:11.489
94.0, 389.42830258607864, -140.50056153535843, -59.12033849954605, -123.26710253953934, -0.9760000463575125, -0.9760000463575125, 0.9760000463575125, 0.0, 0.0, 0.0, 0.0, 0.0, 1.705270151489908E9, 0.0, 2024-01-14 17:09:11.489
95.0, 466.7395144701004, -96.22014605998993, 113.45360505580902, -80.18345504999161, -0.9760000463575125, -0.9760000463575125, 0.9760000463575125, 0.0, 0.0, 0.0, 0.0, 0.0, 1.705270151505466E9, 0.0, 2024-01-14 17:09:11.505
95.0, 426.7674637436867, -153.6650093793869, 237.43876838684082, -141.93668311834335, -0.9760000463575125, -0.9760000463575125, 0.9760000463575125, 0.0, 0.0, 0.0, 0.0, 0.0, 1.705270151505466E9, 0.0, 2024-01-14 17:09:11.505
96.0, 373.87031877040863, -158.9307885169983, 3.3509503602981567, -139.78250074386597, -0.9760000463575125, -0.9760000463575125, 0.9760000463575125, 0.0, 0.0, 0.0, 0.0, 0.0, 1.705270151506306E9, 0.0, 2024-01-14 17:09:11.506
96.0, 452.85700583457947, -78.50797986984253, 36.62110036611557, -66.54030001163483, -0.9760000463575125, -0.9760000463575125, 0.9760000463575125, 0.0, 0.0, 0.0, 0.0, 0.0, 1.705270151506306E9, 0.0, 2024-01-14 17:09:11.506
97.0, 453.0963594317436, -129.2509424686432, 246.53420507907867, -115.1290802359581, -0.9760000463575125, -0.9760000463575125, 0.9760000463575125, 0.0, 0.0, 0.0, 0.0, 0.0, 1.705270151519988E9, 0.0, 2024-01-14 17:09:11.519
97.0, 377.93932992219925, -166.82945722341537, 85.449234187603, -156.2978989481926, -0.9760000463575125, -0.9760000463575125, 0.9760000463575125, 0.0, 0.0, 0.0, 0.0, 0.0, 1.705270151519988E9, 0.0, 2024-01-14 17:09:11.519
98.0, 416.47525906562805, -98.61368203163147, -28.004370868206024, -93.82661008834839, -0.9760000463575125, -0.9760000463575125, 0.9760000463575125, 0.0, 0.0, 0.0, 0.0, 0.0, 1.7052701515351648E9, 0.0, 2024-01-14 17:09:11.535
98.0, 469.3724040389061, -101.96463239192963, 203.2112039923668, -89.99695253372192, -0.9760000463575125, -0.9760000463575125, 0.9760000463575125, 0.0, 0.0, 0.0, 0.0, 0.0, 1.7052701515351648E9, 0.0, 2024-01-14 17:09:11.535
0.0, 363.0994068980217, -163.71786046028137, -84.25246620178223, -146.00569427013397, -0.9760000463575125, -0.9760000463575125, 0.9920000471174717, 0.0, 0.0, 0.0, 0.0, 0.0, 1.7052701515505056E9, 0.0, 2024-01-14 17:09:11.550
0.0, 470.09046483039856, -99.09238922595978, 101.24657160043716, -75.63573670387268, -0.9760000463575125, -0.9760000463575125, 0.9920000471174717, 0.0, 0.0, 0.0, 0.0, 0.0, 1.7052701515505056E9, 0.0, 2024-01-14 17:09:11.550
1.0, 467.45757526159286, -129.49029606580734, 241.50777953863144, -97.89562124013901, -0.9760000463575125, -0.06400000303983688, 0.9920000471174717, 0.0, 0.0, 0.0, 0.0, 0.0, 1.7052701515511577E9, 0.0, 2024-01-14 17:09:11.551
1.0, 434.4267788529396, -116.32584822177887, 22.259884536266327, -89.27889174222946, -0.9760000463575125, -0.06400000303983688, 0.9920000471174717, 0.0, 0.0, 0.0, 0.0, 0.0, 1.7052701515511577E9, 0.0, 2024-01-14 17:09:11.551
2.0, 515.0889410972595, -37.81786835193634, 63.90741044282913, -14.361215829849243, 0.11200000531971455, -0.06400000303983688, 0.9920000471174717, 0.0, 0.0, 0.0, 0.0, 0.0, 1.7052701515650396E9, 0.0, 2024-01-14 17:09:11.565
2.0, 541.1784831881523, -70.36995756626129, 285.5488414168358, -41.88687950372696, 0.11200000531971455, -0.06400000303983688, 0.9920000471174717, 0.0, 0.0, 0.0, 0.0, 0.0, 1.7052701515650396E9, 0.0, 2024-01-14 17:09:11.565
3.0, 475.35624396800995, -105.07622915506363, 123.26710253953934, -76.35379749536514, 0.11200000531971455, -0.06400000303983688, 0.9920000471174717, 0.0, 0.0, 0.0, 0.0, 0.0, 1.70527015158027E9, 0.0, 2024-01-14 17:09:11.580
3.0, 518.6792450547218, -28.722431659698486, 22.49923813343048, -4.787071943283081, 0.11200000531971455, -0.06400000303983688, 0.9920000471174717, 0.0, 0.0, 0.0, 0.0, 0.0, 1.70527015158027E9, 0.0, 2024-01-14 17:09:11.580
4.0, 572.0550972223282, -30.397906839847565, 251.0819234251976, -4.308364748954773, 0.11200000531971455, -0.06400000303983688, 0.9920000471174717, 0.0, 0.0, 0.0, 0.0, 0.0, 1.7052701515957656E9, 0.0, 2024-01-14 17:09:11.595
4.0, 495.22259253263474, -94.3053172826767, 224.9923813343048, -67.01900720596313, 0.11200000531971455, -0.06400000303983688, 0.9920000471174717, 0.0, 0.0, 0.0, 0.0, 0.0, 1.7052701515957656E9, 0.0, 2024-01-14 17:09:11.595
5.0, 489.2387526035309, -59.59904569387436, -0.9574143886566162, -35.4243323802948, 0.11200000531971455, -0.06400000303983688, 0.9920000471174717, 0.0, 0.0, 0.0, 0.0, 0.0, 1.705270151596158E9, 0.0, 2024-01-14 17:09:11.596
5.0, 567.7467324733734, -9.334790289402008, 176.16424751281738, 10.770911872386932, 0.11200000531971455, -0.06400000303983688, 0.9920000471174717, 0.0, 0.0, 0.0, 0.0, 0.0, 1.705270151596158E9, 0.0, 2024-01-14 17:09:11.596
6.0, 517.4824770689011, -88.32147735357285, 273.82051515579224, -63.18934965133667, 0.11200000531971455, -0.06400000303983688, 0.9920000471174717, 0.0, 0.0, 0.0, 0.0, 0.0, 1.7052701516105895E9, 0.0, 2024-01-14 17:09:11.610
6.0, 461.23438173532486, -93.58725649118423, 43.56235468387604, -70.13060396909714, 0.11200000531971455, -0.06400000303983688, 0.9920000471174717, 0.0, 0.0, 0.0, 0.0, 0.0, 1.7052701516105895E9, 0.0, 2024-01-14 17:09:11.610
7.0, 523.4663169980049, -32.791442811489105, 65.1041784286499, -8.8560830950737, 0.11200000531971455, -0.06400000303983688, 0.9920000471174717, 0.0, 0.0, 0.0, 0.0, 0.0, 1.7052701516112676E9, 0.0, 2024-01-14 17:09:11.611
7.0, 528.9714497327805, -80.66216224431992, 278.36823350191116, -54.572620153427124, 0.11200000531971455, -0.06400000303983688, 0.9920000471174717, 0.0, 0.0, 0.0, 0.0, 0.0, 1.7052701516112676E9, 0.0, 2024-01-14 17:09:11.611
8.0, 453.57506662607193, -118.95873779058456, 113.21425145864487, -94.06596368551254, 0.11200000531971455, -0.06400000303983688, 0.9920000471174717, 0.0, 0.0, 0.0, 0.0, 0.0, 1.7052701516247935E9, 0.0, 2024-01-14 17:09:11.624
8.0, 493.06841015815735, -56.00874173641205, 5.983839929103851, -31.83402842283249, 0.11200000531971455, -0.06400000303983688, 0.9920000471174717, 0.0, 0.0, 0.0, 0.0, 0.0, 1.7052701516247935E9, 0.0, 2024-01-14 17:09:11.624
9.0, 539.7423616051674, -61.753228068351746, 236.24200040102005, -33.50950360298157, 0.11200000531971455, -0.06400000303983688, 0.9920000471174717, 0.0, 0.0, 0.0, 0.0, 0.0, 1.7052701516407373E9, 0.0, 2024-01-14 17:09:11.640
9.0, 458.8408457636833, -130.44771045446396, 195.79124248027802, -104.83687555789948, 0.11200000531971455, -0.06400000303983688, 0.9920000471174717, 0.0, 0.0, 0.0, 0.0, 0.0, 1.7052701516407373E9, 0.0, 2024-01-14 17:09:11.640
10.0, 452.6176522374153, -87.12470936775208, -22.97794532775879, -65.82223922014236, 0.11200000531971455, -0.06400000303983688, 0.9920000471174717, 0.0, 0.0, 0.0, 0.0, 0.0, 1.7052701516412485E9, 0.0, 2024-01-14 17:09:11.641
10.0, 518.918598651886, -49.06748741865158, 141.45797592401505, -32.07338201999664, 0.11200000531971455, -0.06400000303983688, 0.9920000471174717, 0.0, 0.0, 0.0, 0.0, 0.0, 1.7052701516412485E9, 0.0, 2024-01-14 17:09:11.641
11.0, 472.24464720487595, -116.56520181894302, 246.05549788475037, -99.81045001745224, 0.11200000531971455, -0.06400000303983688, 0.9920000471174717, 0.0, 0.0, 0.0, 0.0, 0.0, 1.705270151655056E9, 0.0, 2024-01-14 17:09:11.655
11.0, 422.21974539756775, -121.59162735939026, 18.430226981639862, -105.55493634939194, 0.11200000531971455, -0.06400000303983688, 0.9920000471174717, 0.0, 0.0, 0.0, 0.0, 0.0, 1.705270151655056E9, 0.0, 2024-01-14 17:09:11.655
12.0, 496.8980677127838, -54.33326655626297, 48.58878022432327, -37.09980756044388, 0.09600000455975533, -0.06400000303983688, 0.9920000471174717, 0.0, 0.0, 0.0, 0.0, 0.0, 1.7052701516704867E9, 0.0, 2024-01-14 17:09:11.670
12.0, 494.5045317411423, -104.11881476640701, 257.06576335430145, -78.02927267551422, 0.09600000455975533, -0.06400000303983688, 0.9920000471174717, 0.0, 0.0, 0.0, 0.0, 0.0, 1.7052701516704867E9, 0.0, 2024-01-14 17:09:11.670
13.0, 422.9378061890602, -133.55930721759796, 100.5285108089447, -114.41101944446564, 0.09600000455975533, -0.06400000303983688, 0.9920000471174717, 0.0, 0.0, 0.0, 0.0, 0.0, 1.705270151671183E9, 0.0, 2024-01-14 17:09:11.671
13.0, 464.585332095623, -70.60931116342545, -14.839923024177551, -55.290680944919586, 0.09600000455975533, -0.06400000303983688, 0.9920000471174717, 0.0, 0.0, 0.0, 0.0, 0.0, 1.705270151671183E9, 0.0, 2024-01-14 17:09:11.671
14.0, 512.4560515284538, -71.56672555208206, 212.5459942817688, -55.53003454208374, 0.09600000455975533, -0.06400000303983688, 0.9920000471174717, 0.0, 0.0, 0.0, 0.0, 0.0, 1.7052701516850512E9, 0.0, 2024-01-14 17:09:11.685
14.0, 448.78799468278885, -135.4741359949112, 185.9777449965477, -115.84714102745056, 0.09600000455975533, -0.06400000303983688, 0.9920000471174717, 0.0, 0.0, 0.0, 0.0, 0.0, 1.7052701516850512E9, 0.0, 2024-01-14 17:09:11.685
15.0, 443.2828619480133, -95.02337807416916, -33.50950360298157, -73.9602615237236, 0.09600000455975533, -0.06400000303983688, 0.9920000471174717, 0.0, 0.0, 0.0, 0.0, 0.0, 1.7052701517004712E9, 0.0, 2024-01-14 17:09:11.700
15.0, 517.0037698745728, -50.74296259880066, 146.48440146446228, -33.03079640865326, 0.09600000455975533, -0.06400000303983688, 0.9920000471174717, 0.0, 0.0, 0.0, 0.0, 0.0, 1.7052701517004712E9, 0.0, 2024-01-14 17:09:11.700
16.0, 470.808525621891, -118.2406769990921, 241.98648673295975, -101.24657160043716, 0.09600000455975533, -0.06400000303983688, 0.9920000471174717, 0.0, 0.0, 0.0, 0.0, 0.0, 1.7052701517011414E9, 0.0, 2024-01-14 17:09:11.701
16.0, 423.4165133833885, -114.88972663879395, 21.78117734193802, -96.22014605998993, 0.09600000455975533, -0.06400000303983688, 0.9920000471174717, 0.0, 0.0, 0.0, 0.0, 0.0, 1.7052701517011414E9, 0.0, 2024-01-14 17:09:11.701
17.0, 494.02582454681396, -44.99847626686096, 60.31710648536682, -32.791442811489105, 0.09600000455975533, -0.06400000303983688, 0.9920000471174717, 0.0, 0.0, 0.0, 0.0, 0.0, 1.7052701517150772E9, 0.0, 2024-01-14 17:09:11.715
17.0, 494.2651781439781, -95.74143886566162, 270.2302111983299, -76.35379749536514, 0.09600000455975533, -0.06400000303983688, 0.9920000471174717, 0.0, 0.0, 0.0, 0.0, 0.0, 1.7052701517150772E9, 0.0, 2024-01-14 17:09:11.715
18.0, 413.1243087053299, -142.89409750699997, 95.50208526849747, -125.18193131685257, 0.09600000455975533, -0.06400000303983688, 0.9920000471174717, 0.0, 0.0, 0.0, 0.0, 0.0, 1.7052701517308595E9, 0.0, 2024-01-14 17:09:11.730
18.0, 454.7718346118927, -71.32737195491791, -14.600569427013397, -61.03516727685928, 0.09600000455975533, -0.06400000303983688, 0.9920000471174717, 0.0, 0.0, 0.0, 0.0, 0.0, 1.7052701517308595E9, 0.0, 2024-01-14 17:09:11.730
19.0, 503.8393220305443, -75.39638310670853, 217.57241982221603, -61.51387447118759, 0.09600000455975533, -0.06400000303983688, 0.9920000471174717, 0.0, 0.0, 0.0, 0.0, 0.0, 1.7052701517313485E9, 0.0, 2024-01-14 17:09:11.731
19.0, 429.1609997153282, -149.11729103326797, 179.03649067878723, -136.67090398073196, 0.09600000455975533, -0.06400000303983688, 0.9920000471174717, 0.0, 0.0, 0.0, 0.0, 0.0, 1.7052701517313485E9, 0.0, 2024-01-14 17:09:11.731
20.0, 417.1933198571205, -111.29942268133163, -45.237829864025116, -100.5285108089447, 0.09600000455975533, -0.06400000303983688, 0.9920000471174717, 0.0, 0.0, 0.0, 0.0, 0.0, 1.7052701517451458E9, 0.0, 2024-01-14 17:09:11.745
20.0, 496.4193605184555, -70.36995756626129, 130.44771045446396, -51.93973058462143, 0.09600000455975533, -0.06400000303983688, 0.9920000471174717, 0.0, 0.0, 0.0, 0.0, 0.0, 1.7052701517451458E9, 0.0, 2024-01-14 17:09:11.745
21.0, 450.4634698629379, -148.87793743610382, 230.49751406908035, -125.42128491401672, 0.09600000455975533, -0.06400000303983688, 0.9920000471174717, 0.0, 0.0, 0.0, 0.0, 0.0, 1.7052701517768805E9, 0.0, 2024-01-14 17:09:11.776
21.0, 402.35339683294296, -137.62831836938858, 4.069011151790619, -124.94257771968842, 0.09600000455975533, -0.06400000303983688, 0.9920000471174717, 0.0, 0.0, 0.0, 0.0, 0.0, 1.7052701517768805E9, 0.0, 2024-01-14 17:09:11.776
22.0, 475.1168903708458, -65.34353202581406, 42.36558669805527, -54.33326655626297, 0.11200000531971455, -0.06400000303983688, 0.9920000471174717, 0.0, 0.0, 0.0, 0.0, 0.0, 1.7052701517775345E9, 0.0, 2024-01-14 17:09:11.777
22.0, 483.73361986875534, -111.53877627849579, 254.1935201883316, -94.54467087984085, 0.11200000531971455, -0.06400000303983688, 0.9920000471174717, 0.0, 0.0, 0.0, 0.0, 0.0, 1.7052701517775345E9, 0.0, 2024-01-14 17:09:11.777
23.0, 406.1830543875694, -149.59599822759628, 93.82661008834839, -133.79866081476212, 0.11200000531971455, -0.06400000303983688, 0.9920000471174717, 0.0, 0.0, 0.0, 0.0, 0.0, 1.7052701517782493E9, 0.0, 2024-01-14 17:09:11.778
23.0, 442.08609396219254, -79.22604066133499, -11.488972663879395, -75.15702950954437, 0.11200000531971455, -0.06400000303983688, 0.9920000471174717, 0.0, 0.0, 0.0, 0.0, 0.0, 1.7052701517782493E9, 0.0, 2024-01-14 17:09:11.778
24.0, 476.5530119538307, -102.20398598909378, 200.0996072292328, -88.32147735357285, 0.11200000531971455, -0.06400000303983688, 0.9920000471174717, 0.0, 0.0, 0.0, 0.0, 0.0, 1.7052701517790115E9, 0.0, 2024-01-14 17:09:11.779
24.0, 431.3151820898056, -142.65474390983582, 186.456452190876, -128.05417448282242, 0.11200000531971455, -0.06400000303983688, 0.9920000471174717, 0.0, 0.0, 0.0, 0.0, 0.0, 1.7052701517790115E9, 0.0, 2024-01-14 17:09:11.779
25.0, 438.97449719905853, -86.16729497909546, -15.31863021850586, -76.35379749536514, 0.11200000531971455, -0.06400000303983688, 0.9920000471174717, 0.0, 0.0, 0.0, 0.0, 0.0, 1.7052701517897182E9, 0.0, 2024-01-14 17:09:11.789
25.0, 514.3708803057671, -46.67395144701004, 152.70759499073029, -38.5359291434288, 0.11200000531971455, -0.06400000303983688, 0.9920000471174717, 0.0, 0.0, 0.0, 0.0, 0.0, 1.7052701517897182E9, 0.0, 2024-01-14 17:09:11.789
26.0, 470.56917202472687, -112.25683706998825, 259.9380065202713, -100.5285108089447, 0.11200000531971455, -0.06400000303983688, 0.9920000471174717, 0.0, 0.0, 0.0, 0.0, 0.0, 1.70527015180475E9, 0.0, 2024-01-14 17:09:11.804
26.0, 422.9378061890602, -114.17166584730148, 29.679846048355103, -98.85303562879562, 0.11200000531971455, -0.06400000303983688, 0.9920000471174717, 0.0, 0.0, 0.0, 0.0, 0.0, 1.70527015180475E9, 0.0, 2024-01-14 17:09:11.804
27.0, 495.70129972696304, -38.5359291434288, 72.52413994073868, -33.27015000581741, 0.11200000531971455, -0.06400000303983688, 0.9920000471174717, 0.0, 0.0, 0.0, 0.0, 0.0, 1.705270151820485E9, 0.0, 2024-01-14 17:09:11.820
27.0, 497.13742130994797, -93.10854929685593, 278.6075870990753, -71.80607914924622, 0.11200000531971455, -0.06400000303983688, 0.9920000471174717, 0.0, 0.0, 0.0, 0.0, 0.0, 1.705270151820485E9, 0.0, 2024-01-14 17:09:11.820
28.0, 421.74103820323944, -132.12318563461304, 104.35816836357117, -117.28326261043549, 0.11200000531971455, -0.06400000303983688, 0.9920000471174717, 0.0, 0.0, 0.0, 0.0, 0.0, 1.705270151821169E9, 0.0, 2024-01-14 17:09:11.821
28.0, 464.82468569278717, -59.59904569387436, 2.6328895688056946, -52.41843777894974, 0.11200000531971455, -0.06400000303983688, 0.9920000471174717, 0.0, 0.0, 0.0, 0.0, 0.0, 1.705270151821169E9, 0.0, 2024-01-14 17:09:11.821
29.0, 509.3444547653198, -68.93383598327637, 233.3697572350502, -51.93973058462143, 0.11200000531971455, -0.06400000303983688, 0.9920000471174717, 0.0, 0.0, 0.0, 0.0, 0.0, 1.7052701518351355E9, 0.0, 2024-01-14 17:09:11.835
29.0, 437.77772921323776, -142.41539031267166, 187.17451298236847, -125.89999210834503, 0.11200000531971455, -0.06400000303983688, 0.9920000471174717, 0.0, 0.0, 0.0, 0.0, 0.0, 1.7052701518351355E9, 0.0, 2024-01-14 17:09:11.835
30.0, 428.44293892383575, -103.87946116924286, -33.50950360298157, -88.80018454790115, 0.11200000531971455, -0.06400000303983688, 1.0240000486373901, 0.0, 0.0, 0.0, 0.0, 0.0, 1.705270151850666E9, 0.0, 2024-01-14 17:09:11.850
30.0, 497.3767749071121, -63.66805684566498, 138.5857327580452, -49.306841015815735, 0.11200000531971455, -0.06400000303983688, 1.0240000486373901, 0.0, 0.0, 0.0, 0.0, 0.0, 1.705270151850666E9, 0.0, 2024-01-14 17:09:11.850
31.0, 454.7718346118927, -137.62831836938858, 235.04523241519928, -120.15550577640533, 0.11200000531971455, -0.06400000303983688, 1.0240000486373901, 0.0, 0.0, 0.0, 0.0, 0.0, 1.70527015185132E9, 0.0, 2024-01-14 17:09:11.851
31.0, 401.1566288471222, -135.4741359949112, 4.308364748954773, -122.07033455371857, 0.11200000531971455, -0.06400000303983688, 1.0240000486373901, 0.0, 0.0, 0.0, 0.0, 0.0, 1.70527015185132E9, 0.0, 2024-01-14 17:09:11.851
32.0, 481.57943749427795, -69.17318958044052, 42.60494029521942, -53.61520576477051, 0.11200000531971455, -0.06400000303983688, 1.0240000486373901, 0.0, 0.0, 0.0, 0.0, 0.0, 1.7052701518648555E9, 0.0, 2024-01-14 17:09:11.864
32.0, 485.4090950489044, -113.69295865297318, 251.79998421669006, -88.32147735357285, 0.11200000531971455, -0.06400000303983688, 1.0240000486373901, 0.0, 0.0, 0.0, 0.0, 0.0, 1.7052701518648555E9, 0.0, 2024-01-14 17:09:11.864
33.0, 411.68818712234497, -147.20246225595474, 97.4169140458107, -135.4741359949112, 0.11200000531971455, -0.06400000303983688, 1.0240000486373901, 0.0, 0.0, 0.0, 0.0, 0.0, 1.705270151896932E9, 0.0, 2024-01-14 17:09:11.896
33.0, 449.027348279953, -74.19961512088776, -3.590303957462311, -63.66805684566498, 0.11200000531971455, -0.06400000303983688, 1.0240000486373901, 0.0, 0.0, 0.0, 0.0, 0.0, 1.705270151896932E9, 0.0, 2024-01-14 17:09:11.896
34.0, 499.5309572815895, -75.15702950954437, 225.71044212579727, -61.753228068351746, 0.11200000531971455, -0.06400000303983688, 1.0240000486373901, 0.0, 0.0, 0.0, 0.0, 0.0, 1.7052701518976023E9, 0.0, 2024-01-14 17:09:11.897
34.0, 430.59712129831314, -142.1760367155075, 194.11576730012894, -129.96900326013565, 0.11200000531971455, -0.06400000303983688, 1.0240000486373901, 0.0, 0.0, 0.0, 0.0, 0.0, 1.7052701518976023E9, 0.0, 2024-01-14 17:09:11.897
35.0, 416.95396625995636, -112.25683706998825, -30.876614034175873, -94.784024477005, 0.11200000531971455, -0.06400000303983688, 1.0240000486373901, 0.0, 0.0, 0.0, 0.0, 0.0, 1.7052701518984168E9, 0.0, 2024-01-14 17:09:11.898
35.0, 491.8716421723366, -70.8486647605896, 134.51672160625458, -54.81197375059128, 0.11200000531971455, -0.06400000303983688, 1.0240000486373901, 0.0, 0.0, 0.0, 0.0, 0.0, 1.7052701518984168E9, 0.0, 2024-01-14 17:09:11.898
36.0, 452.37829864025116, -131.64447844028473, 240.31101155281067, -115.84714102745056, 0.11200000531971455, -0.06400000303983688, 1.0240000486373901, 0.0, 0.0, 0.0, 0.0, 0.0, 1.705270151899003E9, 0.0, 2024-01-14 17:09:11.899
36.0, 395.8908497095108, -137.62831836938858, 11.488972663879395, -124.94257771968842, 0.11200000531971455, -0.06400000303983688, 1.0240000486373901, 0.0, 0.0, 0.0, 0.0, 0.0, 1.705270151899003E9, 0.0, 2024-01-14 17:09:11.899
37.0, 483.73361986875534, -62.231935262680054, 51.22166979312897, -44.75912266969681, 0.11200000531971455, -0.06400000303983688, 1.0240000486373901, 0.0, 0.0, 0.0, 0.0, 0.0, 1.7052701519100535E9, 0.0, 2024-01-14 17:09:11.910
37.0, 476.0743047595024, -112.73554426431656, 253.95416659116745, -94.54467087984085, 0.11200000531971455, -0.06400000303983688, 1.0240000486373901, 0.0, 0.0, 0.0, 0.0, 0.0, 1.7052701519100535E9, 0.0, 2024-01-14 17:09:11.910
38.0, 405.7043471932411, -145.52698707580566, 101.72527879476547, -135.71348959207535, 0.11200000531971455, -0.06400000303983688, 1.0240000486373901, 0.0, 0.0, 0.0, 0.0, 0.0, 1.7052701519248157E9, 0.0, 2024-01-14 17:09:11.924
38.0, 452.85700583457947, -71.32737195491791, 1.4361215829849243, -68.93383598327637, 0.11200000531971455, -0.06400000303983688, 1.0240000486373901, 0.0, 0.0, 0.0, 0.0, 0.0, 1.7052701519248157E9, 0.0, 2024-01-14 17:09:11.924
39.0, 504.55738282203674, -79.22604066133499, 223.31690615415573, -61.9925816655159, 0.11200000531971455, -0.06400000303983688, 1.0240000486373901, 0.0, 0.0, 0.0, 0.0, 0.0, 1.7052701519404423E9, 0.0, 2024-01-14 17:09:11.940
39.0, 429.1609997153282, -146.72375506162643, 185.9777449965477, -128.77223527431488, 0.11200000531971455, -0.06400000303983688, 1.0240000486373901, 0.0, 0.0, 0.0, 0.0, 0.0, 1.7052701519404423E9, 0.0, 2024-01-14 17:09:11.940
40.0, 421.26233100891113, -104.83687555789948, -28.722431659698486, -94.3053172826767, 0.11200000531971455, -0.06400000303983688, 1.0240000486373901, 0.0, 0.0, 0.0, 0.0, 0.0, 1.7052701519411292E9, 0.0, 2024-01-14 17:09:11.941
40.0, 501.6851396560669, -59.12033849954605, 151.75018060207367, -45.716537058353424, 0.11200000531971455, -0.06400000303983688, 1.0240000486373901, 0.0, 0.0, 0.0, 0.0, 0.0, 1.7052701519411292E9, 0.0, 2024-01-14 17:09:11.941
41.0, 453.3357130289078, -131.16577124595642, 245.3374370932579, -118.2406769990921, 0.11200000531971455, -0.06400000303983688, 1.0240000486373901, 0.0, 0.0, 0.0, 0.0, 0.0, 1.705270151955046E9, 0.0, 2024-01-14 17:09:11.955
41.0, 400.91727524995804, -124.22451692819595, 21.063116550445557, -114.88972663879395, 0.11200000531971455, -0.06400000303983688, 1.0240000486373901, 0.0, 0.0, 0.0, 0.0, 0.0, 1.705270151955046E9, 0.0, 2024-01-14 17:09:11.955
42.0, 475.5955975651741, -58.162924110889435, 54.093912959098816, -50.74296259880066, 0.09600000455975533, -0.06400000303983688, 1.0240000486373901, 0.0, 0.0, 0.0, 0.0, 0.0, 1.7052701519704332E9, 0.0, 2024-01-14 17:09:11.970
42.0, 480.8613767027855, -108.18782591819763, 264.4857248663902, -91.1937205195427, 0.09600000455975533, -0.06400000303983688, 1.0240000486373901, 0.0, 0.0, 0.0, 0.0, 0.0, 1.7052701519704332E9, 0.0, 2024-01-14 17:09:11.970
43.0, 404.50757920742035, -140.02185434103012, 102.92204678058624, -129.7296496629715, 0.09600000455975533, -0.06400000303983688, 1.0240000486373901, 0.0, 0.0, 0.0, 0.0, 0.0, 1.7052701519711916E9, 0.0, 2024-01-14 17:09:11.971
43.0, 463.86727130413055, -62.231935262680054, 2.8722431659698486, -48.58878022432327, 0.09600000455975533, -0.06400000303983688, 1.0240000486373901, 0.0, 0.0, 0.0, 0.0, 0.0, 1.7052701519711916E9, 0.0, 2024-01-14 17:09:11.971
44.0, 496.65871411561966, -72.52413994073868, 229.54009968042374, -61.753228068351746, 0.09600000455975533, -0.06400000303983688, 1.0240000486373901, 0.0, 0.0, 0.0, 0.0, 0.0, 1.705270152001152E9, 0.0, 2024-01-14 17:09:12.001
44.0, 431.55453568696976, -138.5857327580452, 201.5357288122177, -126.85740649700165, 0.09600000455975533, -0.06400000303983688, 1.0240000486373901, 0.0, 0.0, 0.0, 0.0, 0.0, 1.705270152001152E9, 0.0, 2024-01-14 17:09:12.001
45.0, 416.47525906562805, -99.81045001745224, -22.97794532775879, -88.560830950737, 0.09600000455975533, -0.06400000303983688, 1.0240000486373901, 0.0, 0.0, 0.0, 0.0, 0.0, 1.7052701520018609E9, 0.0, 2024-01-14 17:09:12.001
45.0, 495.9406533241272, -55.53003454208374, 149.11729103326797, -46.19524425268173, 0.09600000455975533, -0.06400000303983688, 1.0240000486373901, 0.0, 0.0, 0.0, 0.0, 0.0, 1.7052701520018609E9, 0.0, 2024-01-14 17:09:12.001
46.0, 450.7028234601021, -134.27736800909042, 243.18325471878052, -118.48003059625626, 0.09600000455975533, -0.06400000303983688, 1.0240000486373901, 0.0, 0.0, 0.0, 0.0, 0.0, 1.7052701520026002E9, 0.0, 2024-01-14 17:09:12.002
46.0, 400.91727524995804, -134.03801441192627, 14.121862232685089, -119.19809138774872, 0.09600000455975533, -0.06400000303983688, 1.0240000486373901, 0.0, 0.0, 0.0, 0.0, 0.0, 1.7052701520026002E9, 0.0, 2024-01-14 17:09:12.002
47.0, 476.7923655509949, -65.82223922014236, 52.897144973278046, -51.46102339029312, 0.09600000455975533, -0.06400000303983688, 1.0240000486373901, 0.0, 0.0, 0.0, 0.0, 0.0, 1.7052701520151455E9, 0.0, 2024-01-14 17:09:12.015
47.0, 488.0419846177101, -94.06596368551254, 276.2140511274338, -84.97052699327469, 0.09600000455975533, -0.06400000303983688, 1.0240000486373901, 0.0, 0.0, 0.0, 0.0, 0.0, 1.7052701520151455E9, 0.0, 2024-01-14 17:09:12.015
48.0, 410.25206553936005, -144.56957268714905, 101.96463239192963, -127.81482088565826, 0.09600000455975533, -0.06400000303983688, 1.0240000486373901, 0.0, 0.0, 0.0, 0.0, 0.0, 1.7052701520309048E9, 0.0, 2024-01-14 17:09:12.030
48.0, 459.5589065551758, -73.00284713506699, -0.9574143886566162, -55.53003454208374, 0.09600000455975533, -0.06400000303983688, 1.0240000486373901, 0.0, 0.0, 0.0, 0.0, 0.0, 1.7052701520309048E9, 0.0, 2024-01-14 17:09:12.030
49.0, 503.360614836216, -76.35379749536514, 228.1039780974388, -59.12033849954605, 0.09600000455975533, -0.06400000303983688, 1.0240000486373901, 0.0, 0.0, 0.0, 0.0, 0.0, 1.705270152031266E9, 0.0, 2024-01-14 17:09:12.031
49.0, 426.0494029521942, -146.72375506162643, 185.02033060789108, -129.01158887147903, 0.09600000455975533, -0.06400000303983688, 1.0240000486373901, 0.0, 0.0, 0.0, 0.0, 0.0, 1.705270152031266E9, 0.0, 2024-01-14 17:09:12.031
50.0, 425.5706957578659, -96.93820685148239, -25.37148129940033, -92.62984210252762, 0.09600000455975533, -0.06400000303983688, 1.0240000486373901, 0.0, 0.0, 0.0, 0.0, 0.0, 1.705270152045236E9, 0.0, 2024-01-14 17:09:12.045
50.0, 505.03609001636505, -56.966156125068665, 152.70759499073029, -46.67395144701004, 0.09600000455975533, -0.06400000303983688, 1.0240000486373901, 0.0, 0.0, 0.0, 0.0, 0.0, 1.705270152045236E9, 0.0, 2024-01-14 17:09:12.045
51.0, 450.94217705726624, -128.29352807998657, 245.57679069042206, -119.43744498491287, 0.09600000455975533, -0.06400000303983688, 1.0240000486373901, 0.0, 0.0, 0.0, 0.0, 0.0, 1.70527015206098E9, 0.0, 2024-01-14 17:09:12.060
51.0, 397.5663248896599, -139.78250074386597, 14.121862232685089, -129.7296496629715, 0.09600000455975533, -0.06400000303983688, 1.0240000486373901, 0.0, 0.0, 0.0, 0.0, 0.0, 1.70527015206098E9, 0.0, 2024-01-14 17:09:12.060
52.0, 472.72335439920425, -66.54030001163483, 52.17908418178558, -54.81197375059128, 0.09600000455975533, -0.06400000303983688, 1.0240000486373901, 0.0, 0.0, 0.0, 0.0, 0.0, 1.7052701520613146E9, 0.0, 2024-01-14 17:09:12.061
52.0, 483.25491267442703, -103.6401075720787, 266.1612000465393, -84.73117339611053, 0.09600000455975533, -0.06400000303983688, 1.0240000486373901, 0.0, 0.0, 0.0, 0.0, 0.0, 1.7052701520613146E9, 0.0, 2024-01-14 17:09:12.061
53.0, 395.4121425151825, -162.28173887729645, 89.75759893655777, -141.6973295211792, 0.09600000455975533, -0.06400000303983688, 1.0240000486373901, 0.0, 0.0, 0.0, 0.0, 0.0, 1.7052701520751264E9, 0.0, 2024-01-14 17:09:12.075
53.0, 449.027348279953, -81.14086943864822, -8.138022303581238, -72.52413994073868, 0.09600000455975533, -0.06400000303983688, 1.0240000486373901, 0.0, 0.0, 0.0, 0.0, 0.0, 1.7052701520751264E9, 0.0, 2024-01-14 17:09:12.075
54.0, 488.5206918120384, -88.32147735357285, 219.48724859952927, -79.22604066133499, 0.09600000455975533, -0.06400000303983688, 1.0240000486373901, 0.0, 0.0, 0.0, 0.0, 0.0, 1.705270152090688E9, 0.0, 2024-01-14 17:09:12.090
54.0, 419.58685582876205, -159.64884930849075, 176.88230830430984, -144.09086549282074, 0.09600000455975533, -0.06400000303983688, 1.0240000486373901, 0.0, 0.0, 0.0, 0.0, 0.0, 1.705270152090688E9, 0.0, 2024-01-14 17:09:12.090
55.0, 412.6456015110016, -109.62394750118256, -36.62110036611557, -94.06596368551254, 0.09600000455975533, -0.06400000303983688, 1.0240000486373901, 0.0, 0.0, 0.0, 0.0, 0.0, 1.7052701520912926E9, 0.0, 2024-01-14 17:09:12.091
55.0, 490.91422778367996, -67.7370679974556, 144.8089262843132, -55.290680944919586, 0.09600000455975533, -0.06400000303983688, 1.0240000486373901, 0.0, 0.0, 0.0, 0.0, 0.0, 1.7052701520912926E9, 0.0, 2024-01-14 17:09:12.091
56.0, 450.4634698629379, -136.4315503835678, 236.9600611925125, -120.8735665678978, 0.09600000455975533, -0.06400000303983688, 1.0240000486373901, 0.0, 0.0, 0.0, 0.0, 0.0, 1.7052701521049457E9, 0.0, 2024-01-14 17:09:12.104
56.0, 404.7469328045845, -131.88383203744888, 7.65931510925293, -116.32584822177887, 0.09600000455975533, -0.06400000303983688, 1.0240000486373901, 0.0, 0.0, 0.0, 0.0, 0.0, 1.7052701521049457E9, 0.0, 2024-01-14 17:09:12.104
57.0, 483.0155590772629, -62.231935262680054, 53.375852167606354, -48.110073029994965, 0.09600000455975533, -0.06400000303983688, 1.0240000486373901, 0.0, 0.0, 0.0, 0.0, 0.0, 1.7052701521208744E9, 0.0, 2024-01-14 17:09:12.120
57.0, 477.7497799396515, -116.56520181894302, 257.3051169514656, -92.62984210252762, 0.09600000455975533, -0.06400000303983688, 1.0240000486373901, 0.0, 0.0, 0.0, 0.0, 0.0, 1.7052701521208744E9, 0.0, 2024-01-14 17:09:12.120
58.0, 403.7895184159279, -157.2553133368492, 85.449234187603, -136.4315503835678, 0.09600000455975533, -0.06400000303983688, 1.0240000486373901, 0.0, 0.0, 0.0, 0.0, 0.0, 1.7052701521212761E9, 0.0, 2024-01-14 17:09:12.121
58.0, 455.250541806221, -75.87509030103683, -0.4787071943283081, -66.06159281730652, 0.09600000455975533, -0.06400000303983688, 1.0240000486373901, 0.0, 0.0, 0.0, 0.0, 0.0, 1.7052701521212761E9, 0.0, 2024-01-14 17:09:12.121
59.0, 497.3767749071121, -87.60341656208038, 227.38591730594635, -65.58288562297821, 0.09600000455975533, -0.06400000303983688, 1.0240000486373901, 0.0, 0.0, 0.0, 0.0, 0.0, 1.7052701521351385E9, 0.0, 2024-01-14 17:09:12.135
59.0, 425.33134216070175, -151.27147340774536, 181.43002665042877, -135.23478239774704, 0.09600000455975533, -0.06400000303983688, 1.0240000486373901, 0.0, 0.0, 0.0, 0.0, 0.0, 1.7052701521351385E9, 0.0, 2024-01-14 17:09:12.135
60.0, 413.84236949682236, -104.59752196073532, -29.201138854026794, -99.57109642028809, 0.09600000455975533, -0.06400000303983688, 1.008000047877431, 0.0, 0.0, 0.0, 0.0, 0.0, 1.7052701521508265E9, 0.0, 2024-01-14 17:09:12.150
60.0, 496.4193605184555, -61.9925816655159, 151.0321198105812, -49.78554821014404, 0.09600000455975533, -0.06400000303983688, 1.008000047877431, 0.0, 0.0, 0.0, 0.0, 0.0, 1.7052701521508265E9, 0.0, 2024-01-14 17:09:12.150
61.0, 446.15510511398315, -138.82508635520935, 241.26842594146729, -121.11292016506195, 0.09600000455975533, -0.06400000303983688, 1.008000047877431, 0.0, 0.0, 0.0, 0.0, 0.0, 1.705270152151336E9, 0.0, 2024-01-14 17:09:12.151
61.0, 397.3269712924957, -133.3199536204338, 14.839923024177551, -127.57546728849411, 0.09600000455975533, -0.06400000303983688, 1.008000047877431, 0.0, 0.0, 0.0, 0.0, 0.0, 1.705270152151336E9, 0.0, 2024-01-14 17:09:12.151
62.0, 473.68076878786087, -63.18934965133667, 61.03516727685928, -55.769388139247894, 0.09600000455975533, -0.06400000303983688, 1.008000047877431, 0.0, 0.0, 0.0, 0.0, 0.0, 1.7052701521647825E9, 0.0, 2024-01-14 17:09:12.164
62.0, 475.5955975651741, -113.21425145864487, 267.8366752266884, -93.58725649118423, 0.09600000455975533, -0.06400000303983688, 1.008000047877431, 0.0, 0.0, 0.0, 0.0, 0.0, 1.7052701521647825E9, 0.0, 2024-01-14 17:09:12.164
63.0, 403.3108112215996, -153.1863021850586, 96.69885325431824, -134.27736800909042, 0.09600000455975533, -0.06400000303983688, 1.008000047877431, 0.0, 0.0, 0.0, 0.0, 0.0, 1.7052701521807456E9, 0.0, 2024-01-14 17:09:12.180
63.0, 453.0963594317436, -78.02927267551422, 1.4361215829849243, -64.86482483148575, 0.09600000455975533, -0.06400000303983688, 1.008000047877431, 0.0, 0.0, 0.0, 0.0, 0.0, 1.7052701521807456E9, 0.0, 2024-01-14 17:09:12.180
64.0, 489.95681339502335, -92.62984210252762, 222.83819895982742, -70.8486647605896, 0.09600000455975533, -0.06400000303983688, 1.008000047877431, 0.0, 0.0, 0.0, 0.0, 0.0, 1.7052701521813695E9, 0.0, 2024-01-14 17:09:12.181
64.0, 414.799783885479, -155.34048455953598, 181.19067305326462, -142.41539031267166, 0.09600000455975533, -0.06400000303983688, 1.008000047877431, 0.0, 0.0, 0.0, 0.0, 0.0, 1.7052701521813695E9, 0.0, 2024-01-14 17:09:12.181
65.0, 414.0817230939865, -103.6401075720787, -28.96178525686264, -92.62984210252762, 0.09600000455975533, -0.06400000303983688, 1.008000047877431, 0.0, 0.0, 0.0, 0.0, 0.0, 1.7052701521947107E9, 0.0, 2024-01-14 17:09:12.194
65.0, 494.2651781439781, -64.6254712343216, 148.63858383893967, -53.61520576477051, 0.09600000455975533, -0.06400000303983688, 1.008000047877431, 0.0, 0.0, 0.0, 0.0, 0.0, 1.7052701521947107E9, 0.0, 2024-01-14 17:09:12.194
66.0, 449.027348279953, -139.30379354953766, 242.94390112161636, -120.63421297073364, 0.09600000455975533, -0.06400000303983688, 1.008000047877431, 0.0, 0.0, 0.0, 0.0, 0.0, 1.7052701522106209E9, 0.0, 2024-01-14 17:09:12.210
66.0, 400.1992144584656, -131.88383203744888, 22.020530939102173, -123.26710253953934, 0.09600000455975533, -0.06400000303983688, 1.008000047877431, 0.0, 0.0, 0.0, 0.0, 0.0, 1.7052701522106209E9, 0.0, 2024-01-14 17:09:12.210
67.0, 468.4149896502495, -66.30094641447067, 55.53003454208374, -56.966156125068665, 0.09600000455975533, -0.06400000303983688, 1.008000047877431, 0.0, 0.0, 0.0, 0.0, 0.0, 1.7052701522112153E9, 0.0, 2024-01-14 17:09:12.211
67.0, 472.4840008020401, -118.00132340192795, 262.81024968624115, -99.81045001745224, 0.09600000455975533, -0.06400000303983688, 1.008000047877431, 0.0, 0.0, 0.0, 0.0, 0.0, 1.7052701522112153E9, 0.0, 2024-01-14 17:09:12.211
68.0, 393.7366673350334, -155.34048455953598, 88.08212375640869, -142.65474390983582, 0.09600000455975533, -0.06400000303983688, 1.008000047877431, 0.0, 0.0, 0.0, 0.0, 0.0, 1.7052701522248826E9, 0.0, 2024-01-14 17:09:12.224
68.0, 428.44293892383575, -94.06596368551254, -21.541823744773865, -84.25246620178223, 0.09600000455975533, -0.06400000303983688, 1.008000047877431, 0.0, 0.0, 0.0, 0.0, 0.0, 1.7052701522248826E9, 0.0, 2024-01-14 17:09:12.224
69.0, 481.3400838971138, -96.93820685148239, 216.1362982392311, -85.20988059043884, 0.09600000455975533, -0.06400000303983688, 1.008000047877431, 0.0, 0.0, 0.0, 0.0, 0.0, 1.7052701522406468E9, 0.0, 2024-01-14 17:09:12.240
69.0, 415.0391374826431, -168.2655788064003, 174.4887723326683, -147.68116945028305, 0.09600000455975533, -0.06400000303983688, 1.008000047877431, 0.0, 0.0, 0.0, 0.0, 0.0, 1.7052701522406468E9, 0.0, 2024-01-14 17:09:12.240
70.0, 398.28438568115234, -122.30968815088272, -38.5359291434288, -112.97489786148071, 0.09600000455975533, -0.06400000303983688, 1.008000047877431, 0.0, 0.0, 0.0, 0.0, 0.0, 1.7052701522413108E9, 0.0, 2024-01-14 17:09:12.241
70.0, 476.5530119538307, -78.98668706417084, 135.4741359949112, -75.15702950954437, 0.09600000455975533, -0.06400000303983688, 1.008000047877431, 0.0, 0.0, 0.0, 0.0, 0.0, 1.7052701522413108E9, 0.0, 2024-01-14 17:09:12.241
71.0, 437.0596684217453, -141.2186223268509, 241.98648673295975, -133.08060002326965, 0.09600000455975533, -0.06400000303983688, 1.008000047877431, 0.0, 0.0, 0.0, 0.0, 0.0, 1.7052701522548532E9, 0.0, 2024-01-14 17:09:12.254
71.0, 388.470888197422, -140.73991513252258, 9.574143886566162, -129.96900326013565, 0.09600000455975533, -0.06400000303983688, 1.008000047877431, 0.0, 0.0, 0.0, 0.0, 0.0, 1.7052701522548532E9, 0.0, 2024-01-14 17:09:12.254
72.0, 457.8834313750267, -77.55056548118591, 48.82813382148743, -68.2157751917839, 0.09600000455975533, -0.06400000303983688, 1.008000047877431, 0.0, 0.0, 0.0, 0.0, 0.0, 1.7052701522706964E9, 0.0, 2024-01-14 17:09:12.270
72.0, 454.2931274175644, -129.2509424686432, 258.5018849372864, -121.59162735939026, 0.09600000455975533, -0.06400000303983688, 1.008000047877431, 0.0, 0.0, 0.0, 0.0, 0.0, 1.7052701522706964E9, 0.0, 2024-01-14 17:09:12.270
73.0, 391.1037777662277, -155.10113096237183, 97.4169140458107, -150.31405901908875, 0.09600000455975533, -0.06400000303983688, 1.008000047877431, 0.0, 0.0, 0.0, 0.0, 0.0, 1.7052701522712412E9, 0.0, 2024-01-14 17:09:12.271
73.0, 440.88932597637177, -74.43896871805191, 5.744486331939697, -75.63573670387268, 0.09600000455975533, -0.06400000303983688, 1.008000047877431, 0.0, 0.0, 0.0, 0.0, 0.0, 1.7052701522712412E9, 0.0, 2024-01-14 17:09:12.271
74.0, 482.2974982857704, -83.05569821596146, 238.87488996982574, -79.94410145282745, 0.09600000455975533, -0.06400000303983688, 1.008000047877431, 0.0, 0.0, 0.0, 0.0, 0.0, 1.7052701522848375E9, 0.0, 2024-01-14 17:09:12.284
74.0, 406.1830543875694, -154.62242376804352, 192.2009385228157, -146.9631086587906, 0.09600000455975533, -0.06400000303983688, 1.008000047877431, 0.0, 0.0, 0.0, 0.0, 0.0, 1.7052701522848375E9, 0.0, 2024-01-14 17:09:12.284
75.0, 404.2682256102562, -104.83687555789948, -17.472812592983246, -99.33174282312393, 0.09600000455975533, -0.06400000303983688, 1.008000047877431, 0.0, 0.0, 0.0, 0.0, 0.0, 1.7052701523005648E9, 0.0, 2024-01-14 17:09:12.300
75.0, 480.3826695084572, -56.487448930740356, 163.47850686311722, -56.2480953335762, 0.09600000455975533, -0.06400000303983688, 1.008000047877431, 0.0, 0.0, 0.0, 0.0, 0.0, 1.7052701523005648E9, 0.0, 2024-01-14 17:09:12.300
76.0, 425.81004935503006, -136.19219678640366, 255.39028817415237, -131.64447844028473, 0.09600000455975533, -0.06400000303983688, 1.008000047877431, 0.0, 0.0, 0.0, 0.0, 0.0, 1.7052701523012493E9, 0.0, 2024-01-14 17:09:12.301
76.0, 382.72640186548233, -133.08060002326965, 25.850188493728638, -125.42128491401672, 0.09600000455975533, -0.06400000303983688, 1.008000047877431, 0.0, 0.0, 0.0, 0.0, 0.0, 1.7052701523012493E9, 0.0, 2024-01-14 17:09:12.301
77.0, 464.82468569278717, -58.162924110889435, 72.04543274641037, -58.8809849023819, 0.09600000455975533, -0.06400000303983688, 1.008000047877431, 0.0, 0.0, 0.0, 0.0, 0.0, 1.7052701523151531E9, 0.0, 2024-01-14 17:09:12.315
77.0, 453.8144202232361, -104.83687555789948, 275.9746975302696, -111.29942268133163, 0.09600000455975533, -0.06400000303983688, 1.008000047877431, 0.0, 0.0, 0.0, 0.0, 0.0, 1.7052701523151531E9, 0.0, 2024-01-14 17:09:12.315
78.0, 379.8541586995125, -153.1863021850586, 102.44333958625793, -146.9631086587906, 0.09600000455975533, -0.06400000303983688, 1.008000047877431, 0.0, 0.0, 0.0, 0.0, 0.0, 1.705270152330696E9, 0.0, 2024-01-14 17:09:12.330
78.0, 430.11841410398483, -76.83250468969345, 6.223193526268005, -78.02927267551422, 0.09600000455975533, -0.06400000303983688, 1.008000047877431, 0.0, 0.0, 0.0, 0.0, 0.0, 1.705270152330696E9, 0.0, 2024-01-14 17:09:12.330
79.0, 471.76594001054764, -86.40664857625961, 234.80587881803513, -82.337637424469, 0.09600000455975533, -0.06400000303983688, 1.008000047877431, 0.0, 0.0, 0.0, 0.0, 0.0, 1.7052701523313344E9, 0.0, 2024-01-14 17:09:12.331
79.0, 399.9598608613014, -155.34048455953598, 185.73839139938354, -148.87793743610382, 0.09600000455975533, -0.06400000303983688, 1.008000047877431, 0.0, 0.0, 0.0, 0.0, 0.0, 1.7052701523313344E9, 0.0, 2024-01-14 17:09:12.331
80.0, 398.5237392783165, -107.23041152954102, -26.328895688056946, -105.31558275222778, 0.09600000455975533, -0.06400000303983688, 1.008000047877431, 0.0, 0.0, 0.0, 0.0, 0.0, 1.705270152344977E9, 0.0, 2024-01-14 17:09:12.344
80.0, 481.8187910914421, -65.58288562297821, 155.10113096237183, -57.20550972223282, 0.09600000455975533, -0.06400000303983688, 1.008000047877431, 0.0, 0.0, 0.0, 0.0, 0.0, 1.705270152344977E9, 0.0, 2024-01-14 17:09:12.344
81.0, 427.00681734085083, -145.52698707580566, 246.77355867624283, -131.40512484312057, 0.09600000455975533, -0.06400000303983688, 1.008000047877431, 0.0, 0.0, 0.0, 0.0, 0.0, 1.7052701523604991E9, 0.0, 2024-01-14 17:09:12.360
81.0, 377.2212691307068, -133.3199536204338, 17.7121661901474, -134.51672160625458, 0.09600000455975533, -0.06400000303983688, 1.008000047877431, 0.0, 0.0, 0.0, 0.0, 0.0, 1.7052701523604991E9, 0.0, 2024-01-14 17:09:12.360
82.0, 452.138945043087, -63.428703248500824, 61.51387447118759, -63.428703248500824, 0.09600000455975533, -0.06400000303983688, 1.008000047877431, 0.0, 0.0, 0.0, 0.0, 0.0, 1.7052701523611736E9, 0.0, 2024-01-14 17:09:12.361
82.0, 456.9260169863701, -115.60778743028641, 275.25663673877716, -108.66653311252594, 0.09600000455975533, -0.06400000303983688, 1.008000047877431, 0.0, 0.0, 0.0, 0.0, 0.0, 1.7052701523611736E9, 0.0, 2024-01-14 17:09:12.361
83.0, 381.05092668533325, -152.46824139356613, 102.20398598909378, -142.89409750699997, 0.09600000455975533, -0.06400000303983688, 1.008000047877431, 0.0, 0.0, 0.0, 0.0, 0.0, 1.7052701523749757E9, 0.0, 2024-01-14 17:09:12.374
83.0, 436.580961227417, -74.67832231521606, 3.1115967631340027, -74.91767591238022, 0.09600000455975533, -0.06400000303983688, 1.008000047877431, 0.0, 0.0, 0.0, 0.0, 0.0, 1.7052701523749757E9, 0.0, 2024-01-14 17:09:12.374
84.0, 483.25491267442703, -77.78991907835007, 236.4813539981842, -76.83250468969345, 0.09600000455975533, -0.06400000303983688, 1.008000047877431, 0.0, 0.0, 0.0, 0.0, 0.0, 1.7052701523908732E9, 0.0, 2024-01-14 17:09:12.390
84.0, 408.57659035921097, -148.63858383893967, 199.38154643774033, -142.41539031267166, 0.09600000455975533, -0.06400000303983688, 1.008000047877431, 0.0, 0.0, 0.0, 0.0, 0.0, 1.7052701523908732E9, 0.0, 2024-01-14 17:09:12.390
85.0, 405.7043471932411, -105.31558275222778, -16.276044607162476, -96.69885325431824, 0.09600000455975533, -0.06400000303983688, 1.008000047877431, 0.0, 0.0, 0.0, 0.0, 0.0, 1.705270152391218E9, 0.0, 2024-01-14 17:09:12.391
85.0, 482.05814468860626, -61.51387447118759, 159.17014211416245, -55.769388139247894, 0.09600000455975533, -0.06400000303983688, 1.008000047877431, 0.0, 0.0, 0.0, 0.0, 0.0, 1.705270152391218E9, 0.0, 2024-01-14 17:09:12.391
86.0, 440.6499723792076, -135.9528431892395, 254.91158097982407, -126.13934570550919, 0.09600000455975533, -0.06400000303983688, 1.008000047877431, 0.0, 0.0, 0.0, 0.0, 0.0, 1.7052701524048555E9, 0.0, 2024-01-14 17:09:12.404
86.0, 384.16252344846725, -134.75607520341873, 22.97794532775879, -131.64447844028473, 0.09600000455975533, -0.06400000303983688, 1.008000047877431, 0.0, 0.0, 0.0, 0.0, 0.0, 1.7052701524048555E9, 0.0, 2024-01-14 17:09:12.404
87.0, 462.6705033183098, -69.65189677476883, 62.71064245700836, -65.82223922014236, 0.09600000455975533, -0.06400000303983688, 1.008000047877431, 0.0, 0.0, 0.0, 0.0, 0.0, 1.7052701524210176E9, 0.0, 2024-01-14 17:09:12.421
87.0, 455.96860259771347, -120.63421297073364, 272.62374716997147, -106.2729971408844, 0.09600000455975533, -0.06400000303983688, 1.008000047877431, 0.0, 0.0, 0.0, 0.0, 0.0, 1.7052701524210176E9, 0.0, 2024-01-14 17:09:12.421
88.0, 381.7689874768257, -157.73402053117752, 95.02337807416916, -149.83535182476044, 0.09600000455975533, -0.06400000303983688, 1.008000047877431, 0.0, 0.0, 0.0, 0.0, 0.0, 1.7052701524212935E9, 0.0, 2024-01-14 17:09:12.421
88.0, 429.40035331249237, -86.16729497909546, -10.770911872386932, -79.46539425849915, 0.09600000455975533, -0.06400000303983688, 1.008000047877431, 0.0, 0.0, 0.0, 0.0, 0.0, 1.7052701524212935E9, 0.0, 2024-01-14 17:09:12.421
89.0, 471.28723281621933, -93.10854929685593, 225.47108852863312, -83.53440541028976, 0.09600000455975533, -0.06400000303983688, 1.008000047877431, 0.0, 0.0, 0.0, 0.0, 0.0, 1.705270152434765E9, 0.0, 2024-01-14 17:09:12.434
89.0, 397.0876176953316, -157.01595973968506, 184.30226981639862, -151.75018060207367, 0.09600000455975533, -0.06400000303983688, 1.008000047877431, 0.0, 0.0, 0.0, 0.0, 0.0, 1.705270152434765E9, 0.0, 2024-01-14 17:09:12.434
90.0, 386.5560594201088, -119.91615217924118, -36.14239317178726, -113.93231225013733, 0.09600000455975533, -0.06400000303983688, 0.9920000471174717, 0.0, 0.0, 0.0, 0.0, 0.0, 1.705270152450467E9, 0.0, 2024-01-14 17:09:12.450
90.0, 464.82468569278717, -73.72090792655945, 147.4418158531189, -74.91767591238022, 0.09600000455975533, -0.06400000303983688, 0.9920000471174717, 0.0, 0.0, 0.0, 0.0, 0.0, 1.705270152450467E9, 0.0, 2024-01-14 17:09:12.450
91.0, 419.8262094259262, -151.75018060207367, 234.80587881803513, -138.82508635520935, 0.09600000455975533, -0.06400000303983688, 0.9920000471174717, 0.0, 0.0, 0.0, 0.0, 0.0, 1.70527015245117E9, 0.0, 2024-01-14 17:09:12.451
91.0, 364.5355284810066, -144.56957268714905, 1.4361215829849243, -142.65474390983582, 0.09600000455975533, -0.06400000303983688, 0.9920000471174717, 0.0, 0.0, 0.0, 0.0, 0.0, 1.70527015245117E9, 0.0, 2024-01-14 17:09:12.451
92.0, 453.57506662607193, -64.6254712343216, 56.2480953335762, -67.97642159461975, 0.09600000455975533, -0.06400000303983688, 0.9920000471174717, 0.0, 0.0, 0.0, 0.0, 0.0, 1.705270152464827E9, 0.0, 2024-01-14 17:09:12.464
92.0, 454.53248101472855, -117.7619698047638, 263.0496032834053, -110.34200829267502, 0.09600000455975533, -0.06400000303983688, 0.9920000471174717, 0.0, 0.0, 0.0, 0.0, 0.0, 1.705270152464827E9, 0.0, 2024-01-14 17:09:12.464
93.0, 381.7689874768257, -158.9307885169983, 94.54467087984085, -148.15987664461136, 0.09600000455975533, -0.06400000303983688, 0.9920000471174717, 0.0, 0.0, 0.0, 0.0, 0.0, 1.7052701524808576E9, 0.0, 2024-01-14 17:09:12.480
93.0, 426.0494029521942, -85.9279413819313, -10.770911872386932, -85.68858778476715, 0.09600000455975533, -0.06400000303983688, 0.9920000471174717, 0.0, 0.0, 0.0, 0.0, 0.0, 1.7052701524808576E9, 0.0, 2024-01-14 17:09:12.480
94.0, 469.8511112332344, -89.99695253372192, 227.38591730594635, -81.14086943864822, 0.09600000455975533, -0.06400000303983688, 0.9920000471174717, 0.0, 0.0, 0.0, 0.0, 0.0, 1.7052701524813416E9, 0.0, 2024-01-14 17:09:12.481
94.0, 406.1830543875694, -155.8191917538643, 187.41386657953262, -143.13345110416412, 0.09600000455975533, -0.06400000303983688, 0.9920000471174717, 0.0, 0.0, 0.0, 0.0, 0.0, 1.7052701524813416E9, 0.0, 2024-01-14 17:09:12.481
95.0, 393.97602093219757, -116.32584822177887, -37.578514754772186, -110.10265469551086, 0.09600000455975533, -0.06400000303983688, 0.9920000471174717, 0.0, 0.0, 0.0, 0.0, 0.0, 1.705270152495124E9, 0.0, 2024-01-14 17:09:12.495
95.0, 470.808525621891, -77.0718582868576, 133.55930721759796, -68.69448238611221, 0.09600000455975533, -0.06400000303983688, 0.9920000471174717, 0.0, 0.0, 0.0, 0.0, 0.0, 1.705270152495124E9, 0.0, 2024-01-14 17:09:12.495
96.0, 420.54427021741867, -145.2876334786415, 242.46519392728806, -134.99542880058289, 0.09600000455975533, -0.06400000303983688, 0.9920000471174717, 0.0, 0.0, 0.0, 0.0, 0.0, 1.705270152510439E9, 0.0, 2024-01-14 17:09:12.510
96.0, 382.247694671154, -142.41539031267166, 12.44638705253601, -131.40512484312057, 0.09600000455975533, -0.06400000303983688, 0.9920000471174717, 0.0, 0.0, 0.0, 0.0, 0.0, 1.705270152510439E9, 0.0, 2024-01-14 17:09:12.510
97.0, 456.9260169863701, -66.54030001163483, 60.07775288820267, -62.949996054172516, 0.09600000455975533, -0.06400000303983688, 0.9920000471174717, 0.0, 0.0, 0.0, 0.0, 0.0, 1.7052701525111716E9, 0.0, 2024-01-14 17:09:12.511
97.0, 462.43114972114563, -106.51235073804855, 277.88952630758286, -106.51235073804855, 0.09600000455975533, -0.06400000303983688, 0.9920000471174717, 0.0, 0.0, 0.0, 0.0, 0.0, 1.7052701525111716E9, 0.0, 2024-01-14 17:09:12.511
98.0, 382.4870482683182, -146.48440146446228, 102.20398598909378, -144.56957268714905, 0.09600000455975533, -0.06400000303983688, 0.9920000471174717, 0.0, 0.0, 0.0, 0.0, 0.0, 1.7052701525249405E9, 0.0, 2024-01-14 17:09:12.524
98.0, 435.6235468387604, -75.15702950954437, -4.547718346118927, -70.36995756626129, 0.09600000455975533, -0.06400000303983688, 0.9920000471174717, 0.0, 0.0, 0.0, 0.0, 0.0, 1.7052701525249405E9, 0.0, 2024-01-14 17:09:12.524
99.0, 482.53685188293457, -80.66216224431992, 228.1039780974388, -72.28478634357452, 0.09600000455975533, -0.06400000303983688, 0.9920000471174717, 0.0, 0.0, 0.0, 0.0, 0.0, 1.7052701525562088E9, 0.0, 2024-01-14 17:09:12.556
99.0, 403.7895184159279, -151.0321198105812, 184.30226981639862, -145.2876334786415, 0.09600000455975533, -0.06400000303983688, 0.9920000471174717, 0.0, 0.0, 0.0, 0.0, 0.0, 1.7052701525562088E9, 0.0, 2024-01-14 17:09:12.556
0.0, 479.1859015226364, -76.35379749536514, 143.85151189565659, -56.966156125068665, 0.09600000455975533, -0.06400000303983688, 1.008000047877431, 0.0, 0.0, 0.0, 0.0, 0.0, 1.705270152556991E9, 0.0, 2024-01-14 17:09:12.556
0.0, 439.2138507962227, -127.81482088565826, 250.6032162308693, -119.91615217924118, 0.09600000455975533, -0.06400000303983688, 1.008000047877431, 0.0, 0.0, 0.0, 0.0, 0.0, 1.705270152556991E9, 0.0, 2024-01-14 17:09:12.556
1.0, 390.6250705718994, -131.16577124595642, 9.574143886566162, -125.89999210834503, 0.09600000455975533, -0.06400000303983688, 1.008000047877431, 0.0, 0.0, 0.0, 0.0, 0.0, 1.7052701525576825E9, 0.0, 2024-01-14 17:09:12.557
1.0, 444.4796299338341, -60.31710648536682, 60.556460082530975, -71.56672555208206, 0.09600000455975533, -0.06400000303983688, 1.008000047877431, 0.0, 0.0, 0.0, 0.0, 0.0, 1.7052701525576825E9, 0.0, 2024-01-14 17:09:12.557
2.0, 445.67639791965485, -118.2406769990921, 266.87926083803177, -124.70322412252426, 0.09600000455975533, -0.06400000303983688, 1.008000047877431, 0.0, 0.0, 0.0, 0.0, 0.0, 1.7052701525699196E9, 0.0, 2024-01-14 17:09:12.569
2.0, 367.6471252441406, -152.70759499073029, 91.1937205195427, -173.5313579440117, 0.09600000455975533, -0.06400000303983688, 1.008000047877431, 0.0, 0.0, 0.0, 0.0, 0.0, 1.7052701525699196E9, 0.0, 2024-01-14 17:09:12.569
3.0, 431.3151820898056, -82.8163446187973, -3.3509503602981567, -87.60341656208038, 0.09600000455975533, -0.06400000303983688, 1.008000047877431, 0.0, 0.0, 0.0, 0.0, 0.0, 1.7052701525856318E9, 0.0, 2024-01-14 17:09:12.585
3.0, 481.57943749427795, -87.12470936775208, 225.94979572296143, -73.72090792655945, 0.09600000455975533, -0.06400000303983688, 1.008000047877431, 0.0, 0.0, 0.0, 0.0, 0.0, 1.7052701525856318E9, 0.0, 2024-01-14 17:09:12.585
4.0, 413.6030158996582, -163.71786046028137, 175.20683312416077, -148.15987664461136, 0.09600000455975533, -0.06400000303983688, 1.008000047877431, 0.0, 0.0, 0.0, 0.0, 0.0, 1.705270152586167E9, 0.0, 2024-01-14 17:09:12.586
4.0, 405.2256399989128, -109.86330109834671, -31.594674825668335, -115.36843383312225, 0.09600000455975533, -0.06400000303983688, 1.008000047877431, 0.0, 0.0, 0.0, 0.0, 0.0, 1.705270152586167E9, 0.0, 2024-01-14 17:09:12.586
5.0, 477.031719148159, -64.38611763715744, 151.0321198105812, -77.0718582868576, 0.09600000455975533, -0.06400000303983688, 1.008000047877431, 0.0, 0.0, 0.0, 0.0, 0.0, 1.7052701525999925E9, 0.0, 2024-01-14 17:09:12.599
5.0, 435.3841932415962, -150.5534126162529, 234.56652522087097, -134.75607520341873, 0.09600000455975533, -0.06400000303983688, 1.008000047877431, 0.0, 0.0, 0.0, 0.0, 0.0, 1.7052701525999925E9, 0.0, 2024-01-14 17:09:12.599
6.0, 407.8585295677185, -129.96900326013565, 16.276044607162476, -117.28326261043549, 0.09600000455975533, -0.06400000303983688, 1.008000047877431, 0.0, 0.0, 0.0, 0.0, 0.0, 1.705270152615693E9, 0.0, 2024-01-14 17:09:12.615
6.0, 471.28723281621933, -63.66805684566498, 63.90741044282913, -49.306841015815735, 0.09600000455975533, -0.06400000303983688, 1.008000047877431, 0.0, 0.0, 0.0, 0.0, 0.0, 1.705270152615693E9, 0.0, 2024-01-14 17:09:12.615
7.0, 470.09046483039856, -111.77812987565994, 274.77792954444885, -91.91178131103516, 0.09600000455975533, -0.06400000303983688, 1.008000047877431, 0.0, 0.0, 0.0, 0.0, 0.0, 1.7052701526164353E9, 0.0, 2024-01-14 17:09:12.616
7.0, 394.9334353208542, -143.61215829849243, 98.85303562879562, -144.09086549282074, 0.09600000455975533, -0.06400000303983688, 1.008000047877431, 0.0, 0.0, 0.0, 0.0, 0.0, 1.7052701526164353E9, 0.0, 2024-01-14 17:09:12.616
8.0, 428.6822925209999, -76.11444389820099, 0.7180607914924622, -92.39048850536346, 0.09600000455975533, -0.06400000303983688, 1.008000047877431, 0.0, 0.0, 0.0, 0.0, 0.0, 1.705270152629722E9, 0.0, 2024-01-14 17:09:12.629
8.0, 480.8613767027855, -78.50797986984253, 238.87488996982574, -91.91178131103516, 0.09600000455975533, -0.06400000303983688, 1.008000047877431, 0.0, 0.0, 0.0, 0.0, 0.0, 1.705270152629722E9, 0.0, 2024-01-14 17:09:12.629
9.0, 415.99655187129974, -153.42565578222275, 181.19067305326462, -136.19219678640366, 0.09600000455975533, -0.06400000303983688, 1.008000047877431, 0.0, 0.0, 0.0, 0.0, 0.0, 1.7052701526457396E9, 0.0, 2024-01-14 17:09:12.645
9.0, 424.85263496637344, -106.03364354372025, -32.07338201999664, -83.29505181312561, 0.09600000455975533, -0.06400000303983688, 1.008000047877431, 0.0, 0.0, 0.0, 0.0, 0.0, 1.7052701526457396E9, 0.0, 2024-01-14 17:09:12.645
10.0, 498.5735428929329, -65.1041784286499, 147.68116945028305, -41.40817230939865, 0.09600000455975533, -0.06400000303983688, 1.008000047877431, 0.0, 0.0, 0.0, 0.0, 0.0, 1.705270152646298E9, 0.0, 2024-01-14 17:09:12.646
10.0, 443.2828619480133, -142.1760367155075, 236.9600611925125, -127.0967600941658, 0.09600000455975533, -0.06400000303983688, 1.008000047877431, 0.0, 0.0, 0.0, 0.0, 0.0, 1.705270152646298E9, 0.0, 2024-01-14 17:09:12.646
11.0, 393.7366673350334, -137.86767196655273, 7.65931510925293, -124.46387052536011, 0.09600000455975533, -0.06400000303983688, 1.008000047877431, 0.0, 0.0, 0.0, 0.0, 0.0, 1.7052701526598432E9, 0.0, 2024-01-14 17:09:12.659
11.0, 467.45757526159286, -73.24220073223114, 48.82813382148743, -57.20550972223282, 0.09600000455975533, -0.06400000303983688, 1.008000047877431, 0.0, 0.0, 0.0, 0.0, 0.0, 1.7052701526598432E9, 0.0, 2024-01-14 17:09:12.659
12.0, 466.7395144701004, -121.83098095655441, 258.2625313401222, -105.31558275222778, 0.09600000455975533, -0.06400000303983688, 1.008000047877431, 0.0, 0.0, 0.0, 0.0, 0.0, 1.7052701526754577E9, 0.0, 2024-01-14 17:09:12.675
12.0, 397.0876176953316, -159.4094957113266, 90.95436692237854, -141.6973295211792, 0.09600000455975533, -0.06400000303983688, 1.008000047877431, 0.0, 0.0, 0.0, 0.0, 0.0, 1.7052701526754577E9, 0.0, 2024-01-14 17:09:12.675
13.0, 436.34160763025284, -88.08212375640869, -12.207033455371857, -78.02927267551422, 0.09600000455975533, -0.06400000303983688, 1.008000047877431, 0.0, 0.0, 0.0, 0.0, 0.0, 1.7052701526761887E9, 0.0, 2024-01-14 17:09:12.676
13.0, 481.57943749427795, -93.82661008834839, 219.72660219669342, -80.18345504999161, 0.09600000455975533, -0.06400000303983688, 1.008000047877431, 0.0, 0.0, 0.0, 0.0, 0.0, 1.7052701526761887E9, 0.0, 2024-01-14 17:09:12.676
14.0, 412.1668943166733, -159.4094957113266, 178.79713708162308, -146.24504786729813, 0.09600000455975533, -0.06400000303983688, 1.008000047877431, 0.0, 0.0, 0.0, 0.0, 0.0, 1.7052701526899936E9, 0.0, 2024-01-14 17:09:12.689
14.0, 413.1243087053299, -106.2729971408844, -30.63726043701172, -93.58725649118423, 0.09600000455975533, -0.06400000303983688, 1.008000047877431, 0.0, 0.0, 0.0, 0.0, 0.0, 1.7052701526899936E9, 0.0, 2024-01-14 17:09:12.689
15.0, 483.9729734659195, -71.80607914924622, 148.63858383893967, -61.03516727685928, 0.09600000455975533, -0.06400000303983688, 1.008000047877431, 0.0, 0.0, 0.0, 0.0, 0.0, 1.705270152705856E9, 0.0, 2024-01-14 17:09:12.705
15.0, 437.29902201890945, -143.13345110416412, 236.0026468038559, -131.64447844028473, 0.09600000455975533, -0.06400000303983688, 1.008000047877431, 0.0, 0.0, 0.0, 0.0, 0.0, 1.705270152705856E9, 0.0, 2024-01-14 17:09:12.705
16.0, 393.7366673350334, -140.02185434103012, 10.292204678058624, -127.57546728849411, 0.09600000455975533, -0.06400000303983688, 1.008000047877431, 0.0, 0.0, 0.0, 0.0, 0.0, 1.7052701527064412E9, 0.0, 2024-01-14 17:09:12.706
16.0, 464.34597849845886, -70.13060396909714, 57.92357051372528, -60.79581367969513, 0.09600000455975533, -0.06400000303983688, 1.008000047877431, 0.0, 0.0, 0.0, 0.0, 0.0, 1.7052701527064412E9, 0.0, 2024-01-14 17:09:12.706
17.0, 468.65434324741364, -115.36843383312225, 272.3843935728073, -98.85303562879562, 0.09600000455975533, -0.06400000303983688, 1.008000047877431, 0.0, 0.0, 0.0, 0.0, 0.0, 1.7052701527198036E9, 0.0, 2024-01-14 17:09:12.719
17.0, 398.28438568115234, -151.75018060207367, 93.58725649118423, -137.38896477222443, 0.09600000455975533, -0.06400000303983688, 1.008000047877431, 0.0, 0.0, 0.0, 0.0, 0.0, 1.7052701527198036E9, 0.0, 2024-01-14 17:09:12.719
18.0, 444.9583371281624, -78.50797986984253, -2.8722431659698486, -68.45512878894806, 0.09600000455975533, -0.06400000303983688, 1.008000047877431, 0.0, 0.0, 0.0, 0.0, 0.0, 1.705270152735751E9, 0.0, 2024-01-14 17:09:12.735
18.0, 492.58970296382904, -87.60341656208038, 223.31690615415573, -74.91767591238022, 0.09600000455975533, -0.06400000303983688, 1.008000047877431, 0.0, 0.0, 0.0, 0.0, 0.0, 1.705270152735751E9, 0.0, 2024-01-14 17:09:12.735
19.0, 414.32107669115067, -151.0321198105812, 177.121661901474, -145.76634067296982, 0.09600000455975533, -0.06400000303983688, 1.008000047877431, 0.0, 0.0, 0.0, 0.0, 0.0, 1.7052701527363944E9, 0.0, 2024-01-14 17:09:12.736
19.0, 410.0127119421959, -114.65037304162979, -36.860453963279724, -107.46976512670517, 0.09600000455975533, -0.06400000303983688, 1.008000047877431, 0.0, 0.0, 0.0, 0.0, 0.0, 1.7052701527363944E9, 0.0, 2024-01-14 17:09:12.736
20.0, 500.4883716702461, -64.14676403999329, 154.38307017087936, -50.26425540447235, 0.09600000455975533, -0.06400000303983688, 1.008000047877431, 0.0, 0.0, 0.0, 0.0, 0.0, 1.7052701527497668E9, 0.0, 2024-01-14 17:09:12.749
20.0, 453.8144202232361, -133.3199536204338, 247.25226587057114, -124.46387052536011, 0.09600000455975533, -0.06400000303983688, 1.008000047877431, 0.0, 0.0, 0.0, 0.0, 0.0, 1.7052701527497668E9, 0.0, 2024-01-14 17:09:12.749
21.0, 395.8908497095108, -143.37280470132828, 1.6754751801490784, -128.05417448282242, 0.09600000455975533, -0.06400000303983688, 1.008000047877431, 0.0, 0.0, 0.0, 0.0, 0.0, 1.7052701527655203E9, 0.0, 2024-01-14 17:09:12.765
21.0, 474.1594759821892, -72.76349353790283, 50.503609001636505, -55.769388139247894, 0.09600000455975533, -0.06400000303983688, 1.008000047877431, 0.0, 0.0, 0.0, 0.0, 0.0, 1.7052701527655203E9, 0.0, 2024-01-14 17:09:12.765
22.0, 479.9039623141289, -117.52261620759964, 260.8954209089279, -102.20398598909378, 0.09600000455975533, -0.06400000303983688, 1.008000047877431, 0.0, 0.0, 0.0, 0.0, 0.0, 1.7052701527661936E9, 0.0, 2024-01-14 17:09:12.766
22.0, 389.6676561832428, -168.7442860007286, 78.26862627267838, -156.53725254535675, 0.09600000455975533, -0.06400000303983688, 1.008000047877431, 0.0, 0.0, 0.0, 0.0, 0.0, 1.7052701527661936E9, 0.0, 2024-01-14 17:09:12.766
23.0, 439.45320439338684, -86.88535577058792, -6.9412543177604675, -78.74733346700668, 0.09600000455975533, -0.06400000303983688, 1.008000047877431, 0.0, 0.0, 0.0, 0.0, 0.0, 1.7052701527801733E9, 0.0, 2024-01-14 17:09:12.780
23.0, 488.0419846177101, -90.71501332521439, 223.55625975131989, -74.19961512088776, 0.09600000455975533, -0.06400000303983688, 1.008000047877431, 0.0, 0.0, 0.0, 0.0, 0.0, 1.7052701527801733E9, 0.0, 2024-01-14 17:09:12.780
24.0, 413.84236949682236, -155.34048455953598, 183.10550183057785, -145.76634067296982, 0.09600000455975533, -0.06400000303983688, 1.008000047877431, 0.0, 0.0, 0.0, 0.0, 0.0, 1.7052701527957263E9, 0.0, 2024-01-14 17:09:12.795
24.0, 414.799783885479, -112.25683706998825, -35.663685977458954, -102.68269318342209, 0.09600000455975533, -0.06400000303983688, 1.008000047877431, 0.0, 0.0, 0.0, 0.0, 0.0, 1.7052701527957263E9, 0.0, 2024-01-14 17:09:12.795
25.0, 495.9406533241272, -67.7370679974556, 148.3992302417755, -58.64163130521774, 0.09600000455975533, -0.06400000303983688, 1.008000047877431, 0.0, 0.0, 0.0, 0.0, 0.0, 1.7052701527963636E9, 0.0, 2024-01-14 17:09:12.796
25.0, 454.53248101472855, -140.26120793819427, 237.91747558116913, -121.11292016506195, 0.09600000455975533, -0.06400000303983688, 1.008000047877431, 0.0, 0.0, 0.0, 0.0, 0.0, 1.7052701527963636E9, 0.0, 2024-01-14 17:09:12.796
26.0, 395.65149611234665, -139.5431471467018, 0.9574143886566162, -128.05417448282242, 0.09600000455975533, -0.06400000303983688, 1.008000047877431, 0.0, 0.0, 0.0, 0.0, 0.0, 1.705270152809729E9, 0.0, 2024-01-14 17:09:12.809
26.0, 468.65434324741364, -77.31121188402176, 41.88687950372696, -65.58288562297821, 0.09600000455975533, -0.06400000303983688, 1.008000047877431, 0.0, 0.0, 0.0, 0.0, 0.0, 1.705270152809729E9, 0.0, 2024-01-14 17:09:12.809
27.0, 477.98913353681564, -119.19809138774872, 265.682492852211, -104.35816836357117, 0.09600000455975533, -0.06400000303983688, 1.008000047877431, 0.0, 0.0, 0.0, 0.0, 0.0, 1.7052701528255627E9, 0.0, 2024-01-14 17:09:12.825
27.0, 402.1140432357788, -155.8191917538643, 89.27889174222946, -138.5857327580452, 0.09600000455975533, -0.06400000303983688, 1.008000047877431, 0.0, 0.0, 0.0, 0.0, 0.0, 1.7052701528255627E9, 0.0, 2024-01-14 17:09:12.825
28.0, 444.4796299338341, -81.85893023014069, -10.531558275222778, -76.11444389820099, 0.09600000455975533, -0.06400000303983688, 1.008000047877431, 0.0, 0.0, 0.0, 0.0, 0.0, 1.7052701528262143E9, 0.0, 2024-01-14 17:09:12.826
28.0, 496.4193605184555, -88.32147735357285, 228.58268529176712, -70.8486647605896, 0.09600000455975533, -0.06400000303983688, 1.008000047877431, 0.0, 0.0, 0.0, 0.0, 0.0, 1.7052701528262143E9, 0.0, 2024-01-14 17:09:12.826
29.0, 420.54427021741867, -160.36691009998322, 179.27584427595139, -142.1760367155075, 0.09600000455975533, -0.06400000303983688, 1.008000047877431, 0.0, 0.0, 0.0, 0.0, 0.0, 1.7052701528397353E9, 0.0, 2024-01-14 17:09:12.839
29.0, 412.88495510816574, -107.70911872386932, -37.09980756044388, -101.24657160043716, 0.09600000455975533, -0.06400000303983688, 1.008000047877431, 0.0, 0.0, 0.0, 0.0, 0.0, 1.7052701528397353E9, 0.0, 2024-01-14 17:09:12.839
30.0, 488.0419846177101, -70.36995756626129, 143.85151189565659, -59.359692096710205, 0.09600000455975533, -0.06400000303983688, 1.008000047877431, 0.0, 0.0, 0.0, 0.0, 0.0, 1.705270152855605E9, 0.0, 2024-01-14 17:09:12.855
30.0, 437.0596684217453, -151.51082700490952, 229.06139248609543, -133.3199536204338, 0.09600000455975533, -0.06400000303983688, 1.008000047877431, 0.0, 0.0, 0.0, 0.0, 0.0, 1.705270152855605E9, 0.0, 2024-01-14 17:09:12.855
31.0, 395.65149611234665, -145.04827988147736, -15.557983815670013, -132.8412464261055, 0.09600000455975533, -0.06400000303983688, 1.008000047877431, 0.0, 0.0, 0.0, 0.0, 0.0, 1.7052701528562803E9, 0.0, 2024-01-14 17:09:12.856
31.0, 467.696928858757, -79.94410145282745, 48.58878022432327, -64.38611763715744, 0.09600000455975533, -0.06400000303983688, 1.008000047877431, 0.0, 0.0, 0.0, 0.0, 0.0, 1.7052701528562803E9, 0.0, 2024-01-14 17:09:12.856
32.0, 470.808525621891, -123.74580973386765, 259.459299325943, -109.62394750118256, 0.09600000455975533, -0.06400000303983688, 1.008000047877431, 0.0, 0.0, 0.0, 0.0, 0.0, 1.7052701528700516E9, 0.0, 2024-01-14 17:09:12.870
32.0, 388.7102417945862, -163.95721405744553, 80.18345504999161, -149.11729103326797, 0.09600000455975533, -0.06400000303983688, 1.008000047877431, 0.0, 0.0, 0.0, 0.0, 0.0, 1.7052701528700516E9, 0.0, 2024-01-14 17:09:12.870
33.0, 445.915751516819, -84.73117339611053, -13.164447844028473, -70.36995756626129, 0.09600000455975533, -0.06400000303983688, 1.008000047877431, 0.0, 0.0, 0.0, 0.0, 0.0, 1.7052701528857608E9, 0.0, 2024-01-14 17:09:12.885
33.0, 495.22259253263474, -88.80018454790115, 223.79561334848404, -69.65189677476883, 0.09600000455975533, -0.06400000303983688, 1.008000047877431, 0.0, 0.0, 0.0, 0.0, 0.0, 1.7052701528857608E9, 0.0, 2024-01-14 17:09:12.885
34.0, 419.58685582876205, -165.1539820432663, 171.8558827638626, -140.73991513252258, 0.09600000455975533, -0.06400000303983688, 1.008000047877431, 0.0, 0.0, 0.0, 0.0, 0.0, 1.705270152886289E9, 0.0, 2024-01-14 17:09:12.886
34.0, 421.26233100891113, -107.70911872386932, -39.49334353208542, -96.45949965715408, 0.09600000455975533, -0.06400000303983688, 1.008000047877431, 0.0, 0.0, 0.0, 0.0, 0.0, 1.705270152886289E9, 0.0, 2024-01-14 17:09:12.886
35.0, 494.9832389354706, -70.8486647605896, 140.50056153535843, -53.61520576477051, 0.09600000455975533, -0.06400000303983688, 1.008000047877431, 0.0, 0.0, 0.0, 0.0, 0.0, 1.7052701529004424E9, 0.0, 2024-01-14 17:09:12.900
35.0, 438.97449719905853, -150.0747054219246, 229.30074608325958, -131.88383203744888, 0.09600000455975533, -0.06400000303983688, 1.008000047877431, 0.0, 0.0, 0.0, 0.0, 0.0, 1.7052701529004424E9, 0.0, 2024-01-14 17:09:12.900
36.0, 394.4547281265259, -137.38896477222443, 4.069011151790619, -123.9851633310318, 0.09600000455975533, -0.06400000303983688, 1.008000047877431, 0.0, 0.0, 0.0, 0.0, 0.0, 1.705270152915913E9, 0.0, 2024-01-14 17:09:12.915
36.0, 469.13305044174194, -66.77965360879898, 56.966156125068665, -59.359692096710205, 0.09600000455975533, -0.06400000303983688, 1.008000047877431, 0.0, 0.0, 0.0, 0.0, 0.0, 1.705270152915913E9, 0.0, 2024-01-14 17:09:12.915
37.0, 474.6381831765175, -116.08649462461472, 265.92184644937515, -97.4169140458107, 0.09600000455975533, -0.06400000303983688, 1.008000047877431, 0.0, 0.0, 0.0, 0.0, 0.0, 1.7052701529162972E9, 0.0, 2024-01-14 17:09:12.916
37.0, 398.28438568115234, -151.51082700490952, 89.27889174222946, -139.78250074386597, 0.09600000455975533, -0.06400000303983688, 1.008000047877431, 0.0, 0.0, 0.0, 0.0, 0.0, 1.7052701529162972E9, 0.0, 2024-01-14 17:09:12.916
38.0, 443.52221554517746, -76.83250468969345, 0.4787071943283081, -72.76349353790283, 0.09600000455975533, -0.06400000303983688, 1.008000047877431, 0.0, 0.0, 0.0, 0.0, 0.0, 1.705270152929791E9, 0.0, 2024-01-14 17:09:12.929
38.0, 489.47810620069504, -84.73117339611053, 224.27432054281235, -74.19961512088776, 0.09600000455975533, -0.06400000303983688, 1.008000047877431, 0.0, 0.0, 0.0, 0.0, 0.0, 1.705270152929791E9, 0.0, 2024-01-14 17:09:12.929
39.0, 416.2359054684639, -155.34048455953598, 178.79713708162308, -136.91025757789612, 0.09600000455975533, -0.06400000303983688, 1.008000047877431, 0.0, 0.0, 0.0, 0.0, 0.0, 1.7052701529454648E9, 0.0, 2024-01-14 17:09:12.945
39.0, 415.7571982741356, -101.00721800327301, -36.860453963279724, -90.23630613088608, 0.09600000455975533, -0.06400000303983688, 1.008000047877431, 0.0, 0.0, 0.0, 0.0, 0.0, 1.7052701529454648E9, 0.0, 2024-01-14 17:09:12.945
40.0, 504.7967364192009, -60.31710648536682, 148.63858383893967, -43.32300108671188, 0.09600000455975533, -0.06400000303983688, 1.008000047877431, 0.0, 0.0, 0.0, 0.0, 0.0, 1.7052701529461596E9, 0.0, 2024-01-14 17:09:12.946
40.0, 447.5912266969681, -139.30379354953766, 239.5929507613182, -122.07033455371857, 0.09600000455975533, -0.06400000303983688, 1.008000047877431, 0.0, 0.0, 0.0, 0.0, 0.0, 1.7052701529461596E9, 0.0, 2024-01-14 17:09:12.946
41.0, 402.1140432357788, -135.9528431892395, 13.643155038356781, -123.26710253953934, 0.09600000455975533, -0.06400000303983688, 1.008000047877431, 0.0, 0.0, 0.0, 0.0, 0.0, 1.7052701529600732E9, 0.0, 2024-01-14 17:09:12.960
41.0, 476.0743047595024, -61.03516727685928, 67.01900720596313, -53.1364985704422, 0.09600000455975533, -0.06400000303983688, 1.008000047877431, 0.0, 0.0, 0.0, 0.0, 0.0, 1.7052701529600732E9, 0.0, 2024-01-14 17:09:12.960
42.0, 467.696928858757, -112.97489786148071, 267.8366752266884, -105.31558275222778, 0.09600000455975533, -0.06400000303983688, 1.008000047877431, 0.0, 0.0, 0.0, 0.0, 0.0, 1.7052701529759376E9, 0.0, 2024-01-14 17:09:12.975
42.0, 395.65149611234665, -152.94694858789444, 83.77375900745392, -141.2186223268509, 0.09600000455975533, -0.06400000303983688, 1.008000047877431, 0.0, 0.0, 0.0, 0.0, 0.0, 1.7052701529759376E9, 0.0, 2024-01-14 17:09:12.975
43.0, 447.83058029413223, -81.14086943864822, -0.23935359716415405, -66.06159281730652, 0.09600000455975533, -0.06400000303983688, 1.008000047877431, 0.0, 0.0, 0.0, 0.0, 0.0, 1.7052701529764216E9, 0.0, 2024-01-14 17:09:12.976
43.0, 491.8716421723366, -94.06596368551254, 217.09371262788773, -76.11444389820099, 0.09600000455975533, -0.06400000303983688, 1.008000047877431, 0.0, 0.0, 0.0, 0.0, 0.0, 1.7052701529764216E9, 0.0, 2024-01-14 17:09:12.976
44.0, 420.06556302309036, -155.57983815670013, 178.55778348445892, -143.13345110416412, 0.09600000455975533, -0.06400000303983688, 1.008000047877431, 0.0, 0.0, 0.0, 0.0, 0.0, 1.7052701529898136E9, 0.0, 2024-01-14 17:09:12.989
44.0, 415.51784467697144, -111.06006908416748, -29.679846048355103, -97.65626764297485, 0.09600000455975533, -0.06400000303983688, 1.008000047877431, 0.0, 0.0, 0.0, 0.0, 0.0, 1.7052701529898136E9, 0.0, 2024-01-14 17:09:12.989
45.0, 494.7438853383064, -70.60931116342545, 149.11729103326797, -55.53003454208374, 0.09600000455975533, -0.06400000303983688, 1.008000047877431, 0.0, 0.0, 0.0, 0.0, 0.0, 1.7052701530054705E9, 0.0, 2024-01-14 17:09:13.005
45.0, 432.7513036727905, -152.94694858789444, 232.65169644355774, -139.5431471467018, 0.09600000455975533, -0.06400000303983688, 1.008000047877431, 0.0, 0.0, 0.0, 0.0, 0.0, 1.7052701530054705E9, 0.0, 2024-01-14 17:09:13.005
46.0, 389.90700978040695, -146.00569427013397, 0.23935359716415405, -135.4741359949112, 0.09600000455975533, -0.06400000303983688, 1.008000047877431, 0.0, 0.0, 0.0, 0.0, 0.0, 1.7052701530061555E9, 0.0, 2024-01-14 17:09:13.006
46.0, 465.54274648427963, -77.78991907835007, 44.2804154753685, -62.949996054172516, 0.09600000455975533, -0.06400000303983688, 1.008000047877431, 0.0, 0.0, 0.0, 0.0, 0.0, 1.7052701530061555E9, 0.0, 2024-01-14 17:09:13.006
47.0, 471.28723281621933, -125.66063851118088, 257.7838241457939, -102.92204678058624, 0.09600000455975533, -0.06400000303983688, 1.008000047877431, 0.0, 0.0, 0.0, 0.0, 0.0, 1.7052701530197988E9, 0.0, 2024-01-14 17:09:13.019
47.0, 392.53989934921265, -162.76044607162476, 80.18345504999161, -146.48440146446228, 0.09600000455975533, -0.06400000303983688, 1.008000047877431, 0.0, 0.0, 0.0, 0.0, 0.0, 1.7052701530197988E9, 0.0, 2024-01-14 17:09:13.019
48.0, 442.3254475593567, -87.84277015924454, -11.24961906671524, -78.74733346700668, 0.09600000455975533, -0.06400000303983688, 1.008000047877431, 0.0, 0.0, 0.0, 0.0, 0.0, 1.7052701530355856E9, 0.0, 2024-01-14 17:09:13.035
48.0, 488.0419846177101, -95.98079246282578, 218.7691878080368, -78.74733346700668, 0.09600000455975533, -0.06400000303983688, 1.008000047877431, 0.0, 0.0, 0.0, 0.0, 0.0, 1.7052701530355856E9, 0.0, 2024-01-14 17:09:13.035
49.0, 417.43267345428467, -155.57983815670013, 185.9777449965477, -139.5431471467018, 0.09600000455975533, -0.06400000303983688, 1.008000047877431, 0.0, 0.0, 0.0, 0.0, 0.0, 1.705270153036187E9, 0.0, 2024-01-14 17:09:13.036
49.0, 411.20947992801666, -117.52261620759964, -44.041061878204346, -98.37432843446732, 0.09600000455975533, -0.06400000303983688, 1.008000047877431, 0.0, 0.0, 0.0, 0.0, 0.0, 1.705270153036187E9, 0.0, 2024-01-14 17:09:13.036
50.0, 501.6851396560669, -60.31710648536682, 153.90436297655106, -50.98231619596481, 0.09600000455975533, -0.06400000303983688, 0.9920000471174717, 0.0, 0.0, 0.0, 0.0, 0.0, 1.7052701530503387E9, 0.0, 2024-01-14 17:09:13.050
50.0, 447.11251950263977, -143.37280470132828, 236.24200040102005, -122.07033455371857, 0.09600000455975533, -0.06400000303983688, 0.9920000471174717, 0.0, 0.0, 0.0, 0.0, 0.0, 1.7052701530503387E9, 0.0, 2024-01-14 17:09:13.050
51.0, 400.1992144584656, -138.82508635520935, 6.462547123432159, -124.22451692819595, 0.09600000455975533, -0.06400000303983688, 0.9920000471174717, 0.0, 0.0, 0.0, 0.0, 0.0, 1.7052701530655396E9, 0.0, 2024-01-14 17:09:13.065
51.0, 477.51042634248734, -69.17318958044052, 52.65779137611389, -56.2480953335762, 0.09600000455975533, -0.06400000303983688, 0.9920000471174717, 0.0, 0.0, 0.0, 0.0, 0.0, 1.7052701530655396E9, 0.0, 2024-01-14 17:09:13.065
52.0, 480.3826695084572, -111.29942268133163, 272.14503997564316, -98.61368203163147, 0.09600000455975533, -0.06400000303983688, 0.9920000471174717, 0.0, 0.0, 0.0, 0.0, 0.0, 1.7052701530662596E9, 0.0, 2024-01-14 17:09:13.066
52.0, 400.91727524995804, -157.73402053117752, 87.36406296491623, -139.78250074386597, 0.09600000455975533, -0.06400000303983688, 0.9920000471174717, 0.0, 0.0, 0.0, 0.0, 0.0, 1.7052701530662596E9, 0.0, 2024-01-14 17:09:13.066
53.0, 443.2828619480133, -86.88535577058792, 0.0, -73.00284713506699, 0.09600000455975533, -0.06400000303983688, 0.9920000471174717, 0.0, 0.0, 0.0, 0.0, 0.0, 1.7052701530797806E9, 0.0, 2024-01-14 17:09:13.079
53.0, 510.5412227511406, -64.38611763715744, 252.27869141101837, -60.07775288820267, 0.09600000455975533, -0.06400000303983688, 0.9920000471174717, 0.0, 0.0, 0.0, 0.0, 0.0, 1.7052701530797806E9, 0.0, 2024-01-14 17:09:13.079
54.0, 423.17715978622437, -143.61215829849243, 195.55188888311386, -131.88383203744888, 0.09600000455975533, -0.06400000303983688, 0.9920000471174717, 0.0, 0.0, 0.0, 0.0, 0.0, 1.7052701530955596E9, 0.0, 2024-01-14 17:09:13.095
54.0, 426.0494029521942, -93.58725649118423, -16.276044607162476, -90.47565972805023, 0.09600000455975533, -0.06400000303983688, 0.9920000471174717, 0.0, 0.0, 0.0, 0.0, 0.0, 1.7052701530955596E9, 0.0, 2024-01-14 17:09:13.095
55.0, 491.6322885751724, -58.64163130521774, 162.28173887729645, -55.53003454208374, 0.09600000455975533, -0.06400000303983688, 0.9920000471174717, 0.0, 0.0, 0.0, 0.0, 0.0, 1.7052701530961976E9, 0.0, 2024-01-14 17:09:13.096
55.0, 444.9583371281624, -132.8412464261055, 249.64580184221268, -122.54904174804688, 0.09600000455975533, -0.06400000303983688, 0.9920000471174717, 0.0, 0.0, 0.0, 0.0, 0.0, 1.7052701530961976E9, 0.0, 2024-01-14 17:09:13.096
56.0, 404.50757920742035, -127.81482088565826, 16.994105398654938, -120.15550577640533, 0.09600000455975533, -0.06400000303983688, 0.9920000471174717, 0.0, 0.0, 0.0, 0.0, 0.0, 1.7052701531100671E9, 0.0, 2024-01-14 17:09:13.110
56.0, 480.62202310562134, -55.53003454208374, 73.72090792655945, -49.06748741865158, 0.09600000455975533, -0.06400000303983688, 0.9920000471174717, 0.0, 0.0, 0.0, 0.0, 0.0, 1.7052701531100671E9, 0.0, 2024-01-14 17:09:13.110
57.0, 479.42525511980057, -116.56520181894302, 267.1186144351959, -97.65626764297485, 0.09600000455975533, -0.06400000303983688, 0.9920000471174717, 0.0, 0.0, 0.0, 0.0, 0.0, 1.7052701531258752E9, 0.0, 2024-01-14 17:09:13.125
57.0, 411.68818712234497, -142.41539031267166, 93.34790289402008, -126.13934570550919, 0.09600000455975533, -0.06400000303983688, 0.9920000471174717, 0.0, 0.0, 0.0, 0.0, 0.0, 1.7052701531258752E9, 0.0, 2024-01-14 17:09:13.125
58.0, 457.16537058353424, -70.60931116342545, 5.983839929103851, -58.162924110889435, 0.09600000455975533, -0.06400000303983688, 0.9920000471174717, 0.0, 0.0, 0.0, 0.0, 0.0, 1.70527015312656E9, 0.0, 2024-01-14 17:09:13.126
58.0, 492.58970296382904, -80.90151584148407, 230.01880687475204, -71.08801835775375, 0.09600000455975533, -0.06400000303983688, 0.9920000471174717, 0.0, 0.0, 0.0, 0.0, 0.0, 1.70527015312656E9, 0.0, 2024-01-14 17:09:13.126
59.0, 430.357767701149, -145.04827988147736, 183.344855427742, -131.64447844028473, 0.09600000455975533, -0.06400000303983688, 0.9920000471174717, 0.0, 0.0, 0.0, 0.0, 0.0, 1.7052701531397624E9, 0.0, 2024-01-14 17:09:13.139
59.0, 427.7248781323433, -91.91178131103516, -23.456652522087097, -89.51824533939362, 0.09600000455975533, -0.06400000303983688, 0.9920000471174717, 0.0, 0.0, 0.0, 0.0, 0.0, 1.7052701531397624E9, 0.0, 2024-01-14 17:09:13.139
60.0, 504.07867562770844, -56.72680252790451, 158.45208132266998, -48.82813382148743, 0.09600000455975533, -0.06400000303983688, 1.008000047877431, 0.0, 0.0, 0.0, 0.0, 0.0, 1.7052701531557205E9, 0.0, 2024-01-14 17:09:13.155
60.0, 462.1917961239815, -131.88383203744888, 246.77355867624283, -110.58136188983917, 0.09600000455975533, -0.06400000303983688, 1.008000047877431, 0.0, 0.0, 0.0, 0.0, 0.0, 1.7052701531557205E9, 0.0, 2024-01-14 17:09:13.155
61.0, 406.66176158189774, -138.82508635520935, 8.377375900745392, -119.43744498491287, 0.09600000455975533, -0.06400000303983688, 1.008000047877431, 0.0, 0.0, 0.0, 0.0, 0.0, 1.705270153156178E9, 0.0, 2024-01-14 17:09:13.156
61.0, 487.5632774233818, -50.98231619596481, 83.29505181312561, -43.32300108671188, 0.09600000455975533, -0.06400000303983688, 1.008000047877431, 0.0, 0.0, 0.0, 0.0, 0.0, 1.705270153156178E9, 0.0, 2024-01-14 17:09:13.156
62.0, 490.91422778367996, -99.09238922595978, 284.59142702817917, -87.12470936775208, 0.09600000455975533, -0.06400000303983688, 1.008000047877431, 0.0, 0.0, 0.0, 0.0, 0.0, 1.7052701531701517E9, 0.0, 2024-01-14 17:09:13.170
62.0, 413.1243087053299, -141.6973295211792, 102.68269318342209, -130.6870640516281, 0.09600000455975533, -0.06400000303983688, 1.008000047877431, 0.0, 0.0, 0.0, 0.0, 0.0, 1.7052701531701517E9, 0.0, 2024-01-14 17:09:13.170
63.0, 470.09046483039856, -61.51387447118759, 25.850188493728638, -52.897144973278046, 0.09600000455975533, -0.06400000303983688, 1.008000047877431, 0.0, 0.0, 0.0, 0.0, 0.0, 1.7052701531855707E9, 0.0, 2024-01-14 17:09:13.185
63.0, 507.4296259880066, -76.83250468969345, 243.90131551027298, -66.06159281730652, 0.09600000455975533, -0.06400000303983688, 1.008000047877431, 0.0, 0.0, 0.0, 0.0, 0.0, 1.7052701531855707E9, 0.0, 2024-01-14 17:09:13.185
64.0, 426.0494029521942, -148.63858383893967, 185.73839139938354, -134.99542880058289, 0.09600000455975533, -0.06400000303983688, 1.008000047877431, 0.0, 0.0, 0.0, 0.0, 0.0, 1.7052701531862369E9, 0.0, 2024-01-14 17:09:13.186
64.0, 428.6822925209999, -101.72527879476547, -30.15855324268341, -82.09828382730484, 0.09600000455975533, -0.06400000303983688, 1.008000047877431, 0.0, 0.0, 0.0, 0.0, 0.0, 1.7052701531862369E9, 0.0, 2024-01-14 17:09:13.186
65.0, 502.40320044755936, -67.49771440029144, 158.21272772550583, -46.67395144701004, 0.09600000455975533, -0.06400000303983688, 1.008000047877431, 0.0, 0.0, 0.0, 0.0, 0.0, 1.705270153199781E9, 0.0, 2024-01-14 17:09:13.199
65.0, 451.1815306544304, -137.86767196655273, 247.9703266620636, -117.04390901327133, 0.09600000455975533, -0.06400000303983688, 1.008000047877431, 0.0, 0.0, 0.0, 0.0, 0.0, 1.705270153199781E9, 0.0, 2024-01-14 17:09:13.199
66.0, 404.7469328045845, -126.13934570550919, 12.685740649700165, -115.84714102745056, 0.09600000455975533, -0.06400000303983688, 1.008000047877431, 0.0, 0.0, 0.0, 0.0, 0.0, 1.7052701532163157E9, 0.0, 2024-01-14 17:09:13.216
66.0, 476.7923655509949, -63.428703248500824, 67.25836080312729, -56.00874173641205, 0.09600000455975533, -0.06400000303983688, 1.008000047877431, 0.0, 0.0, 0.0, 0.0, 0.0, 1.7052701532163157E9, 0.0, 2024-01-14 17:09:13.216
67.0, 468.8936968445778, -116.80455541610718, 263.5283104777336, -106.99105793237686, 0.09600000455975533, -0.06400000303983688, 1.008000047877431, 0.0, 0.0, 0.0, 0.0, 0.0, 1.7052701532164028E9, 0.0, 2024-01-14 17:09:13.216
