%OpenBCI Raw EXG Data
%Number of channels = 4
%Sample Rate = 200 Hz
%Board = OpenBCI_GUI$BoardGanglionBLE
Sample Index, EXG Channel 0, EXG Channel 1, EXG Channel 2, EXG Channel 3, Accel Channel 0, Accel Channel 1, Accel Channel 2, Other, Other, Other, Other, Other, Timestamp, Other, Timestamp (Formatted)
0.0, -392.53989934921265, -404.7469328045845, -206.56215435266495, -65.82223922014236, 0.0, 0.0, 0.9760000463575125, 0.0, 0.0, 0.0, 0.0, 0.0, 1.7054512524199524E9, 0.0, 2024-01-16 19:27:32.419
0.0, -460.5163209438324, -400.1992144584656, -193.63706010580063, -89.03953814506531, 0.0, 0.0, 0.9760000463575125, 0.0, 0.0, 0.0, 0.0, 0.0, 1.7054512524199524E9, 0.0, 2024-01-16 19:27:32.419
1.0, -373.15225797891617, -387.5134738087654, -186.456452190876, 24.89277410507202, 0.0, -0.9760000463575125, 0.9760000463575125, 0.0, 0.0, 0.0, 0.0, 0.0, 1.705451252434554E9, 0.0, 2024-01-16 19:27:32.434
1.0, -346.10530149936676, -387.9921810030937, -199.86025363206863, -24.653420507907867, 0.0, -0.9760000463575125, 0.9760000463575125, 0.0, 0.0, 0.0, 0.0, 0.0, 1.705451252434554E9, 0.0, 2024-01-16 19:27:32.434
2.0, -435.14483964443207, -376.98191553354263, -194.3551208972931, -94.784024477005, -0.9760000463575125, -0.9760000463575125, 0.9760000463575125, 0.0, 0.0, 0.0, 0.0, 0.0, 1.7054512524490538E9, 0.0, 2024-01-16 19:27:32.449
2.0, -396.60891050100327, -374.34902596473694, -176.6429547071457, 2.6328895688056946, -0.9760000463575125, -0.9760000463575125, 0.9760000463575125, 0.0, 0.0, 0.0, 0.0, 0.0, 1.7054512524490538E9, 0.0, 2024-01-16 19:27:32.449
3.0, -329.1111961007118, -386.5560594201088, -188.84998816251755, 21.30247014760971, -0.9760000463575125, -0.9760000463575125, 0.9760000463575125, 0.0, 0.0, 0.0, 0.0, 0.0, 1.7054512524497619E9, 0.0, 2024-01-16 19:27:32.449
3.0, -421.9803918004036, -403.3108112215996, -198.90283924341202, -90.95436692237854, -0.9760000463575125, -0.9760000463575125, 0.9760000463575125, 0.0, 0.0, 0.0, 0.0, 0.0, 1.7054512524497619E9, 0.0, 2024-01-16 19:27:32.449
4.0, -429.6397069096565, -380.57221949100494, -179.99390506744385, -36.62110036611557, -0.9760000463575125, -0.9760000463575125, 0.9760000463575125, 0.0, 0.0, 0.0, 0.0, 0.0, 1.705451252463772E9, 0.0, 2024-01-16 19:27:32.463
4.0, -337.0098648071289, -386.5560594201088, -183.8235626220703, 34.466917991638184, -0.9760000463575125, -0.9760000463575125, 0.9760000463575125, 0.0, 0.0, 0.0, 0.0, 0.0, 1.705451252463772E9, 0.0, 2024-01-16 19:27:32.463
5.0, -372.912904381752, -388.470888197422, -200.33896082639694, -63.90741044282913, -0.9760000463575125, -0.9760000463575125, 0.9760000463575125, 0.0, 0.0, 0.0, 0.0, 0.0, 1.7054512524954927E9, 0.0, 2024-01-16 19:27:32.495
5.0, -443.04350835084915, -376.5032083392143, -194.8338280916214, -91.91178131103516, -0.9760000463575125, -0.9760000463575125, 0.9760000463575125, 0.0, 0.0, 0.0, 0.0, 0.0, 1.7054512524954927E9, 0.0, 2024-01-16 19:27:32.495
6.0, -367.40777164697647, -388.94959539175034, -183.8235626220703, 26.08954209089279, -0.9760000463575125, -0.9760000463575125, 0.9760000463575125, 0.0, 0.0, 0.0, 0.0, 0.0, 1.7054512524961765E9, 0.0, 2024-01-16 19:27:32.496
6.0, -352.8072022199631, -395.65149611234665, -209.9131047129631, -27.525663673877716, -0.9760000463575125, -0.9760000463575125, 0.9760000463575125, 0.0, 0.0, 0.0, 0.0, 0.0, 1.7054512524961765E9, 0.0, 2024-01-16 19:27:32.496
7.0, -438.97449719905853, -387.0347666144371, -199.86025363206863, -100.5285108089447, -0.9760000463575125, -0.9760000463575125, 0.9760000463575125, 0.0, 0.0, 0.0, 0.0, 0.0, 1.7054512524968948E9, 0.0, 2024-01-16 19:27:32.496
7.0, -398.0450320839882, -375.78514754772186, -173.29200434684753, 7.898668706417084, -0.9760000463575125, -0.9760000463575125, 0.9760000463575125, 0.0, 0.0, 0.0, 0.0, 0.0, 1.7054512524968948E9, 0.0, 2024-01-16 19:27:32.496
8.0, -328.6324889063835, -389.6676561832428, -191.48287773132324, 24.414066910743713, -0.9760000463575125, -0.9760000463575125, 0.9760000463575125, 0.0, 0.0, 0.0, 0.0, 0.0, 1.7054512524977317E9, 0.0, 2024-01-16 19:27:32.497
8.0, -410.4914191365242, -386.5560594201088, -192.679645717144, -79.94410145282745, -0.9760000463575125, -0.9760000463575125, 0.9760000463575125, 0.0, 0.0, 0.0, 0.0, 0.0, 1.7054512524977317E9, 0.0, 2024-01-16 19:27:32.497
9.0, -429.1609997153282, -376.7425619363785, -182.8661482334137, -32.07338201999664, -0.9760000463575125, -0.9760000463575125, 0.9760000463575125, 0.0, 0.0, 0.0, 0.0, 0.0, 1.7054512525083745E9, 0.0, 2024-01-16 19:27:32.508
9.0, -331.98343926668167, -375.78514754772186, -184.78097701072693, 41.88687950372696, -0.9760000463575125, -0.9760000463575125, 0.9760000463575125, 0.0, 0.0, 0.0, 0.0, 0.0, 1.7054512525083745E9, 0.0, 2024-01-16 19:27:32.508
10.0, -379.8541586995125, -392.3005457520485, -202.25378960371017, -59.59904569387436, -0.9760000463575125, -0.9760000463575125, 0.5280000250786543, 0.0, 0.0, 0.0, 0.0, 0.0, 1.7054512525397573E9, 0.0, 2024-01-16 19:27:32.539
10.0, -448.78799468278885, -381.7689874768257, -186.456452190876, -84.25246620178223, -0.9760000463575125, -0.9760000463575125, 0.5280000250786543, 0.0, 0.0, 0.0, 0.0, 0.0, 1.7054512525397573E9, 0.0, 2024-01-16 19:27:32.539
11.0, -353.52526301145554, -367.6471252441406, -171.61652916669846, 39.73269712924957, -0.9760000463575125, -0.5280000250786543, 0.5280000250786543, 0.0, 0.0, 0.0, 0.0, 0.0, 1.705451252540439E9, 0.0, 2024-01-16 19:27:32.540
11.0, -344.66917991638184, -389.1889489889145, -196.26994967460632, -13.882508635520935, -0.9760000463575125, -0.5280000250786543, 0.5280000250786543, 0.0, 0.0, 0.0, 0.0, 0.0, 1.705451252540439E9, 0.0, 2024-01-16 19:27:32.540
12.0, -440.6499723792076, -382.4870482683182, -182.8661482334137, -86.64600217342377, -0.5280000250786543, -0.5280000250786543, 0.5280000250786543, 0.0, 0.0, 0.0, 0.0, 0.0, 1.7054512525411947E9, 0.0, 2024-01-16 19:27:32.541
12.0, -397.80567848682404, -371.71613639593124, -171.3771755695343, 3.829657554626465, -0.5280000250786543, -0.5280000250786543, 0.5280000250786543, 0.0, 0.0, 0.0, 0.0, 0.0, 1.7054512525411947E9, 0.0, 2024-01-16 19:27:32.541
13.0, -320.73382019996643, -376.98191553354263, -187.17451298236847, 23.217298924922943, -0.5280000250786543, -0.5280000250786543, 0.5280000250786543, 0.0, 0.0, 0.0, 0.0, 0.0, 1.7054512525533805E9, 0.0, 2024-01-16 19:27:32.553
13.0, -413.6030158996582, -389.42830258607864, -205.36538636684418, -89.51824533939362, -0.5280000250786543, -0.5280000250786543, 0.5280000250786543, 0.0, 0.0, 0.0, 0.0, 0.0, 1.7054512525533805E9, 0.0, 2024-01-16 19:27:32.553
14.0, -422.9378061890602, -363.57811409235, -176.16424751281738, -37.09980756044388, -0.5280000250786543, -0.5280000250786543, 0.5280000250786543, 0.0, 0.0, 0.0, 0.0, 0.0, 1.7054512525694036E9, 0.0, 2024-01-16 19:27:32.569
14.0, -324.0847705602646, -368.12583243846893, -172.57394355535507, 42.844293892383575, -0.5280000250786543, -0.5280000250786543, 0.5280000250786543, 0.0, 0.0, 0.0, 0.0, 0.0, 1.7054512525694036E9, 0.0, 2024-01-16 19:27:32.569
15.0, -356.63685977458954, -372.912904381752, -185.73839139938354, -44.041061878204346, -0.5280000250786543, -0.5280000250786543, 0.5280000250786543, 0.0, 0.0, 0.0, 0.0, 0.0, 1.7054512525699687E9, 0.0, 2024-01-16 19:27:32.569
15.0, -440.1712651848793, -372.67355078458786, -175.92489391565323, -74.67832231521606, -0.5280000250786543, -0.5280000250786543, 0.5280000250786543, 0.0, 0.0, 0.0, 0.0, 0.0, 1.7054512525699687E9, 0.0, 2024-01-16 19:27:32.569
16.0, -344.1904727220535, -361.4239317178726, -165.39333564043045, 44.519769072532654, -0.5280000250786543, -0.5280000250786543, 0.5280000250786543, 0.0, 0.0, 0.0, 0.0, 0.0, 1.7054512525833492E9, 0.0, 2024-01-16 19:27:32.583
16.0, -326.238952934742, -371.71613639593124, -186.69580578804016, -12.44638705253601, -0.5280000250786543, -0.5280000250786543, 0.5280000250786543, 0.0, 0.0, 0.0, 0.0, 0.0, 1.7054512525833492E9, 0.0, 2024-01-16 19:27:32.583
17.0, -423.17715978622437, -370.7587220072746, -183.58420902490616, -94.784024477005, -0.5280000250786543, -0.5280000250786543, 0.5280000250786543, 0.0, 0.0, 0.0, 0.0, 0.0, 1.705451252600124E9, 0.0, 2024-01-16 19:27:32.600
17.0, -384.4018770456314, -363.33876049518585, -164.675274848938, 19.626994967460632, -0.5280000250786543, -0.5280000250786543, 0.5280000250786543, 0.0, 0.0, 0.0, 0.0, 0.0, 1.705451252600124E9, 0.0, 2024-01-16 19:27:32.600
18.0, -324.0847705602646, -381.52963387966156, -174.9674795269966, 39.253989934921265, -0.5280000250786543, -0.5280000250786543, 0.5280000250786543, 0.0, 0.0, 0.0, 0.0, 0.0, 1.705451252600594E9, 0.0, 2024-01-16 19:27:32.600
18.0, -400.1992144584656, -375.78514754772186, -190.04675614833832, -73.4815543293953, -0.5280000250786543, -0.5280000250786543, 0.5280000250786543, 0.0, 0.0, 0.0, 0.0, 0.0, 1.705451252600594E9, 0.0, 2024-01-16 19:27:32.600
19.0, -425.81004935503006, -371.23742920160294, -178.31842988729477, -32.3127356171608, -0.5280000250786543, -0.5280000250786543, 0.5280000250786543, 0.0, 0.0, 0.0, 0.0, 0.0, 1.7054512526133137E9, 0.0, 2024-01-16 19:27:32.613
19.0, -331.7440856695175, -378.89674431085587, -182.8661482334137, 44.041061878204346, -0.5280000250786543, -0.5280000250786543, 0.5280000250786543, 0.0, 0.0, 0.0, 0.0, 0.0, 1.7054512526133137E9, 0.0, 2024-01-16 19:27:32.613
20.0, -370.2800148129463, -384.64123064279556, -195.3125352859497, -49.54619461297989, -0.5280000250786543, -0.5280000250786543, 0.7520000357180834, 0.0, 0.0, 0.0, 0.0, 0.0, 1.70545125262943E9, 0.0, 2024-01-16 19:27:32.629
20.0, -439.2138507962227, -374.82773315906525, -184.30226981639862, -77.78991907835007, -0.5280000250786543, -0.5280000250786543, 0.7520000357180834, 0.0, 0.0, 0.0, 0.0, 0.0, 1.70545125262943E9, 0.0, 2024-01-16 19:27:32.629
21.0, -348.73819106817245, -360.9452245235443, -176.40360110998154, 36.860453963279724, -0.5280000250786543, -0.7520000357180834, 0.7520000357180834, 0.0, 0.0, 0.0, 0.0, 0.0, 1.7054512526299508E9, 0.0, 2024-01-16 19:27:32.629
21.0, -332.2227928638458, -372.4341971874237, -191.48287773132324, -11.010265469551086, -0.5280000250786543, -0.7520000357180834, 0.7520000357180834, 0.0, 0.0, 0.0, 0.0, 0.0, 1.7054512526299508E9, 0.0, 2024-01-16 19:27:32.629
22.0, -436.1022540330887, -383.20510905981064, -197.70607125759125, -107.23041152954102, -0.7520000357180834, -0.7520000357180834, 0.7520000357180834, 0.0, 0.0, 0.0, 0.0, 0.0, 1.7054512526434176E9, 0.0, 2024-01-16 19:27:32.643
22.0, -392.06119215488434, -372.67355078458786, -172.33458995819092, -6.9412543177604675, -0.7520000357180834, -0.7520000357180834, 0.7520000357180834, 0.0, 0.0, 0.0, 0.0, 0.0, 1.7054512526434176E9, 0.0, 2024-01-16 19:27:32.643
23.0, -325.5208921432495, -381.2902802824974, -189.56804895401, 16.276044607162476, -0.7520000357180834, -0.7520000357180834, 0.7520000357180834, 0.0, 0.0, 0.0, 0.0, 0.0, 1.705451252659538E9, 0.0, 2024-01-16 19:27:32.659
23.0, -400.43856805562973, -376.98191553354263, -193.63706010580063, -82.8163446187973, -0.7520000357180834, -0.7520000357180834, 0.7520000357180834, 0.0, 0.0, 0.0, 0.0, 0.0, 1.705451252659538E9, 0.0, 2024-01-16 19:27:32.659
24.0, -414.0817230939865, -363.57811409235, -163.23915326595306, -28.483078062534332, -0.7520000357180834, -0.7520000357180834, 0.7520000357180834, 0.0, 0.0, 0.0, 0.0, 0.0, 1.7054512526599293E9, 0.0, 2024-01-16 19:27:32.659
24.0, -330.54731768369675, -375.78514754772186, -170.898468375206, 47.15265864133835, -0.7520000357180834, -0.7520000357180834, 0.7520000357180834, 0.0, 0.0, 0.0, 0.0, 0.0, 1.7054512526599293E9, 0.0, 2024-01-16 19:27:32.659
25.0, -358.7910421490669, -373.3916115760803, -186.93515938520432, -39.73269712924957, -0.7520000357180834, -0.7520000357180834, 0.7520000357180834, 0.0, 0.0, 0.0, 0.0, 0.0, 1.705451252673384E9, 0.0, 2024-01-16 19:27:32.673
25.0, -432.9906572699547, -366.689710855484, -175.44618672132492, -84.49181979894638, -0.7520000357180834, -0.7520000357180834, 0.7520000357180834, 0.0, 0.0, 0.0, 0.0, 0.0, 1.705451252673384E9, 0.0, 2024-01-16 19:27:32.673
26.0, -353.0465558171272, -367.1684180498123, -171.61652916669846, 28.004370868206024, -0.7520000357180834, -0.7520000357180834, 0.7520000357180834, 0.0, 0.0, 0.0, 0.0, 0.0, 1.7054512526892233E9, 0.0, 2024-01-16 19:27:32.689
26.0, -338.44598639011383, -384.4018770456314, -194.8338280916214, -22.020530939102173, -0.7520000357180834, -0.7520000357180834, 0.7520000357180834, 0.0, 0.0, 0.0, 0.0, 0.0, 1.7054512526892233E9, 0.0, 2024-01-16 19:27:32.689
27.0, -431.3151820898056, -376.26385474205017, -191.2435241341591, -96.22014605998993, -0.7520000357180834, -0.7520000357180834, 0.7520000357180834, 0.0, 0.0, 0.0, 0.0, 0.0, 1.7054512526898382E9, 0.0, 2024-01-16 19:27:32.689
27.0, -395.4121425151825, -375.78514754772186, -166.35075002908707, 5.505132734775543, -0.7520000357180834, -0.7520000357180834, 0.7520000357180834, 0.0, 0.0, 0.0, 0.0, 0.0, 1.7054512526898382E9, 0.0, 2024-01-16 19:27:32.689
28.0, -324.0847705602646, -374.34902596473694, -185.25968420505524, 27.76501727104187, -0.7520000357180834, -0.7520000357180834, 0.7520000357180834, 0.0, 0.0, 0.0, 0.0, 0.0, 1.7054512527033896E9, 0.0, 2024-01-16 19:27:32.703
28.0, -407.14046877622604, -388.7102417945862, -198.18477845191956, -89.27889174222946, -0.7520000357180834, -0.7520000357180834, 0.7520000357180834, 0.0, 0.0, 0.0, 0.0, 0.0, 1.7054512527033896E9, 0.0, 2024-01-16 19:27:32.703
29.0, -417.43267345428467, -365.97165006399155, -175.92489391565323, -43.08364748954773, -0.7520000357180834, -0.7520000357180834, 0.7520000357180834, 0.0, 0.0, 0.0, 0.0, 0.0, 1.705451252719054E9, 0.0, 2024-01-16 19:27:32.719
29.0, -335.81309682130814, -376.7425619363785, -175.44618672132492, 40.69011151790619, -0.7520000357180834, -0.7520000357180834, 0.7520000357180834, 0.0, 0.0, 0.0, 0.0, 0.0, 1.705451252719054E9, 0.0, 2024-01-16 19:27:32.719
30.0, -372.19484359025955, -391.8218385577202, -196.98801046609879, -47.3920122385025, -0.7520000357180834, -0.7520000357180834, 0.8640000410377979, 0.0, 0.0, 0.0, 0.0, 0.0, 1.7054512527197785E9, 0.0, 2024-01-16 19:27:32.719
30.0, -444.9583371281624, -379.6148051023483, -182.14808744192123, -76.83250468969345, -0.7520000357180834, -0.7520000357180834, 0.8640000410377979, 0.0, 0.0, 0.0, 0.0, 0.0, 1.7054512527197785E9, 0.0, 2024-01-16 19:27:32.719
31.0, -348.25948387384415, -362.1419925093651, -159.4094957113266, 47.63136583566666, -0.7520000357180834, -0.8640000410377979, 0.8640000410377979, 0.0, 0.0, 0.0, 0.0, 0.0, 1.7054512527335472E9, 0.0, 2024-01-16 19:27:32.733
31.0, -339.40340077877045, -379.3754515051842, -182.62679463624954, -2.8722431659698486, -0.7520000357180834, -0.8640000410377979, 0.8640000410377979, 0.0, 0.0, 0.0, 0.0, 0.0, 1.7054512527335472E9, 0.0, 2024-01-16 19:27:32.733
32.0, -425.81004935503006, -374.34902596473694, -179.99390506744385, -82.09828382730484, -0.8640000410377979, -0.8640000410377979, 0.8640000410377979, 0.0, 0.0, 0.0, 0.0, 0.0, 1.7054512527495089E9, 0.0, 2024-01-16 19:27:32.749
32.0, -384.8805842399597, -357.59427416324615, -164.43592125177383, 13.882508635520935, -0.8640000410377979, -0.8640000410377979, 0.8640000410377979, 0.0, 0.0, 0.0, 0.0, 0.0, 1.7054512527495089E9, 0.0, 2024-01-16 19:27:32.749
33.0, -307.56937235593796, -355.9187989830971, -177.121661901474, 37.578514754772186, -0.8640000410377979, -0.8640000410377979, 0.8640000410377979, 0.0, 0.0, 0.0, 0.0, 0.0, 1.7054512527643688E9, 0.0, 2024-01-16 19:27:32.764
33.0, -396.3695569038391, -374.82773315906525, -183.10550183057785, -76.5931510925293, -0.8640000410377979, -0.8640000410377979, 0.8640000410377979, 0.0, 0.0, 0.0, 0.0, 0.0, 1.7054512527643688E9, 0.0, 2024-01-16 19:27:32.764
34.0, -426.5281101465225, -369.3226004242897, -168.02622520923615, -30.15855324268341, -0.8640000410377979, -0.8640000410377979, 0.8640000410377979, 0.0, 0.0, 0.0, 0.0, 0.0, 1.7054512527648575E9, 0.0, 2024-01-16 19:27:32.764
34.0, -335.0950360298157, -369.801307618618, -171.61652916669846, 50.98231619596481, -0.8640000410377979, -0.8640000410377979, 0.8640000410377979, 0.0, 0.0, 0.0, 0.0, 0.0, 1.7054512527648575E9, 0.0, 2024-01-16 19:27:32.764
35.0, -371.23742920160294, -382.9657554626465, -190.28610974550247, -46.19524425268173, -0.8640000410377979, -0.8640000410377979, 0.8640000410377979, 0.0, 0.0, 0.0, 0.0, 0.0, 1.7054512527790978E9, 0.0, 2024-01-16 19:27:32.779
35.0, -448.30928748846054, -373.15225797891617, -184.78097701072693, -76.35379749536514, -0.8640000410377979, -0.8640000410377979, 0.8640000410377979, 0.0, 0.0, 0.0, 0.0, 0.0, 1.7054512527790978E9, 0.0, 2024-01-16 19:27:32.779
36.0, -361.9026389122009, -371.9554899930954, -168.7442860007286, 35.663685977458954, -0.8640000410377979, -0.8640000410377979, 0.8640000410377979, 0.0, 0.0, 0.0, 0.0, 0.0, 1.7054512527797775E9, 0.0, 2024-01-16 19:27:32.779
36.0, -352.0891414284706, -399.9598608613014, -192.679645717144, -11.010265469551086, -0.8640000410377979, -0.8640000410377979, 0.8640000410377979, 0.0, 0.0, 0.0, 0.0, 0.0, 1.7054512527797775E9, 0.0, 2024-01-16 19:27:32.779
37.0, -438.0170828104019, -380.8115730881691, -182.8661482334137, -88.32147735357285, -0.8640000410377979, -0.8640000410377979, 0.8640000410377979, 0.0, 0.0, 0.0, 0.0, 0.0, 1.7054512527935596E9, 0.0, 2024-01-16 19:27:32.793
37.0, -398.28438568115234, -362.86005330085754, -154.38307017087936, 21.78117734193802, -0.8640000410377979, -0.8640000410377979, 0.8640000410377979, 0.0, 0.0, 0.0, 0.0, 0.0, 1.7054512527935596E9, 0.0, 2024-01-16 19:27:32.793
38.0, -339.1640471816063, -384.16252344846725, -185.9777449965477, 25.850188493728638, -0.8640000410377979, -0.8640000410377979, 0.8640000410377979, 0.0, 0.0, 0.0, 0.0, 0.0, 1.7054512528090613E9, 0.0, 2024-01-16 19:27:32.809
38.0, -413.36366230249405, -392.06119215488434, -205.84409356117249, -94.54467087984085, -0.8640000410377979, -0.8640000410377979, 0.8640000410377979, 0.0, 0.0, 0.0, 0.0, 0.0, 1.7054512528090613E9, 0.0, 2024-01-16 19:27:32.809
39.0, -410.25206553936005, -352.0891414284706, -162.0423852801323, -22.97794532775879, -0.8640000410377979, -0.8640000410377979, 0.8640000410377979, 0.0, 0.0, 0.0, 0.0, 0.0, 1.7054512528097675E9, 0.0, 2024-01-16 19:27:32.809
39.0, -328.1537817120552, -366.92906445264816, -163.95721405744553, 53.1364985704422, -0.8640000410377979, -0.8640000410377979, 0.8640000410377979, 0.0, 0.0, 0.0, 0.0, 0.0, 1.7054512528097675E9, 0.0, 2024-01-16 19:27:32.809
40.0, -363.33876049518585, -382.4870482683182, -177.36101549863815, -32.07338201999664, -0.8640000410377979, -0.8640000410377979, 0.9280000440776348, 0.0, 0.0, 0.0, 0.0, 0.0, 1.7054512528237011E9, 0.0, 2024-01-16 19:27:32.823
40.0, -417.6720270514488, -354.48267740011215, -158.69143491983414, -62.71064245700836, -0.8640000410377979, -0.8640000410377979, 0.9280000440776348, 0.0, 0.0, 0.0, 0.0, 0.0, 1.7054512528237011E9, 0.0, 2024-01-16 19:27:32.823
41.0, -334.61632883548737, -347.30206948518753, -146.48440146446228, 48.58878022432327, -0.8640000410377979, -0.9280000440776348, 0.9280000440776348, 0.0, 0.0, 0.0, 0.0, 0.0, 1.7054512528390615E9, 0.0, 2024-01-16 19:27:32.839
41.0, -289.85720616579056, -341.55758315324783, -161.08497089147568, 12.925094246864319, -0.8640000410377979, -0.9280000440776348, 0.9280000440776348, 0.0, 0.0, 0.0, 0.0, 0.0, 1.7054512528390615E9, 0.0, 2024-01-16 19:27:32.839
42.0, -378.1786835193634, -337.72792559862137, -152.70759499073029, -58.40227770805359, -0.9280000440776348, -0.9280000440776348, 0.9280000440776348, 0.0, 0.0, 0.0, 0.0, 0.0, 1.7054512528398235E9, 0.0, 2024-01-16 19:27:32.839
42.0, -376.024501144886, -349.69560545682907, -148.3992302417755, 15.31863021850586, -0.9280000440776348, -0.9280000440776348, 0.9280000440776348, 0.0, 0.0, 0.0, 0.0, 0.0, 1.7054512528398235E9, 0.0, 2024-01-16 19:27:32.839
43.0, -286.5062558054924, -342.51499754190445, -147.20246225595474, 52.65779137611389, -0.9280000440776348, -0.9280000440776348, 0.9280000440776348, 0.0, 0.0, 0.0, 0.0, 0.0, 1.705451252853578E9, 0.0, 2024-01-16 19:27:32.853
43.0, -366.45035725831985, -356.63685977458954, -167.786871612072, -61.27452087402344, -0.9280000440776348, -0.9280000440776348, 0.9280000440776348, 0.0, 0.0, 0.0, 0.0, 0.0, 1.705451252853578E9, 0.0, 2024-01-16 19:27:32.853
44.0, -382.9657554626465, -336.77051120996475, -145.52698707580566, -18.190873384475708, -0.9280000440776348, -0.9280000440776348, 0.9280000440776348, 0.0, 0.0, 0.0, 0.0, 0.0, 1.7054512528690803E9, 0.0, 2024-01-16 19:27:32.869
44.0, -292.01138854026794, -341.0788759589195, -146.48440146446228, 63.66805684566498, -0.9280000440776348, -0.9280000440776348, 0.9280000440776348, 0.0, 0.0, 0.0, 0.0, 0.0, 1.7054512528690803E9, 0.0, 2024-01-16 19:27:32.869
45.0, -329.350549697876, -354.96138459444046, -164.19656765460968, -18.430226981639862, -0.9280000440776348, -0.9280000440776348, 0.9280000440776348, 0.0, 0.0, 0.0, 0.0, 0.0, 1.7054512528697772E9, 0.0, 2024-01-16 19:27:32.869
45.0, -401.87468963861465, -348.02013027668, -157.2553133368492, -60.31710648536682, -0.9280000440776348, -0.9280000440776348, 0.9280000440776348, 0.0, 0.0, 0.0, 0.0, 0.0, 1.7054512528697772E9, 0.0, 2024-01-16 19:27:32.869
46.0, -320.01575940847397, -330.54731768369675, -142.65474390983582, 51.700376987457275, -0.9280000440776348, -0.9280000440776348, 0.9280000440776348, 0.0, 0.0, 0.0, 0.0, 0.0, 1.7054512528835945E9, 0.0, 2024-01-16 19:27:32.883
46.0, -293.2081565260887, -340.1214615702629, -158.9307885169983, 10.292204678058624, -0.9280000440776348, -0.9280000440776348, 0.9280000440776348, 0.0, 0.0, 0.0, 0.0, 0.0, 1.7054512528835945E9, 0.0, 2024-01-16 19:27:32.883
47.0, -376.26385474205017, -336.5311576128006, -154.38307017087936, -65.34353202581406, -0.9280000440776348, -0.9280000440776348, 0.9280000440776348, 0.0, 0.0, 0.0, 0.0, 0.0, 1.705451252898809E9, 0.0, 2024-01-16 19:27:32.898
47.0, -349.9349590539932, -330.54731768369675, -147.68116945028305, 17.472812592983246, -0.9280000440776348, -0.9280000440776348, 0.9280000440776348, 0.0, 0.0, 0.0, 0.0, 0.0, 1.705451252898809E9, 0.0, 2024-01-16 19:27:32.898
48.0, -280.52241587638855, -336.77051120996475, -158.45208132266998, 49.06748741865158, -0.9280000440776348, -0.9280000440776348, 0.9280000440776348, 0.0, 0.0, 0.0, 0.0, 0.0, 1.7054512529140975E9, 0.0, 2024-01-16 19:27:32.914
48.0, -358.07298135757446, -347.78077667951584, -166.59010362625122, -57.68421691656113, -0.9280000440776348, -0.9280000440776348, 0.9280000440776348, 0.0, 0.0, 0.0, 0.0, 0.0, 1.7054512529140975E9, 0.0, 2024-01-16 19:27:32.914
49.0, -393.49731373786926, -350.6530198454857, -160.60626369714737, -38.77528274059296, -0.9280000440776348, -0.9280000440776348, 0.9280000440776348, 0.0, 0.0, 0.0, 0.0, 0.0, 1.7054512529147837E9, 0.0, 2024-01-16 19:27:32.914
49.0, -306.8513115644455, -353.7646166086197, -163.95721405744553, 46.434597849845886, -0.9280000440776348, -0.9280000440776348, 0.9280000440776348, 0.0, 0.0, 0.0, 0.0, 0.0, 1.7054512529147837E9, 0.0, 2024-01-16 19:27:32.914
50.0, -342.99370473623276, -367.1684180498123, -182.3874410390854, -45.237829864025116, -0.9280000440776348, -0.9280000440776348, 0.9600000455975533, 0.0, 0.0, 0.0, 0.0, 0.0, 1.7054512529294508E9, 0.0, 2024-01-16 19:27:32.929
50.0, -410.73077273368835, -354.00397020578384, -175.20683312416077, -78.26862627267838, -0.9280000440776348, -0.9280000440776348, 0.9600000455975533, 0.0, 0.0, 0.0, 0.0, 0.0, 1.7054512529294508E9, 0.0, 2024-01-16 19:27:32.929
51.0, -325.0421849489212, -335.573743224144, -159.64884930849075, 35.663685977458954, -0.9280000440776348, -0.9600000455975533, 0.9600000455975533, 0.0, 0.0, 0.0, 0.0, 0.0, 1.7054512529299312E9, 0.0, 2024-01-16 19:27:32.929
51.0, -312.35644429922104, -362.38134610652924, -174.72812592983246, -3.3509503602981567, -0.9280000440776348, -0.9600000455975533, 0.9600000455975533, 0.0, 0.0, 0.0, 0.0, 0.0, 1.7054512529299312E9, 0.0, 2024-01-16 19:27:32.929
52.0, -400.1992144584656, -362.6206997036934, -172.57394355535507, -77.78991907835007, -0.9600000455975533, -0.9600000455975533, 0.9600000455975533, 0.0, 0.0, 0.0, 0.0, 0.0, 1.7054512529433718E9, 0.0, 2024-01-16 19:27:32.943
52.0, -371.4767827987671, -353.7646166086197, -162.9997996687889, 4.547718346118927, -0.9600000455975533, -0.9600000455975533, 0.9600000455975533, 0.0, 0.0, 0.0, 0.0, 0.0, 1.7054512529433718E9, 0.0, 2024-01-16 19:27:32.943
53.0, -291.0539741516113, -354.96138459444046, -173.05265074968338, 30.876614034175873, -0.9600000455975533, -0.9600000455975533, 0.9600000455975533, 0.0, 0.0, 0.0, 0.0, 0.0, 1.705451252959246E9, 0.0, 2024-01-16 19:27:32.959
53.0, -374.34902596473694, -364.29617488384247, -175.92489391565323, -74.43896871805191, -0.9600000455975533, -0.9600000455975533, 0.9600000455975533, 0.0, 0.0, 0.0, 0.0, 0.0, 1.705451252959246E9, 0.0, 2024-01-16 19:27:32.959
54.0, -390.6250705718994, -345.3872407078743, -151.27147340774536, -34.22756439447403, -0.9600000455975533, -0.9600000455975533, 0.9600000455975533, 0.0, 0.0, 0.0, 0.0, 0.0, 1.7054512529598303E9, 0.0, 2024-01-16 19:27:32.959
54.0, -305.1758363842964, -355.6794453859329, -162.28173887729645, 45.95589065551758, -0.9600000455975533, -0.9600000455975533, 0.9600000455975533, 0.0, 0.0, 0.0, 0.0, 0.0, 1.7054512529598303E9, 0.0, 2024-01-16 19:27:32.959
55.0, -336.0524504184723, -366.689710855484, -185.25968420505524, -43.80170828104019, -0.9600000455975533, -0.9600000455975533, 0.9600000455975533, 0.0, 0.0, 0.0, 0.0, 0.0, 1.705451252973551E9, 0.0, 2024-01-16 19:27:32.973
55.0, -423.8952205777168, -371.4767827987671, -185.25968420505524, -83.05569821596146, -0.9600000455975533, -0.9600000455975533, 0.9600000455975533, 0.0, 0.0, 0.0, 0.0, 0.0, 1.705451252973551E9, 0.0, 2024-01-16 19:27:32.973
56.0, -339.6427543759346, -357.8336277604103, -166.82945722341537, 32.07338201999664, -0.9600000455975533, -0.9600000455975533, 0.9600000455975533, 0.0, 0.0, 0.0, 0.0, 0.0, 1.7054512529890788E9, 0.0, 2024-01-16 19:27:32.989
56.0, -319.7764058113098, -369.56195402145386, -189.80740255117416, -18.669580578804016, -0.9600000455975533, -0.9600000455975533, 0.9600000455975533, 0.0, 0.0, 0.0, 0.0, 0.0, 1.7054512529890788E9, 0.0, 2024-01-16 19:27:32.989
57.0, -406.9011151790619, -363.0994068980217, -187.17451298236847, -95.50208526849747, -0.9600000455975533, -0.9600000455975533, 0.9600000455975533, 0.0, 0.0, 0.0, 0.0, 0.0, 1.7054512529897664E9, 0.0, 2024-01-16 19:27:32.989
57.0, -370.2800148129463, -349.69560545682907, -164.19656765460968, -7.898668706417084, -0.9600000455975533, -0.9600000455975533, 0.9600000455975533, 0.0, 0.0, 0.0, 0.0, 0.0, 1.7054512529897664E9, 0.0, 2024-01-16 19:27:32.989
58.0, -304.45777559280396, -361.4239317178726, -169.94105398654938, 32.55208921432495, -0.9600000455975533, -0.9600000455975533, 0.9600000455975533, 0.0, 0.0, 0.0, 0.0, 0.0, 1.7054512530036972E9, 0.0, 2024-01-16 19:27:33.003
58.0, -378.1786835193634, -370.5193684101105, -184.54162341356277, -75.39638310670853, -0.9600000455975533, -0.9600000455975533, 0.9600000455975533, 0.0, 0.0, 0.0, 0.0, 0.0, 1.7054512530036972E9, 0.0, 2024-01-16 19:27:33.003
59.0, -409.29465115070343, -363.33876049518585, -160.36691009998322, -37.578514754772186, -0.9600000455975533, -0.9600000455975533, 0.9600000455975533, 0.0, 0.0, 0.0, 0.0, 0.0, 1.7054512530190716E9, 0.0, 2024-01-16 19:27:33.019
59.0, -316.6648090481758, -366.689710855484, -160.12755650281906, 44.99847626686096, -0.9600000455975533, -0.9600000455975533, 0.9600000455975533, 0.0, 0.0, 0.0, 0.0, 0.0, 1.7054512530190716E9, 0.0, 2024-01-16 19:27:33.019
60.0, -339.88210797309875, -367.40777164697647, -177.83972269296646, -37.81786835193634, -0.9600000455975533, -0.9600000455975533, 0.9600000455975533, 0.0, 0.0, 0.0, 0.0, 0.0, 1.705451253019771E9, 0.0, 2024-01-16 19:27:33.019
60.0, -413.1243087053299, -354.243323802948, -177.36101549863815, -74.43896871805191, -0.9600000455975533, -0.9600000455975533, 0.9600000455975533, 0.0, 0.0, 0.0, 0.0, 0.0, 1.705451253019771E9, 0.0, 2024-01-16 19:27:33.019
61.0, -332.9408536553383, -351.6104342341423, -162.0423852801323, 33.74885720014572, -0.9600000455975533, -0.9600000455975533, 0.9600000455975533, 0.0, 0.0, 0.0, 0.0, 0.0, 1.7054512530501244E9, 0.0, 2024-01-16 19:27:33.050
61.0, -310.68096911907196, -359.9878101348877, -184.78097701072693, -8.8560830950737, -0.9600000455975533, -0.9600000455975533, 0.9600000455975533, 0.0, 0.0, 0.0, 0.0, 0.0, 1.7054512530501244E9, 0.0, 2024-01-16 19:27:33.050
62.0, -410.73077273368835, -371.4767827987671, -179.51519787311554, -90.47565972805023, -0.9600000455975533, -0.9600000455975533, 0.9600000455975533, 0.0, 0.0, 0.0, 0.0, 0.0, 1.7054512530505464E9, 0.0, 2024-01-16 19:27:33.050
62.0, -368.60453963279724, -347.5414230823517, -158.21272772550583, -0.23935359716415405, -0.9600000455975533, -0.9600000455975533, 0.9600000455975533, 0.0, 0.0, 0.0, 0.0, 0.0, 1.7054512530505464E9, 0.0, 2024-01-16 19:27:33.050
63.0, -297.0378140807152, -360.22716373205185, -178.07907629013062, 26.328895688056946, -0.9600000455975533, -0.9600000455975533, 0.9600000455975533, 0.0, 0.0, 0.0, 0.0, 0.0, 1.7054512530512347E9, 0.0, 2024-01-16 19:27:33.051
63.0, -376.98191553354263, -364.7748820781708, -190.04675614833832, -86.16729497909546, -0.9600000455975533, -0.9600000455975533, 0.9600000455975533, 0.0, 0.0, 0.0, 0.0, 0.0, 1.7054512530512347E9, 0.0, 2024-01-16 19:27:33.051
64.0, -397.5663248896599, -352.32849502563477, -174.01006513834, -52.897144973278046, -0.9600000455975533, -0.9600000455975533, 0.9600000455975533, 0.0, 0.0, 0.0, 0.0, 0.0, 1.7054512530634131E9, 0.0, 2024-01-16 19:27:33.063
64.0, -314.5106266736984, -359.74845653772354, -182.8661482334137, 27.046956479549408, -0.9600000455975533, -0.9600000455975533, 0.9600000455975533, 0.0, 0.0, 0.0, 0.0, 0.0, 1.7054512530634131E9, 0.0, 2024-01-16 19:27:33.063
65.0, -349.9349590539932, -379.3754515051842, -188.84998816251755, -49.54619461297989, -0.9600000455975533, -0.9600000455975533, 0.9600000455975533, 0.0, 0.0, 0.0, 0.0, 0.0, 1.7054512530795043E9, 0.0, 2024-01-16 19:27:33.079
65.0, -415.7571982741356, -360.70587092638016, -181.19067305326462, -86.88535577058792, -0.9600000455975533, -0.9600000455975533, 0.9600000455975533, 0.0, 0.0, 0.0, 0.0, 0.0, 1.7054512530795043E9, 0.0, 2024-01-16 19:27:33.079
66.0, -337.9672791957855, -354.48267740011215, -161.56367808580399, 27.046956479549408, -0.9600000455975533, -0.9600000455975533, 0.9600000455975533, 0.0, 0.0, 0.0, 0.0, 0.0, 1.7054512530798156E9, 0.0, 2024-01-16 19:27:33.079
66.0, -325.5208921432495, -379.6148051023483, -192.2009385228157, -17.233458995819092, -0.9600000455975533, -0.9600000455975533, 0.9600000455975533, 0.0, 0.0, 0.0, 0.0, 0.0, 1.7054512530798156E9, 0.0, 2024-01-16 19:27:33.079
67.0, -410.0127119421959, -372.67355078458786, -186.21709859371185, -102.20398598909378, -0.9600000455975533, -0.9600000455975533, 0.9600000455975533, 0.0, 0.0, 0.0, 0.0, 0.0, 1.705451253093456E9, 0.0, 2024-01-16 19:27:33.093
67.0, -369.801307618618, -344.908533513546, -167.30816441774368, -5.983839929103851, -0.9600000455975533, -0.9600000455975533, 0.9600000455975533, 0.0, 0.0, 0.0, 0.0, 0.0, 1.705451253093456E9, 0.0, 2024-01-16 19:27:33.093
68.0, -297.5165212750435, -363.57811409235, -178.79713708162308, 25.610834896564484, -0.9600000455975533, -0.9600000455975533, 0.9600000455975533, 0.0, 0.0, 0.0, 0.0, 0.0, 1.7054512531097257E9, 0.0, 2024-01-16 19:27:33.109
68.0, -382.4870482683182, -377.93932992219925, -184.06291621923447, -73.00284713506699, -0.9600000455975533, -0.9600000455975533, 0.9600000455975533, 0.0, 0.0, 0.0, 0.0, 0.0, 1.7054512531097257E9, 0.0, 2024-01-16 19:27:33.109
69.0, -411.9275407195091, -362.6206997036934, -168.2655788064003, -40.92946511507034, -0.9600000455975533, -0.9600000455975533, 0.9600000455975533, 0.0, 0.0, 0.0, 0.0, 0.0, 1.705451253124467E9, 0.0, 2024-01-16 19:27:33.124
69.0, -310.9203227162361, -356.63685977458954, -165.1539820432663, 41.647525906562805, -0.9600000455975533, -0.9600000455975533, 0.9600000455975533, 0.0, 0.0, 0.0, 0.0, 0.0, 1.705451253124467E9, 0.0, 2024-01-16 19:27:33.124
70.0, -333.18020725250244, -360.9452245235443, -181.66938024759293, -44.2804154753685, -0.9600000455975533, -0.9600000455975533, 0.9760000463575125, 0.0, 0.0, 0.0, 0.0, 0.0, 1.7054512531248703E9, 0.0, 2024-01-16 19:27:33.124
70.0, -395.65149611234665, -343.7117655277252, -168.98363959789276, -73.24220073223114, -0.9600000455975533, -0.9600000455975533, 0.9760000463575125, 0.0, 0.0, 0.0, 0.0, 0.0, 1.7054512531248703E9, 0.0, 2024-01-16 19:27:33.124
71.0, -320.9731737971306, -339.6427543759346, -161.56367808580399, 33.988210797309875, -0.9600000455975533, -0.9760000463575125, 0.9760000463575125, 0.0, 0.0, 0.0, 0.0, 0.0, 1.7054512531398032E9, 0.0, 2024-01-16 19:27:33.139
71.0, -316.42545545101166, -372.19484359025955, -182.3874410390854, -11.24961906671524, -0.9600000455975533, -0.9760000463575125, 0.9760000463575125, 0.0, 0.0, 0.0, 0.0, 0.0, 1.7054512531398032E9, 0.0, 2024-01-16 19:27:33.139
72.0, -405.46499359607697, -369.801307618618, -191.96158492565155, -95.74143886566162, -0.9760000463575125, -0.9760000463575125, 0.9760000463575125, 0.0, 0.0, 0.0, 0.0, 0.0, 1.7054512531404736E9, 0.0, 2024-01-16 19:27:33.140
72.0, -368.3651860356331, -354.7220309972763, -169.70170038938522, -5.505132734775543, -0.9760000463575125, -0.9760000463575125, 0.9760000463575125, 0.0, 0.0, 0.0, 0.0, 0.0, 1.7054512531404736E9, 0.0, 2024-01-16 19:27:33.140
73.0, -300.38876444101334, -360.70587092638016, -179.99390506744385, 21.063116550445557, -0.9760000463575125, -0.9760000463575125, 0.9760000463575125, 0.0, 0.0, 0.0, 0.0, 0.0, 1.705451253153412E9, 0.0, 2024-01-16 19:27:33.153
73.0, -374.1096723675728, -370.2800148129463, -195.07318168878555, -81.38022303581238, -0.9760000463575125, -0.9760000463575125, 0.9760000463575125, 0.0, 0.0, 0.0, 0.0, 0.0, 1.705451253153412E9, 0.0, 2024-01-16 19:27:33.153
74.0, -397.5663248896599, -353.0465558171272, -176.40360110998154, -44.041061878204346, -0.9760000463575125, -0.9760000463575125, 0.9760000463575125, 0.0, 0.0, 0.0, 0.0, 0.0, 1.7054512531694264E9, 0.0, 2024-01-16 19:27:33.169
74.0, -319.2976986169815, -367.8864788413048, -178.31842988729477, 40.69011151790619, -0.9760000463575125, -0.9760000463575125, 0.9760000463575125, 0.0, 0.0, 0.0, 0.0, 0.0, 1.7054512531694264E9, 0.0, 2024-01-16 19:27:33.169
75.0, -350.6530198454857, -373.15225797891617, -200.81766802072525, -53.1364985704422, -0.9760000463575125, -0.9760000463575125, 0.9760000463575125, 0.0, 0.0, 0.0, 0.0, 0.0, 1.7054512531698337E9, 0.0, 2024-01-16 19:27:33.169
75.0, -429.40035331249237, -374.1096723675728, -183.8235626220703, -81.38022303581238, -0.9760000463575125, -0.9760000463575125, 0.9760000463575125, 0.0, 0.0, 0.0, 0.0, 0.0, 1.7054512531698337E9, 0.0, 2024-01-16 19:27:33.169
76.0, -351.6104342341423, -369.3226004242897, -178.07907629013062, 22.259884536266327, -0.9760000463575125, -0.9760000463575125, 0.9760000463575125, 0.0, 0.0, 0.0, 0.0, 0.0, 1.7054512531833453E9, 0.0, 2024-01-16 19:27:33.183
76.0, -320.2551130056381, -374.5883795619011, -186.69580578804016, -5.505132734775543, -0.9760000463575125, -0.9760000463575125, 0.9760000463575125, 0.0, 0.0, 0.0, 0.0, 0.0, 1.7054512531833453E9, 0.0, 2024-01-16 19:27:33.183
77.0, -411.4488335251808, -364.5355284810066, -187.41386657953262, -95.50208526849747, -0.9760000463575125, -0.9760000463575125, 0.9760000463575125, 0.0, 0.0, 0.0, 0.0, 0.0, 1.7054512531990974E9, 0.0, 2024-01-16 19:27:33.199
77.0, -383.20510905981064, -361.6632853150368, -170.18040758371353, -10.531558275222778, -0.9760000463575125, -0.9760000463575125, 0.9760000463575125, 0.0, 0.0, 0.0, 0.0, 0.0, 1.7054512531990974E9, 0.0, 2024-01-16 19:27:33.199
78.0, -310.4416155219078, -367.40777164697647, -178.79713708162308, 31.35532122850418, -0.9760000463575125, -0.9760000463575125, 0.9760000463575125, 0.0, 0.0, 0.0, 0.0, 0.0, 1.7054512531997898E9, 0.0, 2024-01-16 19:27:33.199
78.0, -386.31670582294464, -378.1786835193634, -193.15835291147232, -82.8163446187973, -0.9760000463575125, -0.9760000463575125, 0.9760000463575125, 0.0, 0.0, 0.0, 0.0, 0.0, 1.7054512531997898E9, 0.0, 2024-01-16 19:27:33.199
79.0, -405.7043471932411, -356.8762133717537, -167.30816441774368, -38.29657554626465, -0.9760000463575125, -0.9760000463575125, 0.9760000463575125, 0.0, 0.0, 0.0, 0.0, 0.0, 1.7054512532135053E9, 0.0, 2024-01-16 19:27:33.213
79.0, -309.0054939389229, -350.1743126511574, -169.94105398654938, 44.75912266969681, -0.9760000463575125, -0.9760000463575125, 0.9760000463575125, 0.0, 0.0, 0.0, 0.0, 0.0, 1.7054512532135053E9, 0.0, 2024-01-16 19:27:33.213
80.0, -349.21689826250076, -367.6471252441406, -187.65322017669678, -47.3920122385025, -0.9760000463575125, -0.9760000463575125, 0.9760000463575125, 0.0, 0.0, 0.0, 0.0, 0.0, 1.7054512532291026E9, 0.0, 2024-01-16 19:27:33.229
80.0, -423.17715978622437, -365.2535892724991, -176.16424751281738, -78.74733346700668, -0.9760000463575125, -0.9760000463575125, 0.9760000463575125, 0.0, 0.0, 0.0, 0.0, 0.0, 1.7054512532291026E9, 0.0, 2024-01-16 19:27:33.229
81.0, -347.30206948518753, -361.6632853150368, -163.23915326595306, 32.07338201999664, -0.9760000463575125, -0.9760000463575125, 0.9760000463575125, 0.0, 0.0, 0.0, 0.0, 0.0, 1.7054512532297971E9, 0.0, 2024-01-16 19:27:33.229
81.0, -315.94674825668335, -366.689710855484, -184.54162341356277, -5.983839929103851, -0.9760000463575125, -0.9760000463575125, 0.9760000463575125, 0.0, 0.0, 0.0, 0.0, 0.0, 1.7054512532297971E9, 0.0, 2024-01-16 19:27:33.229
82.0, -405.46499359607697, -361.6632853150368, -188.6106345653534, -93.10854929685593, -0.9760000463575125, -0.9760000463575125, 0.9760000463575125, 0.0, 0.0, 0.0, 0.0, 0.0, 1.7054512532434165E9, 0.0, 2024-01-16 19:27:33.243
82.0, -374.82773315906525, -352.5678486227989, -167.54751801490784, -4.069011151790619, -0.9760000463575125, -0.9760000463575125, 0.9760000463575125, 0.0, 0.0, 0.0, 0.0, 0.0, 1.7054512532434165E9, 0.0, 2024-01-16 19:27:33.243
83.0, -310.68096911907196, -372.912904381752, -180.95131945610046, 27.286310076713562, -0.9760000463575125, -0.9760000463575125, 0.9760000463575125, 0.0, 0.0, 0.0, 0.0, 0.0, 1.7054512532592924E9, 0.0, 2024-01-16 19:27:33.259
83.0, -381.2902802824974, -372.19484359025955, -189.0893417596817, -74.91767591238022, -0.9760000463575125, -0.9760000463575125, 0.9760000463575125, 0.0, 0.0, 0.0, 0.0, 0.0, 1.7054512532592924E9, 0.0, 2024-01-16 19:27:33.259
84.0, -427.246170938015, -375.5457939505577, -174.9674795269966, -46.913305044174194, -0.9760000463575125, -0.9760000463575125, 0.9760000463575125, 0.0, 0.0, 0.0, 0.0, 0.0, 1.705451253259858E9, 0.0, 2024-01-16 19:27:33.259
84.0, -335.81309682130814, -374.5883795619011, -173.05265074968338, 40.92946511507034, -0.9760000463575125, -0.9760000463575125, 0.9760000463575125, 0.0, 0.0, 0.0, 0.0, 0.0, 1.705451253259858E9, 0.0, 2024-01-16 19:27:33.259
85.0, -365.2535892724991, -385.11993783712387, -204.1686183810234, -52.41843777894974, -0.9760000463575125, -0.9760000463575125, 0.9760000463575125, 0.0, 0.0, 0.0, 0.0, 0.0, 1.705451253273398E9, 0.0, 2024-01-16 19:27:33.273
85.0, -430.8364748954773, -364.29617488384247, -187.17451298236847, -83.53440541028976, -0.9760000463575125, -0.9760000463575125, 0.9760000463575125, 0.0, 0.0, 0.0, 0.0, 0.0, 1.705451253273398E9, 0.0, 2024-01-16 19:27:33.273
86.0, -354.48267740011215, -367.40777164697647, -169.22299319505692, 21.78117734193802, -0.9760000463575125, -0.9760000463575125, 0.9760000463575125, 0.0, 0.0, 0.0, 0.0, 0.0, 1.7054512532891119E9, 0.0, 2024-01-16 19:27:33.289
86.0, -331.02602487802505, -383.4444626569748, -192.91899931430817, -18.190873384475708, -0.9760000463575125, -0.9760000463575125, 0.9760000463575125, 0.0, 0.0, 0.0, 0.0, 0.0, 1.7054512532891119E9, 0.0, 2024-01-16 19:27:33.289
87.0, -418.3900878429413, -375.0670867562294, -184.54162341356277, -93.10854929685593, -0.9760000463575125, -0.9760000463575125, 0.9760000463575125, 0.0, 0.0, 0.0, 0.0, 0.0, 1.7054512532897873E9, 0.0, 2024-01-16 19:27:33.289
87.0, -382.00834107398987, -358.3123349547386, -158.45208132266998, 4.308364748954773, -0.9760000463575125, -0.9760000463575125, 0.9760000463575125, 0.0, 0.0, 0.0, 0.0, 0.0, 1.7054512532897873E9, 0.0, 2024-01-16 19:27:33.289
88.0, -312.35644429922104, -370.9980756044388, -181.66938024759293, 26.5682492852211, -0.9760000463575125, -0.9760000463575125, 0.9760000463575125, 0.0, 0.0, 0.0, 0.0, 0.0, 1.7054512533034027E9, 0.0, 2024-01-16 19:27:33.303
88.0, -384.16252344846725, -371.71613639593124, -190.52546334266663, -76.35379749536514, -0.9760000463575125, -0.9760000463575125, 0.9760000463575125, 0.0, 0.0, 0.0, 0.0, 0.0, 1.7054512533034027E9, 0.0, 2024-01-16 19:27:33.303
89.0, -404.02887201309204, -348.02013027668, -171.3771755695343, -43.32300108671188, -0.9760000463575125, -0.9760000463575125, 0.9760000463575125, 0.0, 0.0, 0.0, 0.0, 0.0, 1.705451253319508E9, 0.0, 2024-01-16 19:27:33.319
89.0, -318.8189914226532, -356.15815258026123, -172.33458995819092, 42.844293892383575, -0.9760000463575125, -0.9760000463575125, 0.9760000463575125, 0.0, 0.0, 0.0, 0.0, 0.0, 1.705451253319508E9, 0.0, 2024-01-16 19:27:33.319
90.0, -363.0994068980217, -385.5986450314522, -183.344855427742, -45.237829864025116, -0.9760000463575125, -0.9760000463575125, 0.9760000463575125, 0.0, 0.0, 0.0, 0.0, 0.0, 1.705451253334368E9, 0.0, 2024-01-16 19:27:33.334
90.0, -434.4267788529396, -376.26385474205017, -171.8558827638626, -77.78991907835007, -0.9760000463575125, -0.9760000463575125, 0.9760000463575125, 0.0, 0.0, 0.0, 0.0, 0.0, 1.705451253334368E9, 0.0, 2024-01-16 19:27:33.334
91.0, -354.48267740011215, -362.1419925093651, -163.47850686311722, 31.35532122850418, -0.9760000463575125, -0.9760000463575125, 0.9760000463575125, 0.0, 0.0, 0.0, 0.0, 0.0, 1.70545125333484E9, 0.0, 2024-01-16 19:27:33.334
91.0, -330.06861048936844, -373.6309651732445, -188.6106345653534, -8.616729497909546, -0.9760000463575125, -0.9760000463575125, 0.9760000463575125, 0.0, 0.0, 0.0, 0.0, 0.0, 1.70545125333484E9, 0.0, 2024-01-16 19:27:33.334
92.0, -410.4914191365242, -363.0994068980217, -183.344855427742, -87.84277015924454, -0.9760000463575125, -0.9760000463575125, 0.9760000463575125, 0.0, 0.0, 0.0, 0.0, 0.0, 1.7054512533491228E9, 0.0, 2024-01-16 19:27:33.349
92.0, -379.6148051023483, -354.48267740011215, -163.23915326595306, -1.9148287773132324, -0.9760000463575125, -0.9760000463575125, 0.9760000463575125, 0.0, 0.0, 0.0, 0.0, 0.0, 1.7054512533491228E9, 0.0, 2024-01-16 19:27:33.349
93.0, -309.0054939389229, -366.45035725831985, -175.68554031848907, 29.919199645519257, -0.9760000463575125, -0.9760000463575125, 0.9760000463575125, 0.0, 0.0, 0.0, 0.0, 0.0, 1.7054512533498588E9, 0.0, 2024-01-16 19:27:33.349
93.0, -388.2315346002579, -376.5032083392143, -186.69580578804016, -78.98668706417084, -0.9760000463575125, -0.9760000463575125, 0.9760000463575125, 0.0, 0.0, 0.0, 0.0, 0.0, 1.7054512533498588E9, 0.0, 2024-01-16 19:27:33.349
94.0, -414.5604302883148, -363.81746768951416, -181.19067305326462, -50.98231619596481, -0.9760000463575125, -0.9760000463575125, 0.9760000463575125, 0.0, 0.0, 0.0, 0.0, 0.0, 1.705451253363444E9, 0.0, 2024-01-16 19:27:33.363
94.0, -336.77051120996475, -380.57221949100494, -175.44618672132492, 39.49334353208542, -0.9760000463575125, -0.9760000463575125, 0.9760000463575125, 0.0, 0.0, 0.0, 0.0, 0.0, 1.705451253363444E9, 0.0, 2024-01-16 19:27:33.363
95.0, -362.38134610652924, -389.42830258607864, -194.59447449445724, -49.78554821014404, -0.9760000463575125, -0.9760000463575125, 0.9760000463575125, 0.0, 0.0, 0.0, 0.0, 0.0, 1.705451253379196E9, 0.0, 2024-01-16 19:27:33.379
95.0, -431.7938892841339, -372.67355078458786, -184.78097701072693, -92.62984210252762, -0.9760000463575125, -0.9760000463575125, 0.9760000463575125, 0.0, 0.0, 0.0, 0.0, 0.0, 1.705451253379196E9, 0.0, 2024-01-16 19:27:33.379
96.0, -359.5091029405594, -370.2800148129463, -172.33458995819092, 19.866348564624786, -0.9760000463575125, -0.9760000463575125, 0.9760000463575125, 0.0, 0.0, 0.0, 0.0, 0.0, 1.7054512533800771E9, 0.0, 2024-01-16 19:27:33.380
96.0, -334.13762164115906, -387.5134738087654, -195.79124248027802, -16.754751801490784, -0.9760000463575125, -0.9760000463575125, 0.9760000463575125, 0.0, 0.0, 0.0, 0.0, 0.0, 1.7054512533800771E9, 0.0, 2024-01-16 19:27:33.380
97.0, -426.0494029521942, -384.16252344846725, -190.28610974550247, -103.1614003777504, -0.9760000463575125, -0.9760000463575125, 0.9760000463575125, 0.0, 0.0, 0.0, 0.0, 0.0, 1.7054512533933983E9, 0.0, 2024-01-16 19:27:33.393
97.0, -385.5986450314522, -355.9187989830971, -167.786871612072, -8.8560830950737, -0.9760000463575125, -0.9760000463575125, 0.9760000463575125, 0.0, 0.0, 0.0, 0.0, 0.0, 1.7054512533933983E9, 0.0, 2024-01-16 19:27:33.393
98.0, -319.05834501981735, -379.8541586995125, -182.3874410390854, 26.08954209089279, -0.9760000463575125, -0.9760000463575125, 0.9760000463575125, 0.0, 0.0, 0.0, 0.0, 0.0, 1.7054512534086177E9, 0.0, 2024-01-16 19:27:33.408
98.0, -389.1889489889145, -376.26385474205017, -191.00417053699493, -79.46539425849915, -0.9760000463575125, -0.9760000463575125, 0.9760000463575125, 0.0, 0.0, 0.0, 0.0, 0.0, 1.7054512534086177E9, 0.0, 2024-01-16 19:27:33.408
0.0, -342.2756439447403, -387.27412021160126, -191.7222313284874, 25.850188493728638, -0.9760000463575125, -0.9760000463575125, 0.9760000463575125, 0.0, 0.0, 0.0, 0.0, 0.0, 1.7054512534240754E9, 0.0, 2024-01-16 19:27:33.424
0.0, -371.9554899930954, -395.8908497095108, -202.01443600654602, -55.53003454208374, -0.9760000463575125, -0.9760000463575125, 0.9760000463575125, 0.0, 0.0, 0.0, 0.0, 0.0, 1.7054512534240754E9, 0.0, 2024-01-16 19:27:33.424
1.0, -439.93191158771515, -374.5883795619011, -171.61652916669846, -87.84277015924454, -0.9760000463575125, -0.20800000987946987, 0.9760000463575125, 0.0, 0.0, 0.0, 0.0, 0.0, 1.7054512534247863E9, 0.0, 2024-01-16 19:27:33.424
1.0, -361.6632853150368, -367.1684180498123, -168.02622520923615, 29.919199645519257, -0.9760000463575125, -0.20800000987946987, 0.9760000463575125, 0.0, 0.0, 0.0, 0.0, 0.0, 1.7054512534247863E9, 0.0, 2024-01-16 19:27:33.424
2.0, -335.573743224144, -385.83799862861633, -183.58420902490616, -4.069011151790619, -0.01600000075995922, -0.20800000987946987, 0.9760000463575125, 0.0, 0.0, 0.0, 0.0, 0.0, 1.7054512534548476E9, 0.0, 2024-01-16 19:27:33.454
2.0, -422.9378061890602, -380.09351229667664, -192.44029211997986, -96.93820685148239, -0.01600000075995922, -0.20800000987946987, 0.9760000463575125, 0.0, 0.0, 0.0, 0.0, 0.0, 1.7054512534548476E9, 0.0, 2024-01-16 19:27:33.454
3.0, -390.6250705718994, -360.22716373205185, -172.09523636102676, -16.994105398654938, -0.01600000075995922, -0.20800000987946987, 0.9760000463575125, 0.0, 0.0, 0.0, 0.0, 0.0, 1.7054512534554744E9, 0.0, 2024-01-16 19:27:33.455
3.0, -302.30359321832657, -366.92906445264816, -182.8661482334137, 23.456652522087097, -0.01600000075995922, -0.20800000987946987, 0.9760000463575125, 0.0, 0.0, 0.0, 0.0, 0.0, 1.7054512534554744E9, 0.0, 2024-01-16 19:27:33.455
4.0, -380.57221949100494, -371.9554899930954, -193.15835291147232, -83.77375900745392, -0.01600000075995922, -0.20800000987946987, 0.9760000463575125, 0.0, 0.0, 0.0, 0.0, 0.0, 1.7054512534563987E9, 0.0, 2024-01-16 19:27:33.456
4.0, -416.7146126627922, -366.45035725831985, -178.79713708162308, -53.61520576477051, -0.01600000075995922, -0.20800000987946987, 0.9760000463575125, 0.0, 0.0, 0.0, 0.0, 0.0, 1.7054512534563987E9, 0.0, 2024-01-16 19:27:33.456
5.0, -318.3402842283249, -360.22716373205185, -174.01006513834, 33.988210797309875, -0.01600000075995922, -0.20800000987946987, 0.9760000463575125, 0.0, 0.0, 0.0, 0.0, 0.0, 1.7054512534683983E9, 0.0, 2024-01-16 19:27:33.468
5.0, -333.65891444683075, -368.12583243846893, -180.95131945610046, -38.5359291434288, -0.01600000075995922, -0.20800000987946987, 0.9760000463575125, 0.0, 0.0, 0.0, 0.0, 0.0, 1.7054512534683983E9, 0.0, 2024-01-16 19:27:33.468
6.0, -408.09788316488266, -345.8659479022026, -172.81329715251923, -77.55056548118591, -0.01600000075995922, -0.20800000987946987, 0.9760000463575125, 0.0, 0.0, 0.0, 0.0, 0.0, 1.705451253483809E9, 0.0, 2024-01-16 19:27:33.483
6.0, -329.58990329504013, -346.58400869369507, -155.34048455953598, 35.90303957462311, -0.01600000075995922, -0.20800000987946987, 0.9760000463575125, 0.0, 0.0, 0.0, 0.0, 0.0, 1.705451253483809E9, 0.0, 2024-01-16 19:27:33.483
7.0, -308.04807955026627, -364.7748820781708, -179.99390506744385, -4.787071943283081, -0.01600000075995922, -0.20800000987946987, 0.9760000463575125, 0.0, 0.0, 0.0, 0.0, 0.0, 1.7054512534994931E9, 0.0, 2024-01-16 19:27:33.499
7.0, -400.6779216527939, -360.9452245235443, -180.7119658589363, -84.01311260461807, -0.01600000075995922, -0.20800000987946987, 0.9760000463575125, 0.0, 0.0, 0.0, 0.0, 0.0, 1.7054512534994931E9, 0.0, 2024-01-16 19:27:33.499
8.0, -375.30644035339355, -354.00397020578384, -160.36691009998322, -2.3935359716415405, -0.01600000075995922, -0.20800000987946987, 0.9760000463575125, 0.0, 0.0, 0.0, 0.0, 0.0, 1.705451253499819E9, 0.0, 2024-01-16 19:27:33.499
8.0, -305.8938971757889, -369.08324682712555, -175.20683312416077, 31.594674825668335, -0.01600000075995922, -0.20800000987946987, 0.9760000463575125, 0.0, 0.0, 0.0, 0.0, 0.0, 1.705451253499819E9, 0.0, 2024-01-16 19:27:33.499
9.0, -380.3328658938408, -366.92906445264816, -188.37128096818924, -77.31121188402176, -0.01600000075995922, -0.20800000987946987, 0.9760000463575125, 0.0, 0.0, 0.0, 0.0, 0.0, 1.705451253514127E9, 0.0, 2024-01-16 19:27:33.514
9.0, -414.0817230939865, -358.07298135757446, -173.77071154117584, -46.913305044174194, -0.01600000075995922, -0.20800000987946987, 0.9760000463575125, 0.0, 0.0, 0.0, 0.0, 0.0, 1.705451253514127E9, 0.0, 2024-01-16 19:27:33.514
10.0, -327.43572092056274, -373.3916115760803, -176.6429547071457, 40.450757920742035, -0.01600000075995922, -0.20800000987946987, 0.9760000463575125, 0.0, 0.0, 0.0, 0.0, 0.0, 1.7054512535148091E9, 0.0, 2024-01-16 19:27:33.514
10.0, -348.73819106817245, -381.05092668533325, -185.02033060789108, -35.4243323802948, -0.01600000075995922, -0.20800000987946987, 0.9760000463575125, 0.0, 0.0, 0.0, 0.0, 0.0, 1.7054512535148091E9, 0.0, 2024-01-16 19:27:33.514
11.0, -428.6822925209999, -374.5883795619011, -178.55778348445892, -78.74733346700668, -0.01600000075995922, -0.20800000987946987, 0.9760000463575125, 0.0, 0.0, 0.0, 0.0, 0.0, 1.705451253528411E9, 0.0, 2024-01-16 19:27:33.528
11.0, -350.89237344264984, -362.6206997036934, -164.675274848938, 27.76501727104187, -0.01600000075995922, -0.20800000987946987, 0.9760000463575125, 0.0, 0.0, 0.0, 0.0, 0.0, 1.705451253528411E9, 0.0, 2024-01-16 19:27:33.528
12.0, -312.83515149354935, -363.81746768951416, -180.7119658589363, -2.6328895688056946, -0.01600000075995922, -0.20800000987946987, 0.9760000463575125, 0.0, 0.0, 0.0, 0.0, 0.0, 1.7054512535442588E9, 0.0, 2024-01-16 19:27:33.544
12.0, -403.7895184159279, -367.40777164697647, -176.88230830430984, -87.36406296491623, -0.01600000075995922, -0.20800000987946987, 0.9760000463575125, 0.0, 0.0, 0.0, 0.0, 0.0, 1.7054512535442588E9, 0.0, 2024-01-16 19:27:33.544
13.0, -375.5457939505577, -351.84978783130646, -155.57983815670013, 8.138022303581238, -0.01600000075995922, -0.20800000987946987, 0.9760000463575125, 0.0, 0.0, 0.0, 0.0, 0.0, 1.7054512535448012E9, 0.0, 2024-01-16 19:27:33.544
13.0, -301.82488602399826, -358.3123349547386, -168.98363959789276, 39.73269712924957, -0.01600000075995922, -0.20800000987946987, 0.9760000463575125, 0.0, 0.0, 0.0, 0.0, 0.0, 1.7054512535448012E9, 0.0, 2024-01-16 19:27:33.544
14.0, -382.00834107398987, -373.6309651732445, -181.43002665042877, -68.69448238611221, -0.01600000075995922, -0.20800000987946987, 0.9760000463575125, 0.0, 0.0, 0.0, 0.0, 0.0, 1.7054512535585425E9, 0.0, 2024-01-16 19:27:33.558
14.0, -410.9701263308525, -357.11556696891785, -162.9997996687889, -41.1688187122345, -0.01600000075995922, -0.20800000987946987, 0.9760000463575125, 0.0, 0.0, 0.0, 0.0, 0.0, 1.7054512535585425E9, 0.0, 2024-01-16 19:27:33.558
15.0, -321.4518809914589, -359.0303957462311, -170.898468375206, 43.32300108671188, -0.01600000075995922, -0.20800000987946987, 0.9760000463575125, 0.0, 0.0, 0.0, 0.0, 0.0, 1.7054512535741231E9, 0.0, 2024-01-16 19:27:33.574
15.0, -349.4562518596649, -375.30644035339355, -185.73839139938354, -40.69011151790619, -0.01600000075995922, -0.20800000987946987, 0.9760000463575125, 0.0, 0.0, 0.0, 0.0, 0.0, 1.7054512535741231E9, 0.0, 2024-01-16 19:27:33.574
16.0, -424.85263496637344, -363.33876049518585, -171.61652916669846, -78.98668706417084, -0.01600000075995922, -0.20800000987946987, 0.9760000463575125, 0.0, 0.0, 0.0, 0.0, 0.0, 1.705451253574867E9, 0.0, 2024-01-16 19:27:33.574
16.0, -352.32849502563477, -361.6632853150368, -156.05854535102844, 31.83402842283249, -0.01600000075995922, -0.20800000987946987, 0.9760000463575125, 0.0, 0.0, 0.0, 0.0, 0.0, 1.705451253574867E9, 0.0, 2024-01-16 19:27:33.574
17.0, -317.8615770339966, -368.3651860356331, -173.05265074968338, -0.23935359716415405, -0.01600000075995922, -0.20800000987946987, 0.9760000463575125, 0.0, 0.0, 0.0, 0.0, 0.0, 1.705451253604782E9, 0.0, 2024-01-16 19:27:33.604
17.0, -415.7571982741356, -369.56195402145386, -182.14808744192123, -93.58725649118423, -0.01600000075995922, -0.20800000987946987, 0.9760000463575125, 0.0, 0.0, 0.0, 0.0, 0.0, 1.705451253604782E9, 0.0, 2024-01-16 19:27:33.604
18.0, -380.8115730881691, -358.7910421490669, -159.64884930849075, 0.7180607914924622, -0.01600000075995922, -0.20800000987946987, 0.9760000463575125, 0.0, 0.0, 0.0, 0.0, 0.0, 1.705451253605558E9, 0.0, 2024-01-16 19:27:33.605
18.0, -308.7661403417587, -373.87031877040863, -182.3874410390854, 25.610834896564484, -0.01600000075995922, -0.20800000987946987, 0.9760000463575125, 0.0, 0.0, 0.0, 0.0, 0.0, 1.705451253605558E9, 0.0, 2024-01-16 19:27:33.605
19.0, -384.4018770456314, -377.93932992219925, -185.4990378022194, -77.31121188402176, -0.01600000075995922, -0.20800000987946987, 0.9760000463575125, 0.0, 0.0, 0.0, 0.0, 0.0, 1.7054512536062632E9, 0.0, 2024-01-16 19:27:33.606
19.0, -402.83210402727127, -358.3123349547386, -159.64884930849075, -40.92946511507034, -0.01600000075995922, -0.20800000987946987, 0.9760000463575125, 0.0, 0.0, 0.0, 0.0, 0.0, 1.7054512536062632E9, 0.0, 2024-01-16 19:27:33.606
20.0, -313.5532122850418, -358.07298135757446, -168.50493240356445, 38.77528274059296, -0.01600000075995922, -0.20800000987946987, 0.9760000463575125, 0.0, 0.0, 0.0, 0.0, 0.0, 1.7054512536184044E9, 0.0, 2024-01-16 19:27:33.618
20.0, -344.4298263192177, -376.7425619363785, -185.25968420505524, -45.716537058353424, -0.01600000075995922, -0.20800000987946987, 0.9760000463575125, 0.0, 0.0, 0.0, 0.0, 0.0, 1.7054512536184044E9, 0.0, 2024-01-16 19:27:33.618
21.0, -428.44293892383575, -371.9554899930954, -177.121661901474, -83.77375900745392, -0.01600000075995922, -0.20800000987946987, 0.9760000463575125, 0.0, 0.0, 0.0, 0.0, 0.0, 1.7054512536340828E9, 0.0, 2024-01-16 19:27:33.634
21.0, -345.3872407078743, -357.11556696891785, -170.41976118087769, 27.76501727104187, -0.01600000075995922, -0.20800000987946987, 0.9760000463575125, 0.0, 0.0, 0.0, 0.0, 0.0, 1.7054512536340828E9, 0.0, 2024-01-16 19:27:33.634
22.0, -323.6060633659363, -380.09351229667664, -187.41386657953262, -6.7019007205963135, -0.03200000151991844, -0.20800000987946987, 0.9760000463575125, 0.0, 0.0, 0.0, 0.0, 0.0, 1.7054512536348157E9, 0.0, 2024-01-16 19:27:33.634
22.0, -421.5016846060753, -379.3754515051842, -181.43002665042877, -85.9279413819313, -0.03200000151991844, -0.20800000987946987, 0.9760000463575125, 0.0, 0.0, 0.0, 0.0, 0.0, 1.7054512536348157E9, 0.0, 2024-01-16 19:27:33.634
23.0, -384.64123064279556, -355.2007381916046, -156.2978989481926, 5.265779137611389, -0.03200000151991844, -0.20800000987946987, 0.9760000463575125, 0.0, 0.0, 0.0, 0.0, 0.0, 1.7054512536486824E9, 0.0, 2024-01-16 19:27:33.648
23.0, -303.50036120414734, -365.97165006399155, -174.01006513834, 31.83402842283249, -0.03200000151991844, -0.20800000987946987, 0.9760000463575125, 0.0, 0.0, 0.0, 0.0, 0.0, 1.7054512536486824E9, 0.0, 2024-01-16 19:27:33.648
24.0, -376.26385474205017, -371.9554899930954, -182.62679463624954, -62.231935262680054, -0.03200000151991844, -0.20800000987946987, 0.9760000463575125, 0.0, 0.0, 0.0, 0.0, 0.0, 1.7054512536651523E9, 0.0, 2024-01-16 19:27:33.665
24.0, -412.88495510816574, -357.354920566082, -168.98363959789276, -38.5359291434288, -0.03200000151991844, -0.20800000987946987, 0.9760000463575125, 0.0, 0.0, 0.0, 0.0, 0.0, 1.7054512536651523E9, 0.0, 2024-01-16 19:27:33.665
25.0, -316.6648090481758, -364.7748820781708, -164.19656765460968, 48.110073029994965, -0.03200000151991844, -0.20800000987946987, 0.9760000463575125, 0.0, 0.0, 0.0, 0.0, 0.0, 1.7054512536657844E9, 0.0, 2024-01-16 19:27:33.665
25.0, -337.9672791957855, -367.1684180498123, -177.121661901474, -30.63726043701172, -0.03200000151991844, -0.20800000987946987, 0.9760000463575125, 0.0, 0.0, 0.0, 0.0, 0.0, 1.7054512536657844E9, 0.0, 2024-01-16 19:27:33.665
26.0, -430.8364748954773, -366.92906445264816, -166.82945722341537, -67.97642159461975, -0.03200000151991844, -0.20800000987946987, 0.9760000463575125, 0.0, 0.0, 0.0, 0.0, 0.0, 1.70545125367844E9, 0.0, 2024-01-16 19:27:33.678
26.0, -353.7646166086197, -360.70587092638016, -156.2978989481926, 41.647525906562805, -0.03200000151991844, -0.20800000987946987, 0.9760000463575125, 0.0, 0.0, 0.0, 0.0, 0.0, 1.70545125367844E9, 0.0, 2024-01-16 19:27:33.678
27.0, -320.4944666028023, -368.60453963279724, -179.27584427595139, 0.7180607914924622, -0.03200000151991844, -0.20800000987946987, 0.9760000463575125, 0.0, 0.0, 0.0, 0.0, 0.0, 1.7054512536941087E9, 0.0, 2024-01-16 19:27:33.694
27.0, -413.1243087053299, -367.40777164697647, -174.01006513834, -83.05569821596146, -0.03200000151991844, -0.20800000987946987, 0.9760000463575125, 0.0, 0.0, 0.0, 0.0, 0.0, 1.7054512536941087E9, 0.0, 2024-01-16 19:27:33.694
28.0, -386.0773522257805, -366.92906445264816, -161.56367808580399, 4.547718346118927, -0.03200000151991844, -0.20800000987946987, 0.9760000463575125, 0.0, 0.0, 0.0, 0.0, 0.0, 1.7054512536948051E9, 0.0, 2024-01-16 19:27:33.694
28.0, -303.7397148013115, -363.81746768951416, -167.30816441774368, 41.40817230939865, -0.03200000151991844, -0.20800000987946987, 0.9760000463575125, 0.0, 0.0, 0.0, 0.0, 0.0, 1.7054512536948051E9, 0.0, 2024-01-16 19:27:33.694
29.0, -373.15225797891617, -373.3916115760803, -177.83972269296646, -66.77965360879898, -0.03200000151991844, -0.20800000987946987, 0.9760000463575125, 0.0, 0.0, 0.0, 0.0, 0.0, 1.7054512537087424E9, 0.0, 2024-01-16 19:27:33.708
29.0, -407.8585295677185, -359.5091029405594, -159.17014211416245, -30.397906839847565, -0.03200000151991844, -0.20800000987946987, 0.9760000463575125, 0.0, 0.0, 0.0, 0.0, 0.0, 1.7054512537087424E9, 0.0, 2024-01-16 19:27:33.708
30.0, -311.6383835077286, -353.52526301145554, -160.36691009998322, 52.65779137611389, -0.03200000151991844, -0.20800000987946987, 0.9760000463575125, 0.0, 0.0, 0.0, 0.0, 0.0, 1.7054512537240915E9, 0.0, 2024-01-16 19:27:33.724
30.0, -352.5678486227989, -379.6148051023483, -181.19067305326462, -39.253989934921265, -0.03200000151991844, -0.20800000987946987, 0.9760000463575125, 0.0, 0.0, 0.0, 0.0, 0.0, 1.7054512537240915E9, 0.0, 2024-01-16 19:27:33.724
31.0, -425.0919885635376, -372.4341971874237, -179.27584427595139, -82.57699102163315, -0.03200000151991844, -0.20800000987946987, 0.9760000463575125, 0.0, 0.0, 0.0, 0.0, 0.0, 1.7054512537247975E9, 0.0, 2024-01-16 19:27:33.724
31.0, -345.8659479022026, -358.07298135757446, -158.21272772550583, 41.1688187122345, -0.03200000151991844, -0.20800000987946987, 0.9760000463575125, 0.0, 0.0, 0.0, 0.0, 0.0, 1.7054512537247975E9, 0.0, 2024-01-16 19:27:33.724
32.0, -311.3990299105644, -364.5355284810066, -174.72812592983246, 9.095436692237854, -0.03200000151991844, -0.20800000987946987, 0.9760000463575125, 0.0, 0.0, 0.0, 0.0, 0.0, 1.705451253738495E9, 0.0, 2024-01-16 19:27:33.738
32.0, -407.14046877622604, -364.5355284810066, -177.6003690958023, -80.18345504999161, -0.03200000151991844, -0.20800000987946987, 0.9760000463575125, 0.0, 0.0, 0.0, 0.0, 0.0, 1.705451253738495E9, 0.0, 2024-01-16 19:27:33.738
33.0, -372.912904381752, -345.14788711071014, -160.60626369714737, -4.308364748954773, -0.03200000151991844, -0.20800000987946987, 0.9760000463575125, 0.0, 0.0, 0.0, 0.0, 0.0, 1.7054512537543156E9, 0.0, 2024-01-16 19:27:33.754
33.0, -298.4739356637001, -360.466517329216, -164.675274848938, 39.97205072641373, -0.03200000151991844, -0.20800000987946987, 0.9760000463575125, 0.0, 0.0, 0.0, 0.0, 0.0, 1.7054512537543156E9, 0.0, 2024-01-16 19:27:33.754
34.0, -369.56195402145386, -372.19484359025955, -177.121661901474, -68.69448238611221, -0.03200000151991844, -0.20800000987946987, 0.9760000463575125, 0.0, 0.0, 0.0, 0.0, 0.0, 1.705451253754855E9, 0.0, 2024-01-16 19:27:33.754
34.0, -410.73077273368835, -367.1684180498123, -167.06881082057953, -45.716537058353424, -0.03200000151991844, -0.20800000987946987, 0.9760000463575125, 0.0, 0.0, 0.0, 0.0, 0.0, 1.705451253754855E9, 0.0, 2024-01-16 19:27:33.754
35.0, -319.53705221414566, -361.9026389122009, -169.94105398654938, 44.99847626686096, -0.03200000151991844, -0.20800000987946987, 0.9760000463575125, 0.0, 0.0, 0.0, 0.0, 0.0, 1.705451253768725E9, 0.0, 2024-01-16 19:27:33.768
35.0, -333.65891444683075, -365.2535892724991, -179.03649067878723, -29.44049245119095, -0.03200000151991844, -0.20800000987946987, 0.9760000463575125, 0.0, 0.0, 0.0, 0.0, 0.0, 1.705451253768725E9, 0.0, 2024-01-16 19:27:33.768
36.0, -433.469364464283, -374.82773315906525, -176.40360110998154, -82.8163446187973, -0.03200000151991844, -0.20800000987946987, 0.9760000463575125, 0.0, 0.0, 0.0, 0.0, 0.0, 1.7054512537841017E9, 0.0, 2024-01-16 19:27:33.784
36.0, -338.92469358444214, -345.62659430503845, -158.9307885169983, 37.578514754772186, -0.03200000151991844, -0.20800000987946987, 0.9760000463575125, 0.0, 0.0, 0.0, 0.0, 0.0, 1.7054512537841017E9, 0.0, 2024-01-16 19:27:33.784
37.0, -306.3726043701172, -366.689710855484, -172.33458995819092, 8.138022303581238, -0.03200000151991844, -0.20800000987946987, 0.9760000463575125, 0.0, 0.0, 0.0, 0.0, 0.0, 1.705451253784835E9, 0.0, 2024-01-16 19:27:33.784
37.0, -404.50757920742035, -361.9026389122009, -170.65911477804184, -77.0718582868576, -0.03200000151991844, -0.20800000987946987, 0.9760000463575125, 0.0, 0.0, 0.0, 0.0, 0.0, 1.705451253784835E9, 0.0, 2024-01-16 19:27:33.784
38.0, -360.466517329216, -339.1640471816063, -150.31405901908875, 7.898668706417084, -0.03200000151991844, -0.20800000987946987, 0.9760000463575125, 0.0, 0.0, 0.0, 0.0, 0.0, 1.7054512537987103E9, 0.0, 2024-01-16 19:27:33.798
38.0, -303.2610076069832, -363.81746768951416, -158.45208132266998, 41.647525906562805, -0.03200000151991844, -0.20800000987946987, 0.9760000463575125, 0.0, 0.0, 0.0, 0.0, 0.0, 1.7054512537987103E9, 0.0, 2024-01-16 19:27:33.798
39.0, -367.1684180498123, -369.56195402145386, -173.5313579440117, -62.71064245700836, -0.03200000151991844, -0.20800000987946987, 0.9760000463575125, 0.0, 0.0, 0.0, 0.0, 0.0, 1.7054512538141143E9, 0.0, 2024-01-16 19:27:33.814
39.0, -402.35339683294296, -347.30206948518753, -152.94694858789444, -39.01463633775711, -0.03200000151991844, -0.20800000987946987, 0.9760000463575125, 0.0, 0.0, 0.0, 0.0, 0.0, 1.7054512538141143E9, 0.0, 2024-01-16 19:27:33.814
40.0, -303.50036120414734, -352.5678486227989, -152.70759499073029, 55.290680944919586, -0.03200000151991844, -0.20800000987946987, 0.9760000463575125, 0.0, 0.0, 0.0, 0.0, 0.0, 1.705451253814876E9, 0.0, 2024-01-16 19:27:33.814
40.0, -334.13762164115906, -371.9554899930954, -181.19067305326462, -35.90303957462311, -0.03200000151991844, -0.20800000987946987, 0.9760000463575125, 0.0, 0.0, 0.0, 0.0, 0.0, 1.705451253814876E9, 0.0, 2024-01-16 19:27:33.814
41.0, -418.62944144010544, -366.92906445264816, -186.69580578804016, -92.39048850536346, -0.03200000151991844, -0.20800000987946987, 0.9760000463575125, 0.0, 0.0, 0.0, 0.0, 0.0, 1.7054512538284707E9, 0.0, 2024-01-16 19:27:33.828
41.0, -339.1640471816063, -356.15815258026123, -166.35075002908707, 29.679846048355103, -0.03200000151991844, -0.20800000987946987, 0.9760000463575125, 0.0, 0.0, 0.0, 0.0, 0.0, 1.7054512538284707E9, 0.0, 2024-01-16 19:27:33.828
42.0, -316.1861018538475, -376.024501144886, -185.9777449965477, 0.23935359716415405, -0.01600000075995922, -0.20800000987946987, 0.9760000463575125, 0.0, 0.0, 0.0, 0.0, 0.0, 1.705451253844106E9, 0.0, 2024-01-16 19:27:33.844
42.0, -402.5927504301071, -372.19484359025955, -179.7545514702797, -90.71501332521439, -0.01600000075995922, -0.20800000987946987, 0.9760000463575125, 0.0, 0.0, 0.0, 0.0, 0.0, 1.705451253844106E9, 0.0, 2024-01-16 19:27:33.844
43.0, -376.5032083392143, -351.6104342341423, -154.1437165737152, 2.3935359716415405, -0.01600000075995922, -0.20800000987946987, 0.9760000463575125, 0.0, 0.0, 0.0, 0.0, 0.0, 1.7054512538448248E9, 0.0, 2024-01-16 19:27:33.844
43.0, -298.23458206653595, -365.97165006399155, -174.9674795269966, 33.74885720014572, -0.01600000075995922, -0.20800000987946987, 0.9760000463575125, 0.0, 0.0, 0.0, 0.0, 0.0, 1.7054512538448248E9, 0.0, 2024-01-16 19:27:33.844
44.0, -375.0670867562294, -370.7587220072746, -189.0893417596817, -72.28478634357452, -0.01600000075995922, -0.20800000987946987, 0.9760000463575125, 0.0, 0.0, 0.0, 0.0, 0.0, 1.70545125387518E9, 0.0, 2024-01-16 19:27:33.875
44.0, -397.3269712924957, -348.02013027668, -155.8191917538643, -33.50950360298157, -0.01600000075995922, -0.20800000987946987, 0.9760000463575125, 0.0, 0.0, 0.0, 0.0, 0.0, 1.70545125387518E9, 0.0, 2024-01-16 19:27:33.875
45.0, -299.910057246685, -346.3446550965309, -146.24504786729813, 67.01900720596313, -0.01600000075995922, -0.20800000987946987, 0.9760000463575125, 0.0, 0.0, 0.0, 0.0, 0.0, 1.7054512538758836E9, 0.0, 2024-01-16 19:27:33.875
45.0, -317.1435162425041, -349.69560545682907, -164.675274848938, -11.967679858207703, -0.01600000075995922, -0.20800000987946987, 0.9760000463575125, 0.0, 0.0, 0.0, 0.0, 0.0, 1.7054512538758836E9, 0.0, 2024-01-16 19:27:33.875
46.0, -391.1037777662277, -334.8556824326515, -149.11729103326797, -63.90741044282913, -0.01600000075995922, -0.20800000987946987, 0.9760000463575125, 0.0, 0.0, 0.0, 0.0, 0.0, 1.705451253889135E9, 0.0, 2024-01-16 19:27:33.889
46.0, -327.91442811489105, -337.72792559862137, -144.09086549282074, 46.434597849845886, -0.01600000075995922, -0.20800000987946987, 0.9760000463575125, 0.0, 0.0, 0.0, 0.0, 0.0, 1.705451253889135E9, 0.0, 2024-01-16 19:27:33.889
47.0, -309.72355473041534, -364.5355284810066, -174.4887723326683, 11.728326261043549, -0.01600000075995922, -0.20800000987946987, 0.9760000463575125, 0.0, 0.0, 0.0, 0.0, 0.0, 1.7054512538897743E9, 0.0, 2024-01-16 19:27:33.889
47.0, -413.36366230249405, -372.67355078458786, -174.01006513834, -85.68858778476715, -0.01600000075995922, -0.20800000987946987, 0.9760000463575125, 0.0, 0.0, 0.0, 0.0, 0.0, 1.7054512538897743E9, 0.0, 2024-01-16 19:27:33.889
48.0, -389.42830258607864, -359.74845653772354, -163.23915326595306, -4.547718346118927, -0.01600000075995922, -0.20800000987946987, 0.9760000463575125, 0.0, 0.0, 0.0, 0.0, 0.0, 1.7054512539041295E9, 0.0, 2024-01-16 19:27:33.904
48.0, -294.4049245119095, -353.2859094142914, -165.6326892375946, 44.99847626686096, -0.01600000075995922, -0.20800000987946987, 0.9760000463575125, 0.0, 0.0, 0.0, 0.0, 0.0, 1.7054512539041295E9, 0.0, 2024-01-16 19:27:33.904
49.0, -364.5355284810066, -356.8762133717537, -164.19656765460968, -53.375852167606354, -0.01600000075995922, -0.20800000987946987, 0.9760000463575125, 0.0, 0.0, 0.0, 0.0, 0.0, 1.7054512539048314E9, 0.0, 2024-01-16 19:27:33.904
49.0, -405.2256399989128, -345.14788711071014, -153.90436297655106, -30.397906839847565, -0.01600000075995922, -0.20800000987946987, 0.9760000463575125, 0.0, 0.0, 0.0, 0.0, 0.0, 1.7054512539048314E9, 0.0, 2024-01-16 19:27:33.904
50.0, -318.10093063116074, -351.84978783130646, -156.2978989481926, 55.53003454208374, -0.01600000075995922, -0.20800000987946987, 0.9760000463575125, 0.0, 0.0, 0.0, 0.0, 0.0, 1.7054512539183872E9, 0.0, 2024-01-16 19:27:33.918
50.0, -341.3182295560837, -372.912904381752, -179.99390506744385, -28.96178525686264, -0.01600000075995922, -0.20800000987946987, 0.9760000463575125, 0.0, 0.0, 0.0, 0.0, 0.0, 1.7054512539183872E9, 0.0, 2024-01-16 19:27:33.918
51.0, -414.0817230939865, -361.6632853150368, -157.73402053117752, -64.38611763715744, -0.01600000075995922, -0.20800000987946987, 0.9760000463575125, 0.0, 0.0, 0.0, 0.0, 0.0, 1.7054512539343324E9, 0.0, 2024-01-16 19:27:33.934
51.0, -336.77051120996475, -352.8072022199631, -153.42565578222275, 41.88687950372696, -0.01600000075995922, -0.20800000987946987, 0.9760000463575125, 0.0, 0.0, 0.0, 0.0, 0.0, 1.7054512539343324E9, 0.0, 2024-01-16 19:27:33.934
52.0, -300.1494108438492, -352.0891414284706, -160.12755650281906, 23.935359716415405, -0.03200000151991844, -0.20800000987946987, 0.9760000463575125, 0.0, 0.0, 0.0, 0.0, 0.0, 1.7054512539349196E9, 0.0, 2024-01-16 19:27:33.934
52.0, -384.4018770456314, -350.89237344264984, -159.8882029056549, -64.86482483148575, -0.03200000151991844, -0.20800000987946987, 0.9760000463575125, 0.0, 0.0, 0.0, 0.0, 0.0, 1.7054512539349196E9, 0.0, 2024-01-16 19:27:33.934
53.0, -359.5091029405594, -330.54731768369675, -140.02185434103012, 15.797337412834167, -0.03200000151991844, -0.20800000987946987, 0.9760000463575125, 0.0, 0.0, 0.0, 0.0, 0.0, 1.705451253948398E9, 0.0, 2024-01-16 19:27:33.948
53.0, -284.8307806253433, -339.1640471816063, -147.9205230474472, 62.231935262680054, -0.03200000151991844, -0.20800000987946987, 0.9760000463575125, 0.0, 0.0, 0.0, 0.0, 0.0, 1.705451253948398E9, 0.0, 2024-01-16 19:27:33.948
54.0, -350.1743126511574, -343.9511191248894, -162.5210924744606, -47.15265864133835, -0.03200000151991844, -0.20800000987946987, 0.9760000463575125, 0.0, 0.0, 0.0, 0.0, 0.0, 1.7054512539645276E9, 0.0, 2024-01-16 19:27:33.964
54.0, -387.27412021160126, -336.0524504184723, -143.85151189565659, -28.004370868206024, -0.03200000151991844, -0.20800000987946987, 0.9760000463575125, 0.0, 0.0, 0.0, 0.0, 0.0, 1.7054512539645276E9, 0.0, 2024-01-16 19:27:33.964
55.0, -281.240476667881, -319.2976986169815, -132.12318563461304, 76.83250468969345, -0.03200000151991844, -0.20800000987946987, 0.9760000463575125, 0.0, 0.0, 0.0, 0.0, 0.0, 1.7054512539649558E9, 0.0, 2024-01-16 19:27:33.964
55.0, -312.1170907020569, -343.9511191248894, -162.9997996687889, -0.9574143886566162, -0.03200000151991844, -0.20800000987946987, 0.9760000463575125, 0.0, 0.0, 0.0, 0.0, 0.0, 1.7054512539649558E9, 0.0, 2024-01-16 19:27:33.964
56.0, -374.5883795619011, -316.6648090481758, -143.37280470132828, -42.12623310089111, -0.03200000151991844, -0.20800000987946987, 0.9760000463575125, 0.0, 0.0, 0.0, 0.0, 0.0, 1.7054512539783857E9, 0.0, 2024-01-16 19:27:33.978
56.0, -297.9952284693718, -305.8938971757889, -119.91615217924118, 74.43896871805191, -0.03200000151991844, -0.20800000987946987, 0.9760000463575125, 0.0, 0.0, 0.0, 0.0, 0.0, 1.7054512539783857E9, 0.0, 2024-01-16 19:27:33.978
57.0, -277.88952630758286, -331.7440856695175, -149.11729103326797, 37.09980756044388, -0.03200000151991844, -0.20800000987946987, 0.9760000463575125, 0.0, 0.0, 0.0, 0.0, 0.0, 1.7054512540107453E9, 0.0, 2024-01-16 19:27:34.010
57.0, -367.1684180498123, -330.06861048936844, -151.98953419923782, -53.1364985704422, -0.03200000151991844, -0.20800000987946987, 0.9760000463575125, 0.0, 0.0, 0.0, 0.0, 0.0, 1.7054512540107453E9, 0.0, 2024-01-16 19:27:34.010
58.0, -359.5091029405594, -330.7866712808609, -138.5857327580452, 22.97794532775879, -0.03200000151991844, -0.20800000987946987, 0.9760000463575125, 0.0, 0.0, 0.0, 0.0, 0.0, 1.7054512540112553E9, 0.0, 2024-01-16 19:27:34.011
58.0, -285.0701342225075, -343.7117655277252, -147.9205230474472, 61.51387447118759, -0.03200000151991844, -0.20800000987946987, 0.9760000463575125, 0.0, 0.0, 0.0, 0.0, 0.0, 1.7054512540112553E9, 0.0, 2024-01-16 19:27:34.011
59.0, -359.74845653772354, -356.15815258026123, -172.09523636102676, -60.556460082530975, -0.03200000151991844, -0.20800000987946987, 0.9760000463575125, 0.0, 0.0, 0.0, 0.0, 0.0, 1.705451254012024E9, 0.0, 2024-01-16 19:27:34.012
59.0, -408.57659035921097, -351.131727039814, -152.46824139356613, -35.663685977458954, -0.03200000151991844, -0.20800000987946987, 0.9760000463575125, 0.0, 0.0, 0.0, 0.0, 0.0, 1.705451254012024E9, 0.0, 2024-01-16 19:27:34.012
60.0, -316.42545545101166, -351.6104342341423, -158.9307885169983, 54.33326655626297, -0.03200000151991844, -0.20800000987946987, 0.9760000463575125, 0.0, 0.0, 0.0, 0.0, 0.0, 1.7054512540128684E9, 0.0, 2024-01-16 19:27:34.012
60.0, -335.0950360298157, -360.70587092638016, -171.61652916669846, -20.10570216178894, -0.03200000151991844, -0.20800000987946987, 0.9760000463575125, 0.0, 0.0, 0.0, 0.0, 0.0, 1.7054512540128684E9, 0.0, 2024-01-16 19:27:34.012
61.0, -424.37392777204514, -370.04066121578217, -174.01006513834, -77.55056548118591, -0.03200000151991844, -0.20800000987946987, 0.9760000463575125, 0.0, 0.0, 0.0, 0.0, 0.0, 1.705451254023614E9, 0.0, 2024-01-16 19:27:34.023
61.0, -350.89237344264984, -354.00397020578384, -150.79276621341705, 34.466917991638184, -0.03200000151991844, -0.20800000987946987, 0.9760000463575125, 0.0, 0.0, 0.0, 0.0, 0.0, 1.705451254023614E9, 0.0, 2024-01-16 19:27:34.023
62.0, -313.0745050907135, -369.08324682712555, -174.9674795269966, 6.223193526268005, -0.01600000075995922, -0.20800000987946987, 0.9760000463575125, 0.0, 0.0, 0.0, 0.0, 0.0, 1.7054512540385463E9, 0.0, 2024-01-16 19:27:34.038
62.0, -410.9701263308525, -369.801307618618, -173.05265074968338, -81.38022303581238, -0.01600000075995922, -0.20800000987946987, 0.9760000463575125, 0.0, 0.0, 0.0, 0.0, 0.0, 1.7054512540385463E9, 0.0, 2024-01-16 19:27:34.038
63.0, -392.53989934921265, -363.33876049518585, -161.56367808580399, -5.744486331939697, -0.01600000075995922, -0.20800000987946987, 0.9760000463575125, 0.0, 0.0, 0.0, 0.0, 0.0, 1.7054512540540767E9, 0.0, 2024-01-16 19:27:34.054
63.0, -315.94674825668335, -373.3916115760803, -175.68554031848907, 36.860453963279724, -0.01600000075995922, -0.20800000987946987, 0.9760000463575125, 0.0, 0.0, 0.0, 0.0, 0.0, 1.7054512540540767E9, 0.0, 2024-01-16 19:27:34.054
64.0, -374.34902596473694, -365.7322964668274, -187.65322017669678, -68.2157751917839, -0.01600000075995922, -0.20800000987946987, 0.9760000463575125, 0.0, 0.0, 0.0, 0.0, 0.0, 1.7054512540548458E9, 0.0, 2024-01-16 19:27:34.054
64.0, -415.0391374826431, -364.0568212866783, -168.02622520923615, -47.63136583566666, -0.01600000075995922, -0.20800000987946987, 0.9760000463575125, 0.0, 0.0, 0.0, 0.0, 0.0, 1.7054512540548458E9, 0.0, 2024-01-16 19:27:34.054
65.0, -328.6324889063835, -367.40777164697647, -167.54751801490784, 50.0249018073082, -0.01600000075995922, -0.20800000987946987, 0.9760000463575125, 0.0, 0.0, 0.0, 0.0, 0.0, 1.7054512540683815E9, 0.0, 2024-01-16 19:27:34.068
65.0, -351.84978783130646, -384.64123064279556, -189.0893417596817, -35.184978783130646, -0.01600000075995922, -0.20800000987946987, 0.9760000463575125, 0.0, 0.0, 0.0, 0.0, 0.0, 1.7054512540683815E9, 0.0, 2024-01-16 19:27:34.068
66.0, -427.7248781323433, -375.0670867562294, -181.43002665042877, -85.449234187603, -0.01600000075995922, -0.20800000987946987, 0.9760000463575125, 0.0, 0.0, 0.0, 0.0, 0.0, 1.7054512540840676E9, 0.0, 2024-01-16 19:27:34.084
66.0, -359.0303957462311, -365.49294286966324, -168.02622520923615, 24.414066910743713, -0.01600000075995922, -0.20800000987946987, 0.9760000463575125, 0.0, 0.0, 0.0, 0.0, 0.0, 1.7054512540840676E9, 0.0, 2024-01-16 19:27:34.084
67.0, -333.65891444683075, -386.0773522257805, -185.9777449965477, -1.4361215829849243, -0.01600000075995922, -0.20800000987946987, 0.9760000463575125, 0.0, 0.0, 0.0, 0.0, 0.0, 1.7054512540847695E9, 0.0, 2024-01-16 19:27:34.084
67.0, -421.9803918004036, -387.75282740592957, -202.49314320087433, -98.37432843446732, -0.01600000075995922, -0.20800000987946987, 0.9760000463575125, 0.0, 0.0, 0.0, 0.0, 0.0, 1.7054512540847695E9, 0.0, 2024-01-16 19:27:34.084
68.0, -395.17278891801834, -368.12583243846893, -173.05265074968338, -19.626994967460632, -0.01600000075995922, -0.20800000987946987, 0.9760000463575125, 0.0, 0.0, 0.0, 0.0, 0.0, 1.7054512540987163E9, 0.0, 2024-01-16 19:27:34.098
68.0, -336.5311576128006, -395.4121425151825, -191.7222313284874, 18.669580578804016, -0.01600000075995922, -0.20800000987946987, 0.9760000463575125, 0.0, 0.0, 0.0, 0.0, 0.0, 1.7054512540987163E9, 0.0, 2024-01-16 19:27:34.098
69.0, -404.02887201309204, -401.6353360414505, -200.5783144235611, -85.9279413819313, -0.01600000075995922, -0.20800000987946987, 0.9760000463575125, 0.0, 0.0, 0.0, 0.0, 0.0, 1.7054512541144931E9, 0.0, 2024-01-16 19:27:34.114
69.0, -437.29902201890945, -385.11993783712387, -178.31842988729477, -57.20550972223282, -0.01600000075995922, -0.20800000987946987, 0.9760000463575125, 0.0, 0.0, 0.0, 0.0, 0.0, 1.7054512541144931E9, 0.0, 2024-01-16 19:27:34.114
70.0, -335.573743224144, -379.3754515051842, -181.19067305326462, 30.63726043701172, -0.01600000075995922, -0.20800000987946987, 0.9760000463575125, 0.0, 0.0, 0.0, 0.0, 0.0, 1.7054512541307209E9, 0.0, 2024-01-16 19:27:34.130
70.0, -349.21689826250076, -382.4870482683182, -189.56804895401, -42.36558669805527, -0.01600000075995922, -0.20800000987946987, 0.9760000463575125, 0.0, 0.0, 0.0, 0.0, 0.0, 1.7054512541307209E9, 0.0, 2024-01-16 19:27:34.130
71.0, -438.0170828104019, -382.247694671154, -190.76481693983078, -94.54467087984085, -0.01600000075995922, -0.20800000987946987, 0.9760000463575125, 0.0, 0.0, 0.0, 0.0, 0.0, 1.705451254131287E9, 0.0, 2024-01-16 19:27:34.131
71.0, -374.1096723675728, -378.89674431085587, -174.9674795269966, 23.935359716415405, -0.01600000075995922, -0.20800000987946987, 0.9760000463575125, 0.0, 0.0, 0.0, 0.0, 0.0, 1.705451254131287E9, 0.0, 2024-01-16 19:27:34.131
72.0, -333.18020725250244, -387.75282740592957, -191.96158492565155, -3.3509503602981567, -0.03200000151991844, -0.20800000987946987, 0.9760000463575125, 0.0, 0.0, 0.0, 0.0, 0.0, 1.7054512541319244E9, 0.0, 2024-01-16 19:27:34.131
72.0, -421.9803918004036, -384.8805842399597, -187.89257377386093, -89.27889174222946, -0.03200000151991844, -0.20800000987946987, 0.9760000463575125, 0.0, 0.0, 0.0, 0.0, 0.0, 1.7054512541319244E9, 0.0, 2024-01-16 19:27:34.131
73.0, -397.80567848682404, -371.4767827987671, -168.2655788064003, -10.292204678058624, -0.03200000151991844, -0.20800000987946987, 0.9760000463575125, 0.0, 0.0, 0.0, 0.0, 0.0, 1.7054512541592476E9, 0.0, 2024-01-16 19:27:34.159
73.0, -318.8189914226532, -375.0670867562294, -181.19067305326462, 28.004370868206024, -0.03200000151991844, -0.20800000987946987, 0.9760000463575125, 0.0, 0.0, 0.0, 0.0, 0.0, 1.7054512541592476E9, 0.0, 2024-01-16 19:27:34.159
74.0, -382.72640186548233, -381.52963387966156, -192.91899931430817, -77.0718582868576, -0.03200000151991844, -0.20800000987946987, 0.9760000463575125, 0.0, 0.0, 0.0, 0.0, 0.0, 1.7054512541597934E9, 0.0, 2024-01-16 19:27:34.159
74.0, -427.246170938015, -372.4341971874237, -175.68554031848907, -49.06748741865158, -0.03200000151991844, -0.20800000987946987, 0.9760000463575125, 0.0, 0.0, 0.0, 0.0, 0.0, 1.7054512541597934E9, 0.0, 2024-01-16 19:27:34.159
75.0, -342.7543511390686, -379.8541586995125, -177.121661901474, 33.988210797309875, -0.03200000151991844, -0.20800000987946987, 0.9760000463575125, 0.0, 0.0, 0.0, 0.0, 0.0, 1.7054512541905355E9, 0.0, 2024-01-16 19:27:34.190
75.0, -356.8762133717537, -389.1889489889145, -199.38154643774033, -40.21140432357788, -0.03200000151991844, -0.20800000987946987, 0.9760000463575125, 0.0, 0.0, 0.0, 0.0, 0.0, 1.7054512541905355E9, 0.0, 2024-01-16 19:27:34.190
76.0, -440.88932597637177, -387.0347666144371, -192.91899931430817, -96.45949965715408, -0.03200000151991844, -0.20800000987946987, 0.9760000463575125, 0.0, 0.0, 0.0, 0.0, 0.0, 1.705451254191358E9, 0.0, 2024-01-16 19:27:34.191
76.0, -374.34902596473694, -387.0347666144371, -179.51519787311554, 12.685740649700165, -0.03200000151991844, -0.20800000987946987, 0.9760000463575125, 0.0, 0.0, 0.0, 0.0, 0.0, 1.705451254191358E9, 0.0, 2024-01-16 19:27:34.191
77.0, -341.796936750412, -403.3108112215996, -204.40797197818756, -12.925094246864319, -0.03200000151991844, -0.20800000987946987, 0.9760000463575125, 0.0, 0.0, 0.0, 0.0, 0.0, 1.7054512541920547E9, 0.0, 2024-01-16 19:27:34.192
77.0, -429.1609997153282, -392.7792529463768, -213.0247014760971, -112.4961906671524, -0.03200000151991844, -0.20800000987946987, 0.9760000463575125, 0.0, 0.0, 0.0, 0.0, 0.0, 1.7054512541920547E9, 0.0, 2024-01-16 19:27:34.192
78.0, -412.40624791383743, -382.72640186548233, -183.10550183057785, -25.610834896564484, -0.03200000151991844, -0.20800000987946987, 0.9760000463575125, 0.0, 0.0, 0.0, 0.0, 0.0, 1.7054512541928587E9, 0.0, 2024-01-16 19:27:34.192
78.0, -332.70150005817413, -389.6676561832428, -184.78097701072693, 31.35532122850418, -0.03200000151991844, -0.20800000987946987, 0.9760000463575125, 0.0, 0.0, 0.0, 0.0, 0.0, 1.7054512541928587E9, 0.0, 2024-01-16 19:27:34.192
79.0, -401.39598244428635, -401.39598244428635, -200.0996072292328, -81.61957663297653, -0.03200000151991844, -0.20800000987946987, 0.9760000463575125, 0.0, 0.0, 0.0, 0.0, 0.0, 1.705451254203369E9, 0.0, 2024-01-16 19:27:34.203
79.0, -442.804154753685, -387.0347666144371, -182.3874410390854, -67.97642159461975, -0.03200000151991844, -0.20800000987946987, 0.9760000463575125, 0.0, 0.0, 0.0, 0.0, 0.0, 1.705451254203369E9, 0.0, 2024-01-16 19:27:34.203
80.0, -342.51499754190445, -382.247694671154, -177.83972269296646, 30.876614034175873, -0.03200000151991844, -0.20800000987946987, 0.9760000463575125, 0.0, 0.0, 0.0, 0.0, 0.0, 1.7054512542185E9, 0.0, 2024-01-16 19:27:34.218
80.0, -362.38134610652924, -398.28438568115234, -202.25378960371017, -53.375852167606354, -0.03200000151991844, -0.20800000987946987, 0.9760000463575125, 0.0, 0.0, 0.0, 0.0, 0.0, 1.7054512542185E9, 0.0, 2024-01-16 19:27:34.218
81.0, -449.5060554742813, -395.65149611234665, -187.41386657953262, -101.48592519760132, -0.03200000151991844, -0.20800000987946987, 0.9760000463575125, 0.0, 0.0, 0.0, 0.0, 0.0, 1.7054512542341335E9, 0.0, 2024-01-16 19:27:34.234
81.0, -374.1096723675728, -381.7689874768257, -172.09523636102676, 18.190873384475708, -0.03200000151991844, -0.20800000987946987, 0.9760000463575125, 0.0, 0.0, 0.0, 0.0, 0.0, 1.7054512542341335E9, 0.0, 2024-01-16 19:27:34.234
82.0, -323.3667097687721, -383.68381625413895, -192.2009385228157, -10.770911872386932, -0.01600000075995922, -0.20800000987946987, 0.9760000463575125, 0.0, 0.0, 0.0, 0.0, 0.0, 1.7054512542348187E9, 0.0, 2024-01-16 19:27:34.234
82.0, -426.0494029521942, -395.4121425151825, -193.87641370296478, -106.03364354372025, -0.01600000075995922, -0.20800000987946987, 0.9760000463575125, 0.0, 0.0, 0.0, 0.0, 0.0, 1.7054512542348187E9, 0.0, 2024-01-16 19:27:34.234
83.0, -395.8908497095108, -367.6471252441406, -170.18040758371353, -23.69600611925125, -0.01600000075995922, -0.20800000987946987, 0.9760000463575125, 0.0, 0.0, 0.0, 0.0, 0.0, 1.7054512542485068E9, 0.0, 2024-01-16 19:27:34.248
83.0, -314.5106266736984, -380.57221949100494, -179.03649067878723, 24.414066910743713, -0.01600000075995922, -0.20800000987946987, 0.9760000463575125, 0.0, 0.0, 0.0, 0.0, 0.0, 1.7054512542485068E9, 0.0, 2024-01-16 19:27:34.248
84.0, -393.49731373786926, -397.5663248896599, -201.5357288122177, -88.80018454790115, -0.01600000075995922, -0.20800000987946987, 0.9760000463575125, 0.0, 0.0, 0.0, 0.0, 0.0, 1.7054512542641485E9, 0.0, 2024-01-16 19:27:34.264
84.0, -431.55453568696976, -376.024501144886, -165.6326892375946, -57.44486331939697, -0.01600000075995922, -0.20800000987946987, 0.9760000463575125, 0.0, 0.0, 0.0, 0.0, 0.0, 1.7054512542641485E9, 0.0, 2024-01-16 19:27:34.264
85.0, -342.7543511390686, -383.4444626569748, -170.41976118087769, 28.483078062534332, -0.01600000075995922, -0.20800000987946987, 0.9760000463575125, 0.0, 0.0, 0.0, 0.0, 0.0, 1.7054512542648156E9, 0.0, 2024-01-16 19:27:34.264
85.0, -362.1419925093651, -401.1566288471222, -200.5783144235611, -56.00874173641205, -0.01600000075995922, -0.20800000987946987, 0.9760000463575125, 0.0, 0.0, 0.0, 0.0, 0.0, 1.7054512542648156E9, 0.0, 2024-01-16 19:27:34.264
86.0, -437.0596684217453, -385.5986450314522, -192.44029211997986, -100.28915721178055, -0.01600000075995922, -0.20800000987946987, 0.9760000463575125, 0.0, 0.0, 0.0, 0.0, 0.0, 1.7054512542784495E9, 0.0, 2024-01-16 19:27:34.278
86.0, -373.6309651732445, -378.89674431085587, -185.9777449965477, -0.23935359716415405, -0.01600000075995922, -0.20800000987946987, 0.9760000463575125, 0.0, 0.0, 0.0, 0.0, 0.0, 1.7054512542784495E9, 0.0, 2024-01-16 19:27:34.278
87.0, -334.3769752383232, -390.1463633775711, -190.28610974550247, -14.839923024177551, -0.01600000075995922, -0.20800000987946987, 0.9760000463575125, 0.0, 0.0, 0.0, 0.0, 0.0, 1.7054512542944286E9, 0.0, 2024-01-16 19:27:34.294
87.0, -431.07582849264145, -397.5663248896599, -199.62090003490448, -105.79428994655609, -0.01600000075995922, -0.20800000987946987, 0.9760000463575125, 0.0, 0.0, 0.0, 0.0, 0.0, 1.7054512542944286E9, 0.0, 2024-01-16 19:27:34.294
88.0, -409.0552975535393, -380.09351229667664, -172.33458995819092, -22.020530939102173, -0.01600000075995922, -0.20800000987946987, 0.9760000463575125, 0.0, 0.0, 0.0, 0.0, 0.0, 1.7054512542951102E9, 0.0, 2024-01-16 19:27:34.295
88.0, -321.21252739429474, -382.72640186548233, -186.21709859371185, 24.17471331357956, -0.01600000075995922, -0.20800000987946987, 0.9760000463575125, 0.0, 0.0, 0.0, 0.0, 0.0, 1.7054512542951102E9, 0.0, 2024-01-16 19:27:34.295
89.0, -370.7587220072746, -377.46062272787094, -181.43002665042877, -70.13060396909714, -0.01600000075995922, -0.20800000987946987, 0.9760000463575125, 0.0, 0.0, 0.0, 0.0, 0.0, 1.7054512543084018E9, 0.0, 2024-01-16 19:27:34.308
89.0, -419.10814863443375, -367.40777164697647, -169.70170038938522, -56.487448930740356, -0.01600000075995922, -0.20800000987946987, 0.9760000463575125, 0.0, 0.0, 0.0, 0.0, 0.0, 1.7054512543084018E9, 0.0, 2024-01-16 19:27:34.308
90.0, -328.6324889063835, -368.3651860356331, -173.29200434684753, 30.15855324268341, -0.01600000075995922, -0.20800000987946987, 0.9760000463575125, 0.0, 0.0, 0.0, 0.0, 0.0, 1.7054512543241208E9, 0.0, 2024-01-16 19:27:34.324
90.0, -343.2330583333969, -376.5032083392143, -188.84998816251755, -38.057221949100494, -0.01600000075995922, -0.20800000987946987, 0.9760000463575125, 0.0, 0.0, 0.0, 0.0, 0.0, 1.7054512543241208E9, 0.0, 2024-01-16 19:27:34.324
91.0, -435.86290043592453, -381.2902802824974, -186.69580578804016, -100.0498036146164, -0.01600000075995922, -0.20800000987946987, 0.9760000463575125, 0.0, 0.0, 0.0, 0.0, 0.0, 1.7054512543248353E9, 0.0, 2024-01-16 19:27:34.324
91.0, -360.22716373205185, -366.92906445264816, -165.87204283475876, 15.557983815670013, -0.01600000075995922, -0.20800000987946987, 0.9760000463575125, 0.0, 0.0, 0.0, 0.0, 0.0, 1.7054512543248353E9, 0.0, 2024-01-16 19:27:34.324
92.0, -322.8880025744438, -384.4018770456314, -185.9777449965477, -5.505132734775543, -0.03200000151991844, -0.20800000987946987, 0.9760000463575125, 0.0, 0.0, 0.0, 0.0, 0.0, 1.7054512543384752E9, 0.0, 2024-01-16 19:27:34.338
92.0, -403.55016481876373, -374.82773315906525, -190.04675614833832, -94.784024477005, -0.03200000151991844, -0.20800000987946987, 0.9760000463575125, 0.0, 0.0, 0.0, 0.0, 0.0, 1.7054512543384752E9, 0.0, 2024-01-16 19:27:34.338
93.0, -390.38571697473526, -362.86005330085754, -169.46234679222107, -15.31863021850586, -0.03200000151991844, -0.20800000987946987, 0.9760000463575125, 0.0, 0.0, 0.0, 0.0, 0.0, 1.7054512543541646E9, 0.0, 2024-01-16 19:27:34.354
93.0, -322.64864897727966, -379.3754515051842, -176.88230830430984, 29.44049245119095, -0.03200000151991844, -0.20800000987946987, 0.9760000463575125, 0.0, 0.0, 0.0, 0.0, 0.0, 1.7054512543541646E9, 0.0, 2024-01-16 19:27:34.354
94.0, -391.58248496055603, -397.5663248896599, -194.8338280916214, -81.14086943864822, -0.03200000151991844, -0.20800000987946987, 0.9760000463575125, 0.0, 0.0, 0.0, 0.0, 0.0, 1.7054512543548622E9, 0.0, 2024-01-16 19:27:34.354
94.0, -432.7513036727905, -381.2902802824974, -179.03649067878723, -64.14676403999329, -0.03200000151991844, -0.20800000987946987, 0.9760000463575125, 0.0, 0.0, 0.0, 0.0, 0.0, 1.7054512543548622E9, 0.0, 2024-01-16 19:27:34.354
95.0, -342.51499754190445, -382.72640186548233, -180.95131945610046, 26.328895688056946, -0.03200000151991844, -0.20800000987946987, 0.9760000463575125, 0.0, 0.0, 0.0, 0.0, 0.0, 1.7054512543684201E9, 0.0, 2024-01-16 19:27:34.368
95.0, -355.2007381916046, -392.7792529463768, -194.59447449445724, -47.63136583566666, -0.03200000151991844, -0.20800000987946987, 0.9760000463575125, 0.0, 0.0, 0.0, 0.0, 0.0, 1.7054512543684201E9, 0.0, 2024-01-16 19:27:34.368
96.0, -432.7513036727905, -378.6573907136917, -181.66938024759293, -95.26273167133331, -0.03200000151991844, -0.20800000987946987, 0.9760000463575125, 0.0, 0.0, 0.0, 0.0, 0.0, 1.705451254384496E9, 0.0, 2024-01-16 19:27:34.384
96.0, -366.92906445264816, -373.6309651732445, -178.79713708162308, 1.9148287773132324, -0.03200000151991844, -0.20800000987946987, 0.9760000463575125, 0.0, 0.0, 0.0, 0.0, 0.0, 1.705451254384496E9, 0.0, 2024-01-16 19:27:34.384
97.0, -339.88210797309875, -400.91727524995804, -201.29637521505356, -19.148287773132324, -0.03200000151991844, -0.20800000987946987, 0.9760000463575125, 0.0, 0.0, 0.0, 0.0, 0.0, 1.7054512543996732E9, 0.0, 2024-01-16 19:27:34.399
97.0, -431.07582849264145, -400.1992144584656, -200.5783144235611, -107.23041152954102, -0.03200000151991844, -0.20800000987946987, 0.9760000463575125, 0.0, 0.0, 0.0, 0.0, 0.0, 1.7054512543996732E9, 0.0, 2024-01-16 19:27:34.399
98.0, -403.0714576244354, -375.78514754772186, -174.01006513834, -16.754751801490784, -0.03200000151991844, -0.20800000987946987, 0.9760000463575125, 0.0, 0.0, 0.0, 0.0, 0.0, 1.7054512543999605E9, 0.0, 2024-01-16 19:27:34.399
98.0, -311.3990299105644, -370.2800148129463, -179.27584427595139, 31.594674825668335, -0.03200000151991844, -0.20800000987946987, 0.9760000463575125, 0.0, 0.0, 0.0, 0.0, 0.0, 1.7054512543999605E9, 0.0, 2024-01-16 19:27:34.399
99.0, -375.30644035339355, -376.7425619363785, -191.00417053699493, -81.85893023014069, -0.03200000151991844, -0.20800000987946987, 0.9760000463575125, 0.0, 0.0, 0.0, 0.0, 0.0, 1.705451254413477E9, 0.0, 2024-01-16 19:27:34.413
99.0, -417.43267345428467, -366.689710855484, -169.22299319505692, -57.20550972223282, -0.03200000151991844, -0.20800000987946987, 0.9760000463575125, 0.0, 0.0, 0.0, 0.0, 0.0, 1.705451254413477E9, 0.0, 2024-01-16 19:27:34.413
0.0, -343.47241193056107, -381.7689874768257, -189.56804895401, -38.77528274059296, -0.03200000151991844, -0.20800000987946987, 0.9600000455975533, 0.0, 0.0, 0.0, 0.0, 0.0, 1.7054512544301891E9, 0.0, 2024-01-16 19:27:34.430
0.0, -430.59712129831314, -379.3754515051842, -178.55778348445892, -95.02337807416916, -0.03200000151991844, -0.20800000987946987, 0.9600000455975533, 0.0, 0.0, 0.0, 0.0, 0.0, 1.7054512544301891E9, 0.0, 2024-01-16 19:27:34.430
1.0, -357.8336277604103, -362.86005330085754, -165.6326892375946, 13.403801441192627, -0.03200000151991844, -0.19200000911951065, 0.9600000455975533, 0.0, 0.0, 0.0, 0.0, 0.0, 1.7054512544306371E9, 0.0, 2024-01-16 19:27:34.430
1.0, -318.3402842283249, -373.3916115760803, -181.66938024759293, -1.9148287773132324, -0.03200000151991844, -0.19200000911951065, 0.9600000455975533, 0.0, 0.0, 0.0, 0.0, 0.0, 1.7054512544306371E9, 0.0, 2024-01-16 19:27:34.430
2.0, -412.40624791383743, -374.34902596473694, -191.96158492565155, -91.672427713871, -0.01600000075995922, -0.19200000911951065, 0.9600000455975533, 0.0, 0.0, 0.0, 0.0, 0.0, 1.7054512544434407E9, 0.0, 2024-01-16 19:27:34.443
2.0, -397.3269712924957, -373.15225797891617, -168.2655788064003, -19.866348564624786, -0.01600000075995922, -0.19200000911951065, 0.9600000455975533, 0.0, 0.0, 0.0, 0.0, 0.0, 1.7054512544434407E9, 0.0, 2024-01-16 19:27:34.443
3.0, -319.2976986169815, -382.00834107398987, -175.68554031848907, 28.243724465370178, -0.01600000075995922, -0.19200000911951065, 0.9600000455975533, 0.0, 0.0, 0.0, 0.0, 0.0, 1.7054512544592943E9, 0.0, 2024-01-16 19:27:34.459
3.0, -372.912904381752, -388.2315346002579, -190.28610974550247, -75.63573670387268, -0.01600000075995922, -0.19200000911951065, 0.9600000455975533, 0.0, 0.0, 0.0, 0.0, 0.0, 1.7054512544592943E9, 0.0, 2024-01-16 19:27:34.459
4.0, -423.4165133833885, -373.15225797891617, -178.79713708162308, -59.83839929103851, -0.01600000075995922, -0.19200000911951065, 0.9600000455975533, 0.0, 0.0, 0.0, 0.0, 0.0, 1.705451254459839E9, 0.0, 2024-01-16 19:27:34.459
4.0, -337.72792559862137, -369.3226004242897, -173.29200434684753, 33.27015000581741, -0.01600000075995922, -0.19200000911951065, 0.9600000455975533, 0.0, 0.0, 0.0, 0.0, 0.0, 1.705451254459839E9, 0.0, 2024-01-16 19:27:34.459
5.0, -359.9878101348877, -393.2579601407051, -205.60473996400833, -52.17908418178558, -0.01600000075995922, -0.19200000911951065, 0.9600000455975533, 0.0, 0.0, 0.0, 0.0, 0.0, 1.7054512544734204E9, 0.0, 2024-01-16 19:27:34.473
5.0, -440.6499723792076, -384.4018770456314, -191.48287773132324, -104.11881476640701, -0.01600000075995922, -0.19200000911951065, 0.9600000455975533, 0.0, 0.0, 0.0, 0.0, 0.0, 1.7054512544734204E9, 0.0, 2024-01-16 19:27:34.473
6.0, -376.024501144886, -375.0670867562294, -175.44618672132492, 11.010265469551086, -0.01600000075995922, -0.19200000911951065, 0.9600000455975533, 0.0, 0.0, 0.0, 0.0, 0.0, 1.7054512544892848E9, 0.0, 2024-01-16 19:27:34.489
6.0, -327.91442811489105, -386.79541301727295, -189.32869535684586, -3.3509503602981567, -0.01600000075995922, -0.19200000911951065, 0.9600000455975533, 0.0, 0.0, 0.0, 0.0, 0.0, 1.7054512544892848E9, 0.0, 2024-01-16 19:27:34.489
7.0, -414.32107669115067, -380.09351229667664, -194.3551208972931, -97.65626764297485, -0.01600000075995922, -0.19200000911951065, 0.9600000455975533, 0.0, 0.0, 0.0, 0.0, 0.0, 1.7054512544898033E9, 0.0, 2024-01-16 19:27:34.489
7.0, -405.9437007904053, -377.2212691307068, -171.3771755695343, -17.951519787311554, -0.01600000075995922, -0.19200000911951065, 0.9600000455975533, 0.0, 0.0, 0.0, 0.0, 0.0, 1.7054512544898033E9, 0.0, 2024-01-16 19:27:34.489
8.0, -324.5634777545929, -384.16252344846725, -181.66938024759293, 29.679846048355103, -0.01600000075995922, -0.19200000911951065, 0.9600000455975533, 0.0, 0.0, 0.0, 0.0, 0.0, 1.7054512545037012E9, 0.0, 2024-01-16 19:27:34.503
8.0, -383.20510905981064, -386.79541301727295, -193.39770650863647, -75.63573670387268, -0.01600000075995922, -0.19200000911951065, 0.9600000455975533, 0.0, 0.0, 0.0, 0.0, 0.0, 1.7054512545037012E9, 0.0, 2024-01-16 19:27:34.503
9.0, -425.0919885635376, -370.7587220072746, -182.3874410390854, -63.18934965133667, -0.01600000075995922, -0.19200000911951065, 0.9600000455975533, 0.0, 0.0, 0.0, 0.0, 0.0, 1.7054512545191755E9, 0.0, 2024-01-16 19:27:34.519
9.0, -347.0627158880234, -386.79541301727295, -174.24941873550415, 32.07338201999664, -0.01600000075995922, -0.19200000911951065, 0.9600000455975533, 0.0, 0.0, 0.0, 0.0, 0.0, 1.7054512545191755E9, 0.0, 2024-01-16 19:27:34.519
10.0, -358.07298135757446, -392.53989934921265, -202.01443600654602, -47.3920122385025, -0.01600000075995922, -0.19200000911951065, 0.9760000463575125, 0.0, 0.0, 0.0, 0.0, 0.0, 1.705451254519833E9, 0.0, 2024-01-16 19:27:34.519
10.0, -444.00092273950577, -383.20510905981064, -188.84998816251755, -94.06596368551254, -0.01600000075995922, -0.19200000911951065, 0.9760000463575125, 0.0, 0.0, 0.0, 0.0, 0.0, 1.705451254519833E9, 0.0, 2024-01-16 19:27:34.519
11.0, -372.4341971874237, -372.4341971874237, -174.72812592983246, 11.488972663879395, -0.01600000075995922, -0.20800000987946987, 0.9760000463575125, 0.0, 0.0, 0.0, 0.0, 0.0, 1.705451254533422E9, 0.0, 2024-01-16 19:27:34.533
11.0, -332.2227928638458, -387.75282740592957, -197.70607125759125, -9.574143886566162, -0.01600000075995922, -0.20800000987946987, 0.9760000463575125, 0.0, 0.0, 0.0, 0.0, 0.0, 1.705451254533422E9, 0.0, 2024-01-16 19:27:34.533
12.0, -423.8952205777168, -394.2153745293617, -199.14219284057617, -102.68269318342209, -0.01600000075995922, -0.20800000987946987, 0.9760000463575125, 0.0, 0.0, 0.0, 0.0, 0.0, 1.7054512545655403E9, 0.0, 2024-01-16 19:27:34.565
12.0, -415.0391374826431, -393.7366673350334, -177.83972269296646, -26.328895688056946, -0.01600000075995922, -0.20800000987946987, 0.9760000463575125, 0.0, 0.0, 0.0, 0.0, 0.0, 1.7054512545655403E9, 0.0, 2024-01-16 19:27:34.565
13.0, -322.8880025744438, -383.68381625413895, -181.19067305326462, 28.243724465370178, -0.01600000075995922, -0.20800000987946987, 0.9760000463575125, 0.0, 0.0, 0.0, 0.0, 0.0, 1.7054512545662515E9, 0.0, 2024-01-16 19:27:34.566
13.0, -387.0347666144371, -387.5134738087654, -194.11576730012894, -77.31121188402176, -0.01600000075995922, -0.20800000987946987, 0.9760000463575125, 0.0, 0.0, 0.0, 0.0, 0.0, 1.7054512545662515E9, 0.0, 2024-01-16 19:27:34.566
14.0, -422.4590989947319, -367.1684180498123, -170.41976118087769, -60.79581367969513, -0.01600000075995922, -0.20800000987946987, 0.9760000463575125, 0.0, 0.0, 0.0, 0.0, 0.0, 1.7054512545669737E9, 0.0, 2024-01-16 19:27:34.566
14.0, -329.8292568922043, -366.2110036611557, -169.94105398654938, 32.791442811489105, -0.01600000075995922, -0.20800000987946987, 0.9760000463575125, 0.0, 0.0, 0.0, 0.0, 0.0, 1.7054512545669737E9, 0.0, 2024-01-16 19:27:34.566
15.0, -348.73819106817245, -387.75282740592957, -185.9777449965477, -43.32300108671188, -0.01600000075995922, -0.20800000987946987, 0.9760000463575125, 0.0, 0.0, 0.0, 0.0, 0.0, 1.705451254567727E9, 0.0, 2024-01-16 19:27:34.567
15.0, -435.86290043592453, -382.00834107398987, -184.78097701072693, -98.61368203163147, -0.01600000075995922, -0.20800000987946987, 0.9760000463575125, 0.0, 0.0, 0.0, 0.0, 0.0, 1.705451254567727E9, 0.0, 2024-01-16 19:27:34.567
16.0, -363.81746768951416, -362.1419925093651, -168.2655788064003, 15.797337412834167, -0.01600000075995922, -0.20800000987946987, 0.9760000463575125, 0.0, 0.0, 0.0, 0.0, 0.0, 1.705451254578446E9, 0.0, 2024-01-16 19:27:34.578
16.0, -330.54731768369675, -386.5560594201088, -192.91899931430817, -4.069011151790619, -0.01600000075995922, -0.20800000987946987, 0.9760000463575125, 0.0, 0.0, 0.0, 0.0, 0.0, 1.705451254578446E9, 0.0, 2024-01-16 19:27:34.578
17.0, -412.1668943166733, -381.52963387966156, -193.15835291147232, -100.0498036146164, -0.01600000075995922, -0.20800000987946987, 0.9760000463575125, 0.0, 0.0, 0.0, 0.0, 0.0, 1.7054512545938325E9, 0.0, 2024-01-16 19:27:34.593
17.0, -400.1992144584656, -373.3916115760803, -178.31842988729477, -27.286310076713562, -0.01600000075995922, -0.20800000987946987, 0.9760000463575125, 0.0, 0.0, 0.0, 0.0, 0.0, 1.7054512545938325E9, 0.0, 2024-01-16 19:27:34.593
18.0, -319.53705221414566, -376.5032083392143, -180.7119658589363, 24.653420507907867, -0.01600000075995922, -0.20800000987946987, 0.9760000463575125, 0.0, 0.0, 0.0, 0.0, 0.0, 1.7054512546093535E9, 0.0, 2024-01-16 19:27:34.609
18.0, -381.2902802824974, -386.79541301727295, -194.8338280916214, -77.0718582868576, -0.01600000075995922, -0.20800000987946987, 0.9760000463575125, 0.0, 0.0, 0.0, 0.0, 0.0, 1.7054512546093535E9, 0.0, 2024-01-16 19:27:34.609
19.0, -428.44293892383575, -378.6573907136917, -193.39770650863647, -71.32737195491791, -0.01600000075995922, -0.20800000987946987, 0.9760000463575125, 0.0, 0.0, 0.0, 0.0, 0.0, 1.705451254609912E9, 0.0, 2024-01-16 19:27:34.609
19.0, -342.2756439447403, -376.7425619363785, -180.95131945610046, 26.807602882385254, -0.01600000075995922, -0.20800000987946987, 0.9760000463575125, 0.0, 0.0, 0.0, 0.0, 0.0, 1.705451254609912E9, 0.0, 2024-01-16 19:27:34.609
20.0, -359.5091029405594, -396.60891050100327, -202.49314320087433, -52.897144973278046, -0.01600000075995922, -0.20800000987946987, 0.9920000471174717, 0.0, 0.0, 0.0, 0.0, 0.0, 1.7054512546233852E9, 0.0, 2024-01-16 19:27:34.623
20.0, -444.2402763366699, -388.94959539175034, -200.33896082639694, -106.03364354372025, -0.01600000075995922, -0.20800000987946987, 0.9920000471174717, 0.0, 0.0, 0.0, 0.0, 0.0, 1.7054512546233852E9, 0.0, 2024-01-16 19:27:34.623
21.0, -376.5032083392143, -383.9231698513031, -174.24941873550415, 10.05285108089447, -0.01600000075995922, -0.20800000987946987, 0.9920000471174717, 0.0, 0.0, 0.0, 0.0, 0.0, 1.7054512546392417E9, 0.0, 2024-01-16 19:27:34.639
21.0, -337.24921840429306, -396.8482640981674, -192.679645717144, -8.8560830950737, -0.01600000075995922, -0.20800000987946987, 0.9920000471174717, 0.0, 0.0, 0.0, 0.0, 0.0, 1.7054512546392417E9, 0.0, 2024-01-16 19:27:34.639
22.0, -419.8262094259262, -391.8218385577202, -199.38154643774033, -106.75170433521271, -0.01600000075995922, -0.20800000987946987, 0.9920000471174717, 0.0, 0.0, 0.0, 0.0, 0.0, 1.705451254639818E9, 0.0, 2024-01-16 19:27:34.639
22.0, -397.5663248896599, -378.41803711652756, -178.07907629013062, -28.722431659698486, -0.01600000075995922, -0.20800000987946987, 0.9920000471174717, 0.0, 0.0, 0.0, 0.0, 0.0, 1.705451254639818E9, 0.0, 2024-01-16 19:27:34.639
23.0, -324.5634777545929, -383.20510905981064, -192.44029211997986, 20.10570216178894, -0.01600000075995922, -0.20800000987946987, 0.9920000471174717, 0.0, 0.0, 0.0, 0.0, 0.0, 1.7054512546534882E9, 0.0, 2024-01-16 19:27:34.653
23.0, -392.7792529463768, -403.3108112215996, -206.3228007555008, -83.77375900745392, -0.01600000075995922, -0.20800000987946987, 0.9920000471174717, 0.0, 0.0, 0.0, 0.0, 0.0, 1.7054512546534882E9, 0.0, 2024-01-16 19:27:34.653
24.0, -435.6235468387604, -380.57221949100494, -191.48287773132324, -71.08801835775375, -0.01600000075995922, -0.20800000987946987, 0.9920000471174717, 0.0, 0.0, 0.0, 0.0, 0.0, 1.7054512546693192E9, 0.0, 2024-01-16 19:27:34.669
24.0, -332.46214646101, -373.6309651732445, -176.6429547071457, 34.466917991638184, -0.01600000075995922, -0.20800000987946987, 0.9920000471174717, 0.0, 0.0, 0.0, 0.0, 0.0, 1.7054512546693192E9, 0.0, 2024-01-16 19:27:34.669
25.0, -345.14788711071014, -386.0773522257805, -198.66348564624786, -40.92946511507034, -0.01600000075995922, -0.20800000987946987, 0.9920000471174717, 0.0, 0.0, 0.0, 0.0, 0.0, 1.7054512546698165E9, 0.0, 2024-01-16 19:27:34.669
25.0, -432.5119500756264, -383.20510905981064, -189.32869535684586, -94.3053172826767, -0.01600000075995922, -0.20800000987946987, 0.9920000471174717, 0.0, 0.0, 0.0, 0.0, 0.0, 1.7054512546698165E9, 0.0, 2024-01-16 19:27:34.669
26.0, -360.22716373205185, -359.9878101348877, -174.4887723326683, 13.643155038356781, -0.01600000075995922, -0.20800000987946987, 0.9920000471174717, 0.0, 0.0, 0.0, 0.0, 0.0, 1.7054512546833854E9, 0.0, 2024-01-16 19:27:34.683
26.0, -322.64864897727966, -384.16252344846725, -194.11576730012894, -4.787071943283081, -0.01600000075995922, -0.20800000987946987, 0.9920000471174717, 0.0, 0.0, 0.0, 0.0, 0.0, 1.7054512546833854E9, 0.0, 2024-01-16 19:27:34.683
27.0, -423.8952205777168, -398.5237392783165, -202.97185039520264, -104.83687555789948, -0.01600000075995922, -0.20800000987946987, 0.9920000471174717, 0.0, 0.0, 0.0, 0.0, 0.0, 1.705451254715599E9, 0.0, 2024-01-16 19:27:34.715
27.0, -406.1830543875694, -376.024501144886, -179.51519787311554, -23.69600611925125, -0.01600000075995922, -0.20800000987946987, 0.9920000471174717, 0.0, 0.0, 0.0, 0.0, 0.0, 1.705451254715599E9, 0.0, 2024-01-16 19:27:34.715
28.0, -315.94674825668335, -376.7425619363785, -190.28610974550247, 23.217298924922943, -0.01600000075995922, -0.20800000987946987, 0.9920000471174717, 0.0, 0.0, 0.0, 0.0, 0.0, 1.705451254716144E9, 0.0, 2024-01-16 19:27:34.716
28.0, -376.98191553354263, -388.470888197422, -193.63706010580063, -72.28478634357452, -0.01600000075995922, -0.20800000987946987, 0.9920000471174717, 0.0, 0.0, 0.0, 0.0, 0.0, 1.705451254716144E9, 0.0, 2024-01-16 19:27:34.716
29.0, -431.7938892841339, -380.57221949100494, -184.30226981639862, -65.34353202581406, -0.01600000075995922, -0.20800000987946987, 0.9920000471174717, 0.0, 0.0, 0.0, 0.0, 0.0, 1.7054512547168884E9, 0.0, 2024-01-16 19:27:34.716
29.0, -332.2227928638458, -367.8864788413048, -174.4887723326683, 34.466917991638184, -0.01600000075995922, -0.20800000987946987, 0.9920000471174717, 0.0, 0.0, 0.0, 0.0, 0.0, 1.7054512547168884E9, 0.0, 2024-01-16 19:27:34.716
30.0, -349.21689826250076, -388.2315346002579, -201.29637521505356, -40.69011151790619, -0.01600000075995922, -0.20800000987946987, 0.9920000471174717, 0.0, 0.0, 0.0, 0.0, 0.0, 1.7054512547176964E9, 0.0, 2024-01-16 19:27:34.717
30.0, -437.29902201890945, -385.11993783712387, -192.44029211997986, -93.34790289402008, -0.01600000075995922, -0.20800000987946987, 0.9920000471174717, 0.0, 0.0, 0.0, 0.0, 0.0, 1.7054512547176964E9, 0.0, 2024-01-16 19:27:34.717
31.0, -365.7322964668274, -363.57811409235, -175.44618672132492, 12.925094246864319, -0.01600000075995922, -0.20800000987946987, 0.9920000471174717, 0.0, 0.0, 0.0, 0.0, 0.0, 1.7054512547288778E9, 0.0, 2024-01-16 19:27:34.728
31.0, -333.4195608496666, -397.0876176953316, -197.4667176604271, -6.223193526268005, -0.01600000075995922, -0.20800000987946987, 0.9920000471174717, 0.0, 0.0, 0.0, 0.0, 0.0, 1.7054512547288778E9, 0.0, 2024-01-16 19:27:34.728
32.0, -420.54427021741867, -391.3431313633919, -188.6106345653534, -92.39048850536346, -0.03200000151991844, -0.20800000987946987, 0.9920000471174717, 0.0, 0.0, 0.0, 0.0, 0.0, 1.7054512547435036E9, 0.0, 2024-01-16 19:27:34.743
32.0, -410.25206553936005, -381.7689874768257, -179.99390506744385, -24.653420507907867, -0.03200000151991844, -0.20800000987946987, 0.9920000471174717, 0.0, 0.0, 0.0, 0.0, 0.0, 1.7054512547435036E9, 0.0, 2024-01-16 19:27:34.743
33.0, -325.9995993375778, -385.5986450314522, -189.32869535684586, 14.839923024177551, -0.03200000151991844, -0.20800000987946987, 0.9920000471174717, 0.0, 0.0, 0.0, 0.0, 0.0, 1.7054512547592509E9, 0.0, 2024-01-16 19:27:34.759
33.0, -383.68381625413895, -382.9657554626465, -203.92926478385925, -76.5931510925293, -0.03200000151991844, -0.20800000987946987, 0.9920000471174717, 0.0, 0.0, 0.0, 0.0, 0.0, 1.7054512547592509E9, 0.0, 2024-01-16 19:27:34.759
34.0, -433.9480716586113, -374.82773315906525, -185.9777449965477, -61.9925816655159, -0.03200000151991844, -0.20800000987946987, 0.9920000471174717, 0.0, 0.0, 0.0, 0.0, 0.0, 1.7054512547598479E9, 0.0, 2024-01-16 19:27:34.759
34.0, -348.73819106817245, -383.9231698513031, -181.90873384475708, 28.483078062534332, -0.03200000151991844, -0.20800000987946987, 0.9920000471174717, 0.0, 0.0, 0.0, 0.0, 0.0, 1.7054512547598479E9, 0.0, 2024-01-16 19:27:34.759
35.0, -355.2007381916046, -393.97602093219757, -200.33896082639694, -40.450757920742035, -0.03200000151991844, -0.20800000987946987, 0.9920000471174717, 0.0, 0.0, 0.0, 0.0, 0.0, 1.705451254773965E9, 0.0, 2024-01-16 19:27:34.773
35.0, -441.8467403650284, -385.5986450314522, -184.30226981639862, -92.15113490819931, -0.03200000151991844, -0.20800000987946987, 0.9920000471174717, 0.0, 0.0, 0.0, 0.0, 0.0, 1.705451254773965E9, 0.0, 2024-01-16 19:27:34.773
36.0, -376.024501144886, -376.024501144886, -179.27584427595139, 13.882508635520935, -0.03200000151991844, -0.20800000987946987, 0.9920000471174717, 0.0, 0.0, 0.0, 0.0, 0.0, 1.7054512547891035E9, 0.0, 2024-01-16 19:27:34.789
36.0, -325.76024574041367, -380.57221949100494, -191.48287773132324, 2.6328895688056946, -0.03200000151991844, -0.20800000987946987, 0.9920000471174717, 0.0, 0.0, 0.0, 0.0, 0.0, 1.7054512547891035E9, 0.0, 2024-01-16 19:27:34.789
37.0, -414.32107669115067, -376.5032083392143, -197.22736406326294, -95.26273167133331, -0.03200000151991844, -0.20800000987946987, 0.9920000471174717, 0.0, 0.0, 0.0, 0.0, 0.0, 1.705451254789827E9, 0.0, 2024-01-16 19:27:34.789
37.0, -403.0714576244354, -369.3226004242897, -180.47261226177216, -23.69600611925125, -0.03200000151991844, -0.20800000987946987, 0.9920000471174717, 0.0, 0.0, 0.0, 0.0, 0.0, 1.705451254789827E9, 0.0, 2024-01-16 19:27:34.789
38.0, -335.0950360298157, -390.38571697473526, -186.21709859371185, 21.30247014760971, -0.03200000151991844, -0.20800000987946987, 0.9920000471174717, 0.0, 0.0, 0.0, 0.0, 0.0, 1.7054512548034232E9, 0.0, 2024-01-16 19:27:34.803
38.0, -389.6676561832428, -397.80567848682404, -199.38154643774033, -76.11444389820099, -0.03200000151991844, -0.20800000987946987, 0.9920000471174717, 0.0, 0.0, 0.0, 0.0, 0.0, 1.7054512548034232E9, 0.0, 2024-01-16 19:27:34.803
39.0, -427.246170938015, -372.19484359025955, -179.99390506744385, -66.06159281730652, -0.03200000151991844, -0.20800000987946987, 0.9920000471174717, 0.0, 0.0, 0.0, 0.0, 0.0, 1.7054512548195188E9, 0.0, 2024-01-16 19:27:34.819
39.0, -339.6427543759346, -376.7425619363785, -179.27584427595139, 32.07338201999664, -0.03200000151991844, -0.20800000987946987, 0.9920000471174717, 0.0, 0.0, 0.0, 0.0, 0.0, 1.7054512548195188E9, 0.0, 2024-01-16 19:27:34.819
40.0, -347.5414230823517, -382.4870482683182, -205.60473996400833, -41.40817230939865, -0.03200000151991844, -0.20800000987946987, 0.9760000463575125, 0.0, 0.0, 0.0, 0.0, 0.0, 1.7054512548199341E9, 0.0, 2024-01-16 19:27:34.819
40.0, -428.2035853266716, -369.56195402145386, -194.59447449445724, -96.22014605998993, -0.03200000151991844, -0.20800000987946987, 0.9760000463575125, 0.0, 0.0, 0.0, 0.0, 0.0, 1.7054512548199341E9, 0.0, 2024-01-16 19:27:34.819
41.0, -376.98191553354263, -372.4341971874237, -176.40360110998154, 13.882508635520935, -0.03200000151991844, -0.20800000987946987, 0.9760000463575125, 0.0, 0.0, 0.0, 0.0, 0.0, 1.7054512548334012E9, 0.0, 2024-01-16 19:27:34.833
41.0, -331.02602487802505, -384.16252344846725, -188.84998816251755, 2.8722431659698486, -0.03200000151991844, -0.20800000987946987, 0.9760000463575125, 0.0, 0.0, 0.0, 0.0, 0.0, 1.7054512548334012E9, 0.0, 2024-01-16 19:27:34.833
42.0, -404.98628640174866, -375.0670867562294, -187.65322017669678, -89.75759893655777, -0.03200000151991844, -0.20800000987946987, 0.9760000463575125, 0.0, 0.0, 0.0, 0.0, 0.0, 1.7054512548491087E9, 0.0, 2024-01-16 19:27:34.849
42.0, -399.0024464726448, -365.01423567533493, -164.19656765460968, -14.839923024177551, -0.03200000151991844, -0.20800000987946987, 0.9760000463575125, 0.0, 0.0, 0.0, 0.0, 0.0, 1.7054512548491087E9, 0.0, 2024-01-16 19:27:34.849
43.0, -308.7661403417587, -367.6471252441406, -176.88230830430984, 39.49334353208542, -0.03200000151991844, -0.20800000987946987, 0.9760000463575125, 0.0, 0.0, 0.0, 0.0, 0.0, 1.705451254849816E9, 0.0, 2024-01-16 19:27:34.849
43.0, -364.5355284810066, -369.08324682712555, -196.50930327177048, -70.36995756626129, -0.03200000151991844, -0.20800000987946987, 0.9760000463575125, 0.0, 0.0, 0.0, 0.0, 0.0, 1.705451254849816E9, 0.0, 2024-01-16 19:27:34.849
44.0, -419.8262094259262, -363.81746768951416, -176.6429547071457, -61.753228068351746, -0.03200000151991844, -0.20800000987946987, 0.9760000463575125, 0.0, 0.0, 0.0, 0.0, 0.0, 1.7054512548636258E9, 0.0, 2024-01-16 19:27:34.863
44.0, -342.51499754190445, -373.6309651732445, -174.72812592983246, 42.12623310089111, -0.03200000151991844, -0.20800000987946987, 0.9760000463575125, 0.0, 0.0, 0.0, 0.0, 0.0, 1.7054512548636258E9, 0.0, 2024-01-16 19:27:34.863
45.0, -340.36081516742706, -378.6573907136917, -195.07318168878555, -30.397906839847565, -0.03200000151991844, -0.20800000987946987, 0.9760000463575125, 0.0, 0.0, 0.0, 0.0, 0.0, 1.705451254879802E9, 0.0, 2024-01-16 19:27:34.879
45.0, -427.00681734085083, -375.0670867562294, -181.43002665042877, -84.25246620178223, -0.03200000151991844, -0.20800000987946987, 0.9760000463575125, 0.0, 0.0, 0.0, 0.0, 0.0, 1.705451254879802E9, 0.0, 2024-01-16 19:27:34.879
46.0, -345.62659430503845, -353.7646166086197, -164.675274848938, 26.08954209089279, -0.03200000151991844, -0.20800000987946987, 0.9760000463575125, 0.0, 0.0, 0.0, 0.0, 0.0, 1.7054512548804846E9, 0.0, 2024-01-16 19:27:34.880
46.0, -310.9203227162361, -373.87031877040863, -174.4887723326683, 18.669580578804016, -0.03200000151991844, -0.20800000987946987, 0.9760000463575125, 0.0, 0.0, 0.0, 0.0, 0.0, 1.7054512548804846E9, 0.0, 2024-01-16 19:27:34.880
47.0, -404.2682256102562, -379.13609790802, -182.62679463624954, -79.94410145282745, -0.03200000151991844, -0.20800000987946987, 0.9760000463575125, 0.0, 0.0, 0.0, 0.0, 0.0, 1.705451254893623E9, 0.0, 2024-01-16 19:27:34.893
47.0, -393.2579601407051, -359.26974934339523, -173.05265074968338, -16.994105398654938, -0.03200000151991844, -0.20800000987946987, 0.9760000463575125, 0.0, 0.0, 0.0, 0.0, 0.0, 1.705451254893623E9, 0.0, 2024-01-16 19:27:34.893
48.0, -320.2551130056381, -376.024501144886, -190.52546334266663, 27.525663673877716, -0.03200000151991844, -0.20800000987946987, 0.9760000463575125, 0.0, 0.0, 0.0, 0.0, 0.0, 1.7054512549093132E9, 0.0, 2024-01-16 19:27:34.909
48.0, -380.3328658938408, -384.16252344846725, -202.73249679803848, -62.71064245700836, -0.03200000151991844, -0.20800000987946987, 0.9760000463575125, 0.0, 0.0, 0.0, 0.0, 0.0, 1.7054512549093132E9, 0.0, 2024-01-16 19:27:34.909
49.0, -427.7248781323433, -374.5883795619011, -176.40360110998154, -64.38611763715744, -0.03200000151991844, -0.20800000987946987, 0.9760000463575125, 0.0, 0.0, 0.0, 0.0, 0.0, 1.705451254910044E9, 0.0, 2024-01-16 19:27:34.910
49.0, -345.8659479022026, -388.7102417945862, -176.6429547071457, 34.466917991638184, -0.03200000151991844, -0.20800000987946987, 0.9760000463575125, 0.0, 0.0, 0.0, 0.0, 0.0, 1.705451254910044E9, 0.0, 2024-01-16 19:27:34.910
50.0, -348.25948387384415, -387.5134738087654, -191.00417053699493, -32.07338201999664, -0.03200000151991844, -0.20800000987946987, 0.9760000463575125, 0.0, 0.0, 0.0, 0.0, 0.0, 1.705451254923411E9, 0.0, 2024-01-16 19:27:34.923
50.0, -426.0494029521942, -375.78514754772186, -181.90873384475708, -86.88535577058792, -0.03200000151991844, -0.20800000987946987, 0.9760000463575125, 0.0, 0.0, 0.0, 0.0, 0.0, 1.705451254923411E9, 0.0, 2024-01-16 19:27:34.923
51.0, -365.01423567533493, -367.8864788413048, -168.50493240356445, 17.951519787311554, -0.03200000151991844, -0.20800000987946987, 0.9760000463575125, 0.0, 0.0, 0.0, 0.0, 0.0, 1.7054512549392917E9, 0.0, 2024-01-16 19:27:34.939
51.0, -313.0745050907135, -368.12583243846893, -180.95131945610046, 10.292204678058624, -0.03200000151991844, -0.20800000987946987, 0.9760000463575125, 0.0, 0.0, 0.0, 0.0, 0.0, 1.7054512549392917E9, 0.0, 2024-01-16 19:27:34.939
52.0, -416.47525906562805, -384.16252344846725, -196.26994967460632, -99.09238922595978, -0.03200000151991844, -0.20800000987946987, 0.9760000463575125, 0.0, 0.0, 0.0, 0.0, 0.0, 1.7054512549398735E9, 0.0, 2024-01-16 19:27:34.939
52.0, -394.69408172369003, -364.0568212866783, -173.5313579440117, -22.259884536266327, -0.03200000151991844, -0.20800000987946987, 0.9760000463575125, 0.0, 0.0, 0.0, 0.0, 0.0, 1.7054512549398735E9, 0.0, 2024-01-16 19:27:34.939
53.0, -300.38876444101334, -357.11556696891785, -173.29200434684753, 40.69011151790619, -0.03200000151991844, -0.20800000987946987, 0.9760000463575125, 0.0, 0.0, 0.0, 0.0, 0.0, 1.7054512549538376E9, 0.0, 2024-01-16 19:27:34.953
53.0, -365.49294286966324, -375.78514754772186, -182.14808744192123, -56.2480953335762, -0.03200000151991844, -0.20800000987946987, 0.9760000463575125, 0.0, 0.0, 0.0, 0.0, 0.0, 1.7054512549538376E9, 0.0, 2024-01-16 19:27:34.953
54.0, -403.0714576244354, -352.5678486227989, -171.8558827638626, -54.093912959098816, -0.03200000151991844, -0.20800000987946987, 0.9760000463575125, 0.0, 0.0, 0.0, 0.0, 0.0, 1.7054512549690711E9, 0.0, 2024-01-16 19:27:34.969
54.0, -330.54731768369675, -365.49294286966324, -170.65911477804184, 39.01463633775711, -0.03200000151991844, -0.20800000987946987, 0.9760000463575125, 0.0, 0.0, 0.0, 0.0, 0.0, 1.7054512549690711E9, 0.0, 2024-01-16 19:27:34.969
55.0, -332.70150005817413, -371.9554899930954, -192.2009385228157, -31.35532122850418, -0.03200000151991844, -0.20800000987946987, 0.9760000463575125, 0.0, 0.0, 0.0, 0.0, 0.0, 1.705451254969805E9, 0.0, 2024-01-16 19:27:34.969
55.0, -417.1933198571205, -363.0994068980217, -174.01006513834, -83.53440541028976, -0.03200000151991844, -0.20800000987946987, 0.9760000463575125, 0.0, 0.0, 0.0, 0.0, 0.0, 1.705451254969805E9, 0.0, 2024-01-16 19:27:34.969
56.0, -357.8336277604103, -354.243323802948, -158.69143491983414, 29.919199645519257, -0.03200000151991844, -0.20800000987946987, 0.9760000463575125, 0.0, 0.0, 0.0, 0.0, 0.0, 1.7054512549834936E9, 0.0, 2024-01-16 19:27:34.983
56.0, -314.5106266736984, -378.1786835193634, -181.43002665042877, 15.557983815670013, -0.03200000151991844, -0.20800000987946987, 0.9760000463575125, 0.0, 0.0, 0.0, 0.0, 0.0, 1.7054512549834936E9, 0.0, 2024-01-16 19:27:34.983
57.0, -411.20947992801666, -389.1889489889145, -190.52546334266663, -91.1937205195427, -0.03200000151991844, -0.20800000987946987, 0.9760000463575125, 0.0, 0.0, 0.0, 0.0, 0.0, 1.7054512549994776E9, 0.0, 2024-01-16 19:27:34.999
57.0, -397.5663248896599, -362.38134610652924, -173.5313579440117, -20.823762953281403, -0.03200000151991844, -0.20800000987946987, 0.9760000463575125, 0.0, 0.0, 0.0, 0.0, 0.0, 1.7054512549994776E9, 0.0, 2024-01-16 19:27:34.999
58.0, -310.4416155219078, -368.60453963279724, -185.02033060789108, 33.03079640865326, -0.03200000151991844, -0.20800000987946987, 0.9760000463575125, 0.0, 0.0, 0.0, 0.0, 0.0, 1.7054512549998622E9, 0.0, 2024-01-16 19:27:34.999
58.0, -371.9554899930954, -381.05092668533325, -205.60473996400833, -76.11444389820099, -0.03200000151991844, -0.20800000987946987, 0.9760000463575125, 0.0, 0.0, 0.0, 0.0, 0.0, 1.7054512549998622E9, 0.0, 2024-01-16 19:27:34.999
59.0, -419.58685582876205, -362.38134610652924, -177.6003690958023, -59.59904569387436, -0.03200000151991844, -0.20800000987946987, 0.9760000463575125, 0.0, 0.0, 0.0, 0.0, 0.0, 1.7054512550135226E9, 0.0, 2024-01-16 19:27:35.013
59.0, -333.8982680439949, -365.2535892724991, -175.20683312416077, 33.988210797309875, -0.03200000151991844, -0.20800000987946987, 0.9760000463575125, 0.0, 0.0, 0.0, 0.0, 0.0, 1.7054512550135226E9, 0.0, 2024-01-16 19:27:35.013
60.0, -351.37108063697815, -387.5134738087654, -198.90283924341202, -33.27015000581741, -0.03200000151991844, -0.20800000987946987, 0.9760000463575125, 0.0, 0.0, 0.0, 0.0, 0.0, 1.7054512550293853E9, 0.0, 2024-01-16 19:27:35.029
60.0, -437.5383756160736, -386.79541301727295, -194.11576730012894, -100.28915721178055, -0.03200000151991844, -0.20800000987946987, 0.9760000463575125, 0.0, 0.0, 0.0, 0.0, 0.0, 1.7054512550293853E9, 0.0, 2024-01-16 19:27:35.029
61.0, -377.93932992219925, -376.5032083392143, -173.29200434684753, 11.728326261043549, -0.03200000151991844, -0.20800000987946987, 0.9760000463575125, 0.0, 0.0, 0.0, 0.0, 0.0, 1.7054512550298724E9, 0.0, 2024-01-16 19:27:35.029
61.0, -313.31385868787766, -373.6309651732445, -189.32869535684586, 6.223193526268005, -0.03200000151991844, -0.20800000987946987, 0.9760000463575125, 0.0, 0.0, 0.0, 0.0, 0.0, 1.7054512550298724E9, 0.0, 2024-01-16 19:27:35.029
62.0, -404.02887201309204, -378.1786835193634, -197.70607125759125, -95.98079246282578, -0.03200000151991844, -0.20800000987946987, 0.9760000463575125, 0.0, 0.0, 0.0, 0.0, 0.0, 1.7054512550436587E9, 0.0, 2024-01-16 19:27:35.043
62.0, -399.72050726413727, -372.912904381752, -171.61652916669846, -24.414066910743713, -0.03200000151991844, -0.20800000987946987, 0.9760000463575125, 0.0, 0.0, 0.0, 0.0, 0.0, 1.7054512550436587E9, 0.0, 2024-01-16 19:27:35.043
63.0, -316.6648090481758, -374.1096723675728, -177.121661901474, 34.70627158880234, -0.03200000151991844, -0.20800000987946987, 0.9760000463575125, 0.0, 0.0, 0.0, 0.0, 0.0, 1.7054512550590491E9, 0.0, 2024-01-16 19:27:35.059
63.0, -378.41803711652756, -388.2315346002579, -200.5783144235611, -71.56672555208206, -0.03200000151991844, -0.20800000987946987, 0.9760000463575125, 0.0, 0.0, 0.0, 0.0, 0.0, 1.7054512550590491E9, 0.0, 2024-01-16 19:27:35.059
64.0, -425.5706957578659, -371.71613639593124, -177.83972269296646, -67.7370679974556, -0.03200000151991844, -0.20800000987946987, 0.9760000463575125, 0.0, 0.0, 0.0, 0.0, 0.0, 1.7054512550597737E9, 0.0, 2024-01-16 19:27:35.059
