%OpenBCI Raw EXG Data
%Number of channels = 4
%Sample Rate = 200 Hz
%Board = OpenBCI_GUI$BoardGanglionBLE
Sample Index, EXG Channel 0, EXG Channel 1, EXG Channel 2, EXG Channel 3, Accel Channel 0, Accel Channel 1, Accel Channel 2, Other, Other, Other, Other, Other, Timestamp, Other, Timestamp (Formatted)
0.0, -120.8735665678978, -602.2136504650116, -1909.562998175621, -227.38591730594635, 0.0, 0.0, 1.008000047877431, 0.0, 0.0, 0.0, 0.0, 0.0, 1.7075960722032943E9, 0.0, 2024-02-10 15:14:32.203
0.0, -171.13782197237015, -617.0535734891891, -1936.1312474608421, -230.97622126340866, 0.0, 0.0, 1.008000047877431, 0.0, 0.0, 0.0, 0.0, 0.0, 1.7075960722032943E9, 0.0, 2024-02-10 15:14:32.203
1.0, -73.24220073223114, -433.23001086711884, -1674.757119357586, -128.77223527431488, 0.0, -1.008000047877431, 1.008000047877431, 0.0, 0.0, 0.0, 0.0, 0.0, 1.7075960722179458E9, 0.0, 2024-02-10 15:14:32.217
1.0, -83.29505181312561, -536.8701184391975, -1801.8538794517517, -184.06291621923447, 0.0, -1.008000047877431, 1.008000047877431, 0.0, 0.0, 0.0, 0.0, 0.0, 1.7075960722179458E9, 0.0, 2024-02-10 15:14:32.217
2.0, -178.31842988729477, -648.4088947176933, -1976.34265178442, -252.75739860534668, -1.008000047877431, -1.008000047877431, 1.008000047877431, 0.0, 0.0, 0.0, 0.0, 0.0, 1.7075960722324116E9, 0.0, 2024-02-10 15:14:32.232
2.0, -120.39485937356949, -490.6748741865158, -1755.65863519907, -164.91462844610214, -1.008000047877431, -1.008000047877431, 1.008000047877431, 0.0, 0.0, 0.0, 0.0, 0.0, 1.7075960722324116E9, 0.0, 2024-02-10 15:14:32.232
3.0, -67.49771440029144, -474.87753677368164, -1728.3723251223564, -162.28173887729645, -1.008000047877431, -1.008000047877431, 1.008000047877431, 0.0, 0.0, 0.0, 0.0, 0.0, 1.7075960722331493E9, 0.0, 2024-02-10 15:14:32.233
3.0, -160.12755650281906, -656.3075634241104, -1983.0445525050163, -269.2727968096733, -1.008000047877431, -1.008000047877431, 1.008000047877431, 0.0, 0.0, 0.0, 0.0, 0.0, 1.7075960722331493E9, 0.0, 2024-02-10 15:14:32.233
4.0, -162.9997996687889, -576.8421691656113, -1869.112240254879, -213.98211586475372, -1.008000047877431, -1.008000047877431, 1.008000047877431, 0.0, 0.0, 0.0, 0.0, 0.0, 1.7075960722467968E9, 0.0, 2024-02-10 15:14:32.246
4.0, -66.54030001163483, -443.52221554517746, -1689.3576887845993, -146.00569427013397, -1.008000047877431, -1.008000047877431, 1.008000047877431, 0.0, 0.0, 0.0, 0.0, 0.0, 1.7075960722467968E9, 0.0, 2024-02-10 15:14:32.246
5.0, -130.2083568572998, -606.5220152139664, -1899.2707934975624, -233.60911083221436, -1.008000047877431, -1.008000047877431, 1.008000047877431, 0.0, 0.0, 0.0, 0.0, 0.0, 1.7075960722629411E9, 0.0, 2024-02-10 15:14:32.262
5.0, -174.01006513834, -619.4471094608307, -1936.8493082523346, -238.15682917833328, -1.008000047877431, -1.008000047877431, 1.008000047877431, 0.0, 0.0, 0.0, 0.0, 0.0, 1.7075960722629411E9, 0.0, 2024-02-10 15:14:32.262
6.0, -89.75759893655777, -450.7028234601021, -1703.7189046144485, -141.93668311834335, -1.008000047877431, -1.008000047877431, 1.008000047877431, 0.0, 0.0, 0.0, 0.0, 0.0, 1.7075960722631905E9, 0.0, 2024-02-10 15:14:32.263
6.0, -85.9279413819313, -512.4560515284538, -1765.2327790856361, -174.4887723326683, -1.008000047877431, -1.008000047877431, 1.008000047877431, 0.0, 0.0, 0.0, 0.0, 0.0, 1.7075960722631905E9, 0.0, 2024-02-10 15:14:32.263
7.0, -146.9631086587906, -607.0007224082947, -1897.5953183174133, -231.45492845773697, -1.008000047877431, -1.008000047877431, 1.008000047877431, 0.0, 0.0, 0.0, 0.0, 0.0, 1.7075960722771049E9, 0.0, 2024-02-10 15:14:32.277
7.0, -116.56520181894302, -528.0140353441238, -1802.33258664608, -182.8661482334137, -1.008000047877431, -1.008000047877431, 1.008000047877431, 0.0, 0.0, 0.0, 0.0, 0.0, 1.7075960722771049E9, 0.0, 2024-02-10 15:14:32.277
8.0, -100.28915721178055, -517.9611842632294, -1775.764337360859, -174.01006513834, -1.008000047877431, -1.008000047877431, 1.008000047877431, 0.0, 0.0, 0.0, 0.0, 0.0, 1.7075960722927766E9, 0.0, 2024-02-10 15:14:32.292
8.0, -148.87793743610382, -595.9904569387436, -1887.0637600421906, -214.93953025341034, -1.008000047877431, -1.008000047877431, 1.008000047877431, 0.0, 0.0, 0.0, 0.0, 0.0, 1.7075960722927766E9, 0.0, 2024-02-10 15:14:32.292
9.0, -134.03801441192627, -556.4971134066582, -1843.2620517611504, -199.86025363206863, -1.008000047877431, -1.008000047877431, 1.008000047877431, 0.0, 0.0, 0.0, 0.0, 0.0, 1.7075960722931864E9, 0.0, 2024-02-10 15:14:32.293
9.0, -89.03953814506531, -494.7438853383064, -1762.1211823225021, -166.82945722341537, -1.008000047877431, -1.008000047877431, 1.008000047877431, 0.0, 0.0, 0.0, 0.0, 0.0, 1.7075960722931864E9, 0.0, 2024-02-10 15:14:32.293
10.0, -128.05417448282242, -568.9435004591942, -1851.1607204675674, -208.47698312997818, -1.008000047877431, -1.008000047877431, 0.6240000296384096, 0.0, 0.0, 0.0, 0.0, 0.0, 1.7075960723399715E9, 0.0, 2024-02-10 15:14:32.339
10.0, -147.9205230474472, -583.3047162890434, -1877.2502625584602, -212.5459942817688, -1.008000047877431, -1.008000047877431, 0.6240000296384096, 0.0, 0.0, 0.0, 0.0, 0.0, 1.7075960723399715E9, 0.0, 2024-02-10 15:14:32.339
11.0, -92.39048850536346, -496.8980677127838, -1759.7276463508606, -166.1113964319229, -1.008000047877431, -0.6240000296384096, 0.6240000296384096, 0.0, 0.0, 0.0, 0.0, 0.0, 1.7075960723403337E9, 0.0, 2024-02-10 15:14:32.340
11.0, -112.4961906671524, -530.8862785100937, -1810.231255352497, -193.15835291147232, -1.008000047877431, -0.6240000296384096, 0.6240000296384096, 0.0, 0.0, 0.0, 0.0, 0.0, 1.7075960723403337E9, 0.0, 2024-02-10 15:14:32.340
12.0, -156.7766061425209, -600.0594680905342, -1896.8772575259209, -223.55625975131989, -0.6240000296384096, -0.6240000296384096, 0.6240000296384096, 0.0, 0.0, 0.0, 0.0, 0.0, 1.7075960723411148E9, 0.0, 2024-02-10 15:14:32.341
12.0, -116.80455541610718, -530.6469249129295, -1812.1460841298103, -189.32869535684586, -0.6240000296384096, -0.6240000296384096, 0.6240000296384096, 0.0, 0.0, 0.0, 0.0, 0.0, 1.7075960723411148E9, 0.0, 2024-02-10 15:14:32.341
13.0, -104.59752196073532, -518.4398914575577, -1783.4236524701118, -176.16424751281738, -0.6240000296384096, -0.6240000296384096, 0.6240000296384096, 0.0, 0.0, 0.0, 0.0, 0.0, 1.7075960723417728E9, 0.0, 2024-02-10 15:14:32.341
13.0, -160.36691009998322, -605.8039544224739, -1892.8082463741302, -229.54009968042374, -0.6240000296384096, -0.6240000296384096, 0.6240000296384096, 0.0, 0.0, 0.0, 0.0, 0.0, 1.7075960723417728E9, 0.0, 2024-02-10 15:14:32.341
14.0, -139.0644399523735, -565.3531965017319, -1842.783344566822, -201.29637521505356, -0.6240000296384096, -0.6240000296384096, 0.6240000296384096, 0.0, 0.0, 0.0, 0.0, 0.0, 1.7075960723524425E9, 0.0, 2024-02-10 15:14:32.352
14.0, -101.72527879476547, -510.0625155568123, -1764.5147182941437, -183.10550183057785, -0.6240000296384096, -0.6240000296384096, 0.6240000296384096, 0.0, 0.0, 0.0, 0.0, 0.0, 1.7075960723524425E9, 0.0, 2024-02-10 15:14:32.352
15.0, -139.30379354953766, -576.8421691656113, -1855.4690852165222, -216.37565183639526, -0.6240000296384096, -0.6240000296384096, 0.6240000296384096, 0.0, 0.0, 0.0, 0.0, 0.0, 1.7075960723533738E9, 0.0, 2024-02-10 15:14:32.353
15.0, -153.6650093793869, -587.6130810379982, -1874.1386657953262, -212.78534787893295, -0.6240000296384096, -0.6240000296384096, 0.6240000296384096, 0.0, 0.0, 0.0, 0.0, 0.0, 1.7075960723533738E9, 0.0, 2024-02-10 15:14:32.353
16.0, -106.03364354372025, -513.1741123199463, -1771.4559726119041, -174.24941873550415, -0.6240000296384096, -0.6240000296384096, 0.6240000296384096, 0.0, 0.0, 0.0, 0.0, 0.0, 1.7075960723667853E9, 0.0, 2024-02-10 15:14:32.366
16.0, -124.46387052536011, -548.3590911030769, -1813.8215593099594, -196.03059607744217, -0.6240000296384096, -0.6240000296384096, 0.6240000296384096, 0.0, 0.0, 0.0, 0.0, 0.0, 1.7075960723667853E9, 0.0, 2024-02-10 15:14:32.366
17.0, -165.39333564043045, -614.4206839203835, -1898.0740255117416, -226.42850291728973, -0.6240000296384096, -0.6240000296384096, 0.6240000296384096, 0.0, 0.0, 0.0, 0.0, 0.0, 1.7075960723824384E9, 0.0, 2024-02-10 15:14:32.382
17.0, -121.59162735939026, -537.1094720363617, -1800.4177578687668, -183.8235626220703, -0.6240000296384096, -0.6240000296384096, 0.6240000296384096, 0.0, 0.0, 0.0, 0.0, 0.0, 1.7075960723824384E9, 0.0, 2024-02-10 15:14:32.382
18.0, -113.45360505580902, -523.2269634008408, -1779.115287721157, -185.25968420505524, -0.6240000296384096, -0.6240000296384096, 0.6240000296384096, 0.0, 0.0, 0.0, 0.0, 0.0, 1.7075960723831701E9, 0.0, 2024-02-10 15:14:32.383
18.0, -151.0321198105812, -587.373727440834, -1878.6863841414452, -221.64143097400665, -0.6240000296384096, -0.6240000296384096, 0.6240000296384096, 0.0, 0.0, 0.0, 0.0, 0.0, 1.7075960723831701E9, 0.0, 2024-02-10 15:14:32.383
19.0, -139.30379354953766, -562.480953335762, -1837.996272623539, -204.40797197818756, -0.6240000296384096, -0.6240000296384096, 0.6240000296384096, 0.0, 0.0, 0.0, 0.0, 0.0, 1.7075960723969867E9, 0.0, 2024-02-10 15:14:32.396
19.0, -102.20398598909378, -502.40320044755936, -1756.3766959905624, -170.18040758371353, -0.6240000296384096, -0.6240000296384096, 0.6240000296384096, 0.0, 0.0, 0.0, 0.0, 0.0, 1.7075960723969867E9, 0.0, 2024-02-10 15:14:32.396
20.0, -137.14961117506027, -567.5073788762093, -1842.543990969658, -202.97185039520264, -0.6240000296384096, -0.6240000296384096, 0.8160000387579203, 0.0, 0.0, 0.0, 0.0, 0.0, 1.7075960724125025E9, 0.0, 2024-02-10 15:14:32.412
20.0, -151.75018060207367, -584.5014842748642, -1867.676118671894, -212.0672870874405, -0.6240000296384096, -0.6240000296384096, 0.8160000387579203, 0.0, 0.0, 0.0, 0.0, 0.0, 1.7075960724125025E9, 0.0, 2024-02-10 15:14:32.412
21.0, -108.18782591819763, -514.1315267086029, -1773.8495085835457, -182.3874410390854, -0.6240000296384096, -0.8160000387579203, 0.8160000387579203, 0.0, 0.0, 0.0, 0.0, 0.0, 1.707596072413161E9, 0.0, 2024-02-10 15:14:32.413
21.0, -124.70322412252426, -549.0771518945694, -1829.8582503199577, -203.2112039923668, -0.6240000296384096, -0.8160000387579203, 0.8160000387579203, 0.0, 0.0, 0.0, 0.0, 0.0, 1.707596072413161E9, 0.0, 2024-02-10 15:14:32.413
22.0, -160.12755650281906, -594.7936889529228, -1895.2017823457718, -237.67812198400497, -0.8160000387579203, -0.8160000387579203, 0.8160000387579203, 0.0, 0.0, 0.0, 0.0, 0.0, 1.7075960724268787E9, 0.0, 2024-02-10 15:14:32.426
22.0, -122.78839534521103, -537.3488256335258, -1804.4867690205574, -194.59447449445724, -0.8160000387579203, -0.8160000387579203, 0.8160000387579203, 0.0, 0.0, 0.0, 0.0, 0.0, 1.7075960724268787E9, 0.0, 2024-02-10 15:14:32.426
23.0, -109.62394750118256, -527.5353281497955, -1787.9713708162308, -184.54162341356277, -0.8160000387579203, -0.8160000387579203, 0.8160000387579203, 0.0, 0.0, 0.0, 0.0, 0.0, 1.7075960724424253E9, 0.0, 2024-02-10 15:14:32.442
23.0, -152.70759499073029, -591.2033849954605, -1894.2443679571152, -230.01880687475204, -0.8160000387579203, -0.8160000387579203, 0.8160000387579203, 0.0, 0.0, 0.0, 0.0, 0.0, 1.7075960724424253E9, 0.0, 2024-02-10 15:14:32.442
24.0, -135.4741359949112, -552.6674558520317, -1845.1768805384636, -209.9131047129631, -0.8160000387579203, -0.8160000387579203, 0.8160000387579203, 0.0, 0.0, 0.0, 0.0, 0.0, 1.707596072443133E9, 0.0, 2024-02-10 15:14:32.443
24.0, -100.5285108089447, -506.9509187936783, -1774.0888621807098, -174.01006513834, -0.8160000387579203, -0.8160000387579203, 0.8160000387579203, 0.0, 0.0, 0.0, 0.0, 0.0, 1.707596072443133E9, 0.0, 2024-02-10 15:14:32.443
25.0, -147.68116945028305, -585.9376058578491, -1860.7348643541336, -220.20530939102173, -0.8160000387579203, -0.8160000387579203, 0.8160000387579203, 0.0, 0.0, 0.0, 0.0, 0.0, 1.7075960724571953E9, 0.0, 2024-02-10 15:14:32.457
25.0, -158.9307885169983, -593.3575673699379, -1878.2076769471169, -228.58268529176712, -0.8160000387579203, -0.8160000387579203, 0.8160000387579203, 0.0, 0.0, 0.0, 0.0, 0.0, 1.7075960724571953E9, 0.0, 2024-02-10 15:14:32.457
26.0, -109.14524030685425, -514.1315267086029, -1781.2694700956345, -181.90873384475708, -0.8160000387579203, -0.8160000387579203, 0.8160000387579203, 0.0, 0.0, 0.0, 0.0, 0.0, 1.70759607247289E9, 0.0, 2024-02-10 15:14:32.472
26.0, -120.8735665678978, -546.922969520092, -1816.454448878765, -199.38154643774033, -0.8160000387579203, -0.8160000387579203, 0.8160000387579203, 0.0, 0.0, 0.0, 0.0, 0.0, 1.70759607247289E9, 0.0, 2024-02-10 15:14:32.472
27.0, -160.60626369714737, -599.1020537018776, -1893.2869535684586, -228.1039780974388, -0.8160000387579203, -0.8160000387579203, 0.8160000387579203, 0.0, 0.0, 0.0, 0.0, 0.0, 1.7075960724732363E9, 0.0, 2024-02-10 15:14:32.473
27.0, -116.32584822177887, -530.1682177186012, -1799.4603434801102, -180.95131945610046, -0.8160000387579203, -0.8160000387579203, 0.8160000387579203, 0.0, 0.0, 0.0, 0.0, 0.0, 1.7075960724732363E9, 0.0, 2024-02-10 15:14:32.473
28.0, -104.35816836357117, -515.5676482915878, -1783.1842988729477, -186.21709859371185, -0.8160000387579203, -0.8160000387579203, 0.8160000387579203, 0.0, 0.0, 0.0, 0.0, 0.0, 1.7075960724868376E9, 0.0, 2024-02-10 15:14:32.486
28.0, -156.05854535102844, -598.6233465075493, -1881.0799201130867, -219.00854140520096, -0.8160000387579203, -0.8160000387579203, 0.8160000387579203, 0.0, 0.0, 0.0, 0.0, 0.0, 1.7075960724868376E9, 0.0, 2024-02-10 15:14:32.486
29.0, -145.76634067296982, -562.7203069329262, -1845.4162341356277, -198.4241320490837, -0.8160000387579203, -0.8160000387579203, 0.8160000387579203, 0.0, 0.0, 0.0, 0.0, 0.0, 1.7075960725026941E9, 0.0, 2024-02-10 15:14:32.502
29.0, -100.28915721178055, -511.25928354263306, -1767.6263150572777, -173.05265074968338, -0.8160000387579203, -0.8160000387579203, 0.8160000387579203, 0.0, 0.0, 0.0, 0.0, 0.0, 1.7075960725026941E9, 0.0, 2024-02-10 15:14:32.502
30.0, -137.14961117506027, -570.3796220421791, -1852.5968420505524, -209.19504392147064, -0.8160000387579203, -0.8160000387579203, 0.9120000433176756, 0.0, 0.0, 0.0, 0.0, 0.0, 1.7075960725032403E9, 0.0, 2024-02-10 15:14:32.503
30.0, -150.79276621341705, -585.698252260685, -1877.9683233499527, -216.1362982392311, -0.8160000387579203, -0.8160000387579203, 0.9120000433176756, 0.0, 0.0, 0.0, 0.0, 0.0, 1.7075960725032403E9, 0.0, 2024-02-10 15:14:32.503
31.0, -107.23041152954102, -509.3444547653198, -1777.2004589438438, -178.31842988729477, -0.8160000387579203, -0.9120000433176756, 0.9120000433176756, 0.0, 0.0, 0.0, 0.0, 0.0, 1.7075960725171657E9, 0.0, 2024-02-10 15:14:32.517
31.0, -127.33611369132996, -552.9068094491959, -1815.2576808929443, -192.679645717144, -0.8160000387579203, -0.9120000433176756, 0.9120000433176756, 0.0, 0.0, 0.0, 0.0, 0.0, 1.7075960725171657E9, 0.0, 2024-02-10 15:14:32.517
32.0, -160.12755650281906, -602.2136504650116, -1894.7230751514435, -222.59884536266327, -0.9120000433176756, -0.9120000433176756, 0.9120000433176756, 0.0, 0.0, 0.0, 0.0, 0.0, 1.7075960725324037E9, 0.0, 2024-02-10 15:14:32.532
32.0, -119.43744498491287, -526.0992065668106, -1805.444183409214, -185.4990378022194, -0.9120000433176756, -0.9120000433176756, 0.9120000433176756, 0.0, 0.0, 0.0, 0.0, 0.0, 1.7075960725324037E9, 0.0, 2024-02-10 15:14:32.532
33.0, -115.60778743028641, -531.1256321072578, -1788.9287852048874, -181.66938024759293, -0.9120000433176756, -0.9120000433176756, 0.9120000433176756, 0.0, 0.0, 0.0, 0.0, 0.0, 1.7075960725331273E9, 0.0, 2024-02-10 15:14:32.533
33.0, -154.38307017087936, -601.4955896735191, -1890.4147104024887, -230.49751406908035, -0.9120000433176756, -0.9120000433176756, 0.9120000433176756, 0.0, 0.0, 0.0, 0.0, 0.0, 1.7075960725331273E9, 0.0, 2024-02-10 15:14:32.533
34.0, -123.9851633310318, -552.6674558520317, -1834.884675860405, -197.70607125759125, -0.9120000433176756, -0.9120000433176756, 0.9120000433176756, 0.0, 0.0, 0.0, 0.0, 0.0, 1.7075960725467484E9, 0.0, 2024-02-10 15:14:32.546
34.0, -86.64600217342377, -504.3180292248726, -1769.3017902374268, -178.79713708162308, -0.9120000433176756, -0.9120000433176756, 0.9120000433176756, 0.0, 0.0, 0.0, 0.0, 0.0, 1.7075960725467484E9, 0.0, 2024-02-10 15:14:32.546
35.0, -120.39485937356949, -562.7203069329262, -1852.8361956477165, -218.7691878080368, -0.9120000433176756, -0.9120000433176756, 0.9120000433176756, 0.0, 0.0, 0.0, 0.0, 0.0, 1.7075960725624416E9, 0.0, 2024-02-10 15:14:32.562
35.0, -135.71348959207535, -578.2782907485962, -1879.6437985301018, -224.75302773714066, -0.9120000433176756, -0.9120000433176756, 0.9120000433176756, 0.0, 0.0, 0.0, 0.0, 0.0, 1.7075960725624416E9, 0.0, 2024-02-10 15:14:32.562
36.0, -85.9279413819313, -499.77031087875366, -1777.6791661381721, -179.03649067878723, -0.9120000433176756, -0.9120000433176756, 0.9120000433176756, 0.0, 0.0, 0.0, 0.0, 0.0, 1.7075960725631776E9, 0.0, 2024-02-10 15:14:32.563
36.0, -102.44333958625793, -542.6146047711372, -1809.991901755333, -190.28610974550247, -0.9120000433176756, -0.9120000433176756, 0.9120000433176756, 0.0, 0.0, 0.0, 0.0, 0.0, 1.7075960725631776E9, 0.0, 2024-02-10 15:14:32.563
37.0, -141.2186223268509, -592.8788601756096, -1897.3559647202492, -231.45492845773697, -0.9120000433176756, -0.9120000433176756, 0.9120000433176756, 0.0, 0.0, 0.0, 0.0, 0.0, 1.7075960725767968E9, 0.0, 2024-02-10 15:14:32.576
37.0, -108.42717951536179, -538.7849472165108, -1803.0506474375725, -189.0893417596817, -0.9120000433176756, -0.9120000433176756, 0.9120000433176756, 0.0, 0.0, 0.0, 0.0, 0.0, 1.7075960725767968E9, 0.0, 2024-02-10 15:14:32.576
38.0, -95.74143886566162, -518.6792450547218, -1778.3972269296646, -181.43002665042877, -0.9120000433176756, -0.9120000433176756, 0.9120000433176756, 0.0, 0.0, 0.0, 0.0, 0.0, 1.7075960725923932E9, 0.0, 2024-02-10 15:14:32.592
38.0, -144.8089262843132, -590.0066170096397, -1883.9521632790565, -224.75302773714066, -0.9120000433176756, -0.9120000433176756, 0.9120000433176756, 0.0, 0.0, 0.0, 0.0, 0.0, 1.7075960725923932E9, 0.0, 2024-02-10 15:14:32.592
39.0, -125.89999210834503, -556.7364670038223, -1846.3736485242844, -207.04086154699326, -0.9120000433176756, -0.9120000433176756, 0.9120000433176756, 0.0, 0.0, 0.0, 0.0, 0.0, 1.7075960725931258E9, 0.0, 2024-02-10 15:14:32.593
39.0, -89.51824533939362, -499.0522500872612, -1765.9508398771286, -175.92489391565323, -0.9120000433176756, -0.9120000433176756, 0.9120000433176756, 0.0, 0.0, 0.0, 0.0, 0.0, 1.7075960725931258E9, 0.0, 2024-02-10 15:14:32.593
40.0, -121.3522737622261, -561.5235389471054, -1850.6820132732391, -208.23762953281403, -0.9120000433176756, -0.9120000433176756, 0.9600000455975533, 0.0, 0.0, 0.0, 0.0, 0.0, 1.7075960726072128E9, 0.0, 2024-02-10 15:14:32.607
40.0, -131.88383203744888, -573.0125116109848, -1863.6071075201035, -201.77508240938187, -0.9120000433176756, -0.9120000433176756, 0.9600000455975533, 0.0, 0.0, 0.0, 0.0, 0.0, 1.7075960726072128E9, 0.0, 2024-02-10 15:14:32.607
41.0, -91.91178131103516, -501.44578605890274, -1774.328215777874, -175.44618672132492, -0.9120000433176756, -0.9600000455975533, 0.9600000455975533, 0.0, 0.0, 0.0, 0.0, 0.0, 1.7075960726226828E9, 0.0, 2024-02-10 15:14:32.622
41.0, -105.07622915506363, -534.476582467556, -1814.778973698616, -200.33896082639694, -0.9120000433176756, -0.9600000455975533, 0.9600000455975533, 0.0, 0.0, 0.0, 0.0, 0.0, 1.7075960726226828E9, 0.0, 2024-02-10 15:14:32.622
42.0, -146.00569427013397, -587.8524346351624, -1890.1753568053246, -228.34333169460297, -0.9600000455975533, -0.9600000455975533, 0.9600000455975533, 0.0, 0.0, 0.0, 0.0, 0.0, 1.7075960726233058E9, 0.0, 2024-02-10 15:14:32.623
42.0, -107.70911872386932, -535.4339968562126, -1797.0668075084686, -185.25968420505524, -0.9600000455975533, -0.9600000455975533, 0.9600000455975533, 0.0, 0.0, 0.0, 0.0, 0.0, 1.7075960726233058E9, 0.0, 2024-02-10 15:14:32.623
43.0, -95.26273167133331, -521.3121346235275, -1779.8333485126495, -173.5313579440117, -0.9600000455975533, -0.9600000455975533, 0.9600000455975533, 0.0, 0.0, 0.0, 0.0, 0.0, 1.7075960726372695E9, 0.0, 2024-02-10 15:14:32.637
43.0, -140.02185434103012, -586.8950202465057, -1880.12250572443, -220.68401658535004, -0.9600000455975533, -0.9600000455975533, 0.9600000455975533, 0.0, 0.0, 0.0, 0.0, 0.0, 1.7075960726372695E9, 0.0, 2024-02-10 15:14:32.637
44.0, -119.91615217924118, -554.1035774350166, -1844.4588197469711, -205.60473996400833, -0.9600000455975533, -0.9600000455975533, 0.9600000455975533, 0.0, 0.0, 0.0, 0.0, 0.0, 1.7075960726528547E9, 0.0, 2024-02-10 15:14:32.652
44.0, -81.61957663297653, -501.92449325323105, -1769.3017902374268, -175.92489391565323, -0.9600000455975533, -0.9600000455975533, 0.9600000455975533, 0.0, 0.0, 0.0, 0.0, 0.0, 1.7075960726528547E9, 0.0, 2024-02-10 15:14:32.652
45.0, -131.64447844028473, -567.2680252790451, -1855.4690852165222, -212.5459942817688, -0.9600000455975533, -0.9600000455975533, 0.9600000455975533, 0.0, 0.0, 0.0, 0.0, 0.0, 1.7075960726532412E9, 0.0, 2024-02-10 15:14:32.653
45.0, -130.2083568572998, -570.6189756393433, -1863.6071075201035, -208.47698312997818, -0.9600000455975533, -0.9600000455975533, 0.9600000455975533, 0.0, 0.0, 0.0, 0.0, 0.0, 1.7075960726532412E9, 0.0, 2024-02-10 15:14:32.653
46.0, -92.62984210252762, -502.40320044755936, -1770.7379118204117, -173.5313579440117, -0.9600000455975533, -0.9600000455975533, 0.9600000455975533, 0.0, 0.0, 0.0, 0.0, 0.0, 1.7075960726666791E9, 0.0, 2024-02-10 15:14:32.666
46.0, -106.75170433521271, -534.2372288703918, -1815.2576808929443, -193.39770650863647, -0.9600000455975533, -0.9600000455975533, 0.9600000455975533, 0.0, 0.0, 0.0, 0.0, 0.0, 1.7075960726666791E9, 0.0, 2024-02-10 15:14:32.666
47.0, -148.87793743610382, -592.6395065784454, -1891.1327711939812, -223.31690615415573, -0.9600000455975533, -0.9600000455975533, 0.9600000455975533, 0.0, 0.0, 0.0, 0.0, 0.0, 1.707596072682488E9, 0.0, 2024-02-10 15:14:32.682
47.0, -108.18782591819763, -525.6204993724823, -1805.9228906035423, -181.19067305326462, -0.9600000455975533, -0.9600000455975533, 0.9600000455975533, 0.0, 0.0, 0.0, 0.0, 0.0, 1.707596072682488E9, 0.0, 2024-02-10 15:14:32.682
48.0, -101.00721800327301, -516.5250626802444, -1787.2533100247383, -180.7119658589363, -0.9600000455975533, -0.9600000455975533, 0.9600000455975533, 0.0, 0.0, 0.0, 0.0, 0.0, 1.707596072683215E9, 0.0, 2024-02-10 15:14:32.683
48.0, -151.0321198105812, -586.1769594550133, -1879.6437985301018, -216.85435903072357, -0.9600000455975533, -0.9600000455975533, 0.9600000455975533, 0.0, 0.0, 0.0, 0.0, 0.0, 1.707596072683215E9, 0.0, 2024-02-10 15:14:32.683
49.0, -126.13934570550919, -550.5132734775543, -1842.0652837753296, -201.29637521505356, -0.9600000455975533, -0.9600000455975533, 0.9600000455975533, 0.0, 0.0, 0.0, 0.0, 0.0, 1.7075960726969004E9, 0.0, 2024-02-10 15:14:32.696
49.0, -82.337637424469, -494.7438853383064, -1760.206353545189, -167.786871612072, -0.9600000455975533, -0.9600000455975533, 0.9600000455975533, 0.0, 0.0, 0.0, 0.0, 0.0, 1.7075960726969004E9, 0.0, 2024-02-10 15:14:32.696
50.0, -116.32584822177887, -549.3165054917336, -1840.1504549980164, -199.38154643774033, -0.9600000455975533, -0.9600000455975533, 0.9920000471174717, 0.0, 0.0, 0.0, 0.0, 0.0, 1.7075960727124867E9, 0.0, 2024-02-10 15:14:32.712
50.0, -140.02185434103012, -572.2944508194923, -1863.6071075201035, -203.92926478385925, -0.9600000455975533, -0.9600000455975533, 0.9920000471174717, 0.0, 0.0, 0.0, 0.0, 0.0, 1.7075960727124867E9, 0.0, 2024-02-10 15:14:32.712
51.0, -89.03953814506531, -502.1638468503952, -1764.7540718913078, -163.71786046028137, -0.9600000455975533, -0.9920000471174717, 0.9920000471174717, 0.0, 0.0, 0.0, 0.0, 0.0, 1.7075960727131436E9, 0.0, 2024-02-10 15:14:32.713
51.0, -112.25683706998825, -539.2636544108391, -1812.1460841298103, -190.28610974550247, -0.9600000455975533, -0.9920000471174717, 0.9920000471174717, 0.0, 0.0, 0.0, 0.0, 0.0, 1.7075960727131436E9, 0.0, 2024-02-10 15:14:32.713
52.0, -147.9205230474472, -591.4427385926247, -1886.106345653534, -217.09371262788773, -0.9920000471174717, -0.9920000471174717, 0.9920000471174717, 0.0, 0.0, 0.0, 0.0, 0.0, 1.70759607272676E9, 0.0, 2024-02-10 15:14:32.726
52.0, -103.6401075720787, -521.5514882206917, -1795.3913323283195, -179.27584427595139, -0.9920000471174717, -0.9920000471174717, 0.9920000471174717, 0.0, 0.0, 0.0, 0.0, 0.0, 1.70759607272676E9, 0.0, 2024-02-10 15:14:32.726
53.0, -91.91178131103516, -515.5676482915878, -1784.8597740530968, -182.8661482334137, -0.9920000471174717, -0.9920000471174717, 0.9920000471174717, 0.0, 0.0, 0.0, 0.0, 0.0, 1.7075960727423687E9, 0.0, 2024-02-10 15:14:32.742
53.0, -142.41539031267166, -579.7144123315811, -1886.5850528478622, -216.61500543355942, -0.9920000471174717, -0.9920000471174717, 0.9920000471174717, 0.0, 0.0, 0.0, 0.0, 0.0, 1.7075960727423687E9, 0.0, 2024-02-10 15:14:32.742
54.0, -127.33611369132996, -546.4442623257637, -1845.655587732792, -195.79124248027802, -0.9920000471174717, -0.9920000471174717, 0.9920000471174717, 0.0, 0.0, 0.0, 0.0, 0.0, 1.7075960727431736E9, 0.0, 2024-02-10 15:14:32.743
54.0, -95.50208526849747, -503.360614836216, -1763.7966575026512, -168.2655788064003, -0.9920000471174717, -0.9920000471174717, 0.9920000471174717, 0.0, 0.0, 0.0, 0.0, 0.0, 1.7075960727431736E9, 0.0, 2024-02-10 15:14:32.743
55.0, -134.51672160625458, -573.0125116109848, -1851.6394276618958, -205.12603276968002, -0.9920000471174717, -0.9920000471174717, 0.9920000471174717, 0.0, 0.0, 0.0, 0.0, 0.0, 1.7075960727569463E9, 0.0, 2024-02-10 15:14:32.756
55.0, -144.09086549282074, -586.1769594550133, -1878.6863841414452, -215.1788838505745, -0.9920000471174717, -0.9920000471174717, 0.9920000471174717, 0.0, 0.0, 0.0, 0.0, 0.0, 1.7075960727569463E9, 0.0, 2024-02-10 15:14:32.756
56.0, -99.57109642028809, -512.9347587227821, -1780.551409304142, -171.3771755695343, -0.9920000471174717, -0.9920000471174717, 0.9920000471174717, 0.0, 0.0, 0.0, 0.0, 0.0, 1.707596072772647E9, 0.0, 2024-02-10 15:14:32.772
56.0, -110.58136188983917, -539.2636544108391, -1815.7363880872726, -193.15835291147232, -0.9920000471174717, -0.9920000471174717, 0.9920000471174717, 0.0, 0.0, 0.0, 0.0, 0.0, 1.707596072772647E9, 0.0, 2024-02-10 15:14:32.772
57.0, -151.75018060207367, -597.4265785217285, -1884.4308704733849, -220.44466298818588, -0.9920000471174717, -0.9920000471174717, 0.9920000471174717, 0.0, 0.0, 0.0, 0.0, 0.0, 1.7075960727731333E9, 0.0, 2024-02-10 15:14:32.773
57.0, -113.69295865297318, -533.9978752732277, -1803.768708229065, -182.3874410390854, -0.9920000471174717, -0.9920000471174717, 0.9920000471174717, 0.0, 0.0, 0.0, 0.0, 0.0, 1.7075960727731333E9, 0.0, 2024-02-10 15:14:32.773
58.0, -103.40075397491455, -520.3547202348709, -1793.4765035510063, -184.78097701072693, -0.9920000471174717, -0.9920000471174717, 0.9920000471174717, 0.0, 0.0, 0.0, 0.0, 0.0, 1.7075960727869349E9, 0.0, 2024-02-10 15:14:32.786
58.0, -161.08497089147568, -609.3942583799362, -1897.3559647202492, -232.8910500407219, -0.9920000471174717, -0.9920000471174717, 0.9920000471174717, 0.0, 0.0, 0.0, 0.0, 0.0, 1.7075960727869349E9, 0.0, 2024-02-10 15:14:32.786
59.0, -131.16577124595642, -556.9758206009865, -1848.5278308987617, -194.3551208972931, -0.9920000471174717, -0.9920000471174717, 0.9920000471174717, 0.0, 0.0, 0.0, 0.0, 0.0, 1.707596072802739E9, 0.0, 2024-02-10 15:14:32.802
59.0, -90.47565972805023, -502.88190764188766, -1767.3869614601135, -165.6326892375946, -0.9920000471174717, -0.9920000471174717, 0.9920000471174717, 0.0, 0.0, 0.0, 0.0, 0.0, 1.707596072802739E9, 0.0, 2024-02-10 15:14:32.802
60.0, -133.08060002326965, -575.4060475826263, -1848.0491237044334, -196.98801046609879, -0.9920000471174717, -0.9920000471174717, 0.9920000471174717, 0.0, 0.0, 0.0, 0.0, 0.0, 1.7075960728032165E9, 0.0, 2024-02-10 15:14:32.803
60.0, -146.9631086587906, -574.6879867911339, -1868.3941794633865, -201.29637521505356, -0.9920000471174717, -0.9920000471174717, 0.9920000471174717, 0.0, 0.0, 0.0, 0.0, 0.0, 1.7075960728032165E9, 0.0, 2024-02-10 15:14:32.803
61.0, -100.28915721178055, -507.66897958517075, -1776.003690958023, -168.02622520923615, -0.9920000471174717, -0.9920000471174717, 0.9920000471174717, 0.0, 0.0, 0.0, 0.0, 0.0, 1.707596072817385E9, 0.0, 2024-02-10 15:14:32.817
61.0, -115.36843383312225, -537.8275328278542, -1808.7951337695122, -187.17451298236847, -0.9920000471174717, -0.9920000471174717, 0.9920000471174717, 0.0, 0.0, 0.0, 0.0, 0.0, 1.707596072817385E9, 0.0, 2024-02-10 15:14:32.817
62.0, -147.68116945028305, -583.0653626918793, -1880.6012129187584, -209.9131047129631, -0.9920000471174717, -0.9920000471174717, 0.9920000471174717, 0.0, 0.0, 0.0, 0.0, 0.0, 1.7075960728327854E9, 0.0, 2024-02-10 15:14:32.832
62.0, -101.00721800327301, -515.5676482915878, -1791.561674773693, -170.898468375206, -0.9920000471174717, -0.9920000471174717, 0.9920000471174717, 0.0, 0.0, 0.0, 0.0, 0.0, 1.7075960728327854E9, 0.0, 2024-02-10 15:14:32.832
63.0, -100.5285108089447, -517.9611842632294, -1780.0727021098137, -172.33458995819092, -0.9920000471174717, -0.9920000471174717, 0.9920000471174717, 0.0, 0.0, 0.0, 0.0, 0.0, 1.7075960728331928E9, 0.0, 2024-02-10 15:14:32.833
63.0, -146.00569427013397, -586.6556666493416, -1872.7025442123413, -211.58857989311218, -0.9920000471174717, -0.9920000471174717, 0.9920000471174717, 0.0, 0.0, 0.0, 0.0, 0.0, 1.7075960728331928E9, 0.0, 2024-02-10 15:14:32.833
64.0, -127.33611369132996, -552.1887486577034, -1830.097603917122, -183.8235626220703, -0.9920000471174717, -0.9920000471174717, 0.9920000471174717, 0.0, 0.0, 0.0, 0.0, 0.0, 1.707596072847344E9, 0.0, 2024-02-10 15:14:32.847
64.0, -97.4169140458107, -505.2754436135292, -1764.7540718913078, -169.22299319505692, -0.9920000471174717, -0.9920000471174717, 0.9920000471174717, 0.0, 0.0, 0.0, 0.0, 0.0, 1.707596072847344E9, 0.0, 2024-02-10 15:14:32.847
65.0, -135.23478239774704, -565.8319036960602, -1848.0491237044334, -206.08344715833664, -0.9920000471174717, -0.9920000471174717, 0.9920000471174717, 0.0, 0.0, 0.0, 0.0, 0.0, 1.707596072862559E9, 0.0, 2024-02-10 15:14:32.862
65.0, -145.04827988147736, -578.2782907485962, -1860.4955107569695, -202.01443600654602, -0.9920000471174717, -0.9920000471174717, 0.9920000471174717, 0.0, 0.0, 0.0, 0.0, 0.0, 1.707596072862559E9, 0.0, 2024-02-10 15:14:32.862
66.0, -94.54467087984085, -501.92449325323105, -1771.6953262090683, -164.19656765460968, -0.9920000471174717, -0.9920000471174717, 0.9920000471174717, 0.0, 0.0, 0.0, 0.0, 0.0, 1.7075960728633647E9, 0.0, 2024-02-10 15:14:32.863
66.0, -119.67679858207703, -544.0507263541222, -1802.8112938404083, -185.25968420505524, -0.9920000471174717, -0.9920000471174717, 0.9920000471174717, 0.0, 0.0, 0.0, 0.0, 0.0, 1.7075960728633647E9, 0.0, 2024-02-10 15:14:32.863
67.0, -149.11729103326797, -586.8950202465057, -1877.7289697527885, -203.45055758953094, -0.9920000471174717, -0.9920000471174717, 0.9920000471174717, 0.0, 0.0, 0.0, 0.0, 0.0, 1.7075960728768394E9, 0.0, 2024-02-10 15:14:32.876
67.0, -108.18782591819763, -527.7746817469597, -1796.5881003141403, -174.4887723326683, -0.9920000471174717, -0.9920000471174717, 0.9920000471174717, 0.0, 0.0, 0.0, 0.0, 0.0, 1.7075960728768394E9, 0.0, 2024-02-10 15:14:32.876
68.0, -104.83687555789948, -519.3973058462143, -1774.0888621807098, -165.87204283475876, -0.9920000471174717, -0.9920000471174717, 0.9920000471174717, 0.0, 0.0, 0.0, 0.0, 0.0, 1.7075960728923936E9, 0.0, 2024-02-10 15:14:32.892
68.0, -138.5857327580452, -578.7569979429245, -1858.341328382492, -198.66348564624786, -0.9920000471174717, -0.9920000471174717, 0.9920000471174717, 0.0, 0.0, 0.0, 0.0, 0.0, 1.7075960728923936E9, 0.0, 2024-02-10 15:14:32.892
69.0, -127.81482088565826, -551.9493950605392, -1829.3795431256294, -184.54162341356277, -0.9920000471174717, -0.9920000471174717, 0.9920000471174717, 0.0, 0.0, 0.0, 0.0, 0.0, 1.7075960728931253E9, 0.0, 2024-02-10 15:14:32.893
69.0, -93.10854929685593, -503.360614836216, -1757.8128175735474, -159.4094957113266, -0.9920000471174717, -0.9920000471174717, 0.9920000471174717, 0.0, 0.0, 0.0, 0.0, 0.0, 1.7075960728931253E9, 0.0, 2024-02-10 15:14:32.893
70.0, -130.6870640516281, -558.4119421839714, -1843.5014053583145, -194.59447449445724, -0.9920000471174717, -0.9920000471174717, 0.9920000471174717, 0.0, 0.0, 0.0, 0.0, 0.0, 1.70759607290691E9, 0.0, 2024-02-10 15:14:32.906
70.0, -143.61215829849243, -573.9699259996414, -1859.5380963683128, -202.25378960371017, -0.9920000471174717, -0.9920000471174717, 0.9920000471174717, 0.0, 0.0, 0.0, 0.0, 0.0, 1.70759607290691E9, 0.0, 2024-02-10 15:14:32.906
71.0, -100.0498036146164, -514.6102339029312, -1767.3869614601135, -165.1539820432663, -0.9920000471174717, -0.9920000471174717, 0.9920000471174717, 0.0, 0.0, 0.0, 0.0, 0.0, 1.7075960729230456E9, 0.0, 2024-02-10 15:14:32.923
71.0, -121.59162735939026, -543.0933119654655, -1811.4280233383179, -187.41386657953262, -0.9920000471174717, -0.9920000471174717, 0.9920000471174717, 0.0, 0.0, 0.0, 0.0, 0.0, 1.7075960729230456E9, 0.0, 2024-02-10 15:14:32.923
72.0, -157.73402053117752, -591.6820921897888, -1884.4308704733849, -214.70017665624619, -0.9920000471174717, -0.9920000471174717, 0.9920000471174717, 0.0, 0.0, 0.0, 0.0, 0.0, 1.7075960729233596E9, 0.0, 2024-02-10 15:14:32.923
72.0, -105.07622915506363, -516.2857090830803, -1794.1945643424988, -169.70170038938522, -0.9920000471174717, -0.9920000471174717, 0.9920000471174717, 0.0, 0.0, 0.0, 0.0, 0.0, 1.7075960729233596E9, 0.0, 2024-02-10 15:14:32.923
73.0, -99.09238922595978, -508.3870403766632, -1779.3546413183212, -166.35075002908707, -0.9920000471174717, -0.9920000471174717, 0.9920000471174717, 0.0, 0.0, 0.0, 0.0, 0.0, 1.7075960729370437E9, 0.0, 2024-02-10 15:14:32.937
73.0, -146.9631086587906, -586.4163130521774, -1871.9844834208488, -214.46082305908203, -0.9920000471174717, -0.9920000471174717, 0.9920000471174717, 0.0, 0.0, 0.0, 0.0, 0.0, 1.7075960729370437E9, 0.0, 2024-02-10 15:14:32.937
74.0, -125.18193131685257, -549.0771518945694, -1831.5337255001068, -188.6106345653534, -0.9920000471174717, -0.9920000471174717, 0.9920000471174717, 0.0, 0.0, 0.0, 0.0, 0.0, 1.7075960729529889E9, 0.0, 2024-02-10 15:14:32.952
74.0, -91.1937205195427, -495.22259253263474, -1758.2915247678757, -154.1437165737152, -0.9920000471174717, -0.9920000471174717, 0.9920000471174717, 0.0, 0.0, 0.0, 0.0, 0.0, 1.7075960729529889E9, 0.0, 2024-02-10 15:14:32.952
75.0, -133.08060002326965, -564.3957821130753, -1840.8685157895088, -196.03059607744217, -0.9920000471174717, -0.9920000471174717, 0.9920000471174717, 0.0, 0.0, 0.0, 0.0, 0.0, 1.7075960729533432E9, 0.0, 2024-02-10 15:14:32.953
75.0, -143.37280470132828, -569.1828540563583, -1859.2987427711487, -193.87641370296478, -0.9920000471174717, -0.9920000471174717, 0.9920000471174717, 0.0, 0.0, 0.0, 0.0, 0.0, 1.7075960729533432E9, 0.0, 2024-02-10 15:14:32.953
76.0, -96.22014605998993, -503.5999684333801, -1770.2592046260834, -160.60626369714737, -0.9920000471174717, -0.9920000471174717, 0.9920000471174717, 0.0, 0.0, 0.0, 0.0, 0.0, 1.707596072966912E9, 0.0, 2024-02-10 15:14:32.966
76.0, -115.1290802359581, -539.7423616051674, -1807.3590121865273, -183.8235626220703, -0.9920000471174717, -0.9920000471174717, 0.9920000471174717, 0.0, 0.0, 0.0, 0.0, 0.0, 1.707596072966912E9, 0.0, 2024-02-10 15:14:32.966
77.0, -152.70759499073029, -593.3575673699379, -1880.8405665159225, -210.3918119072914, -0.9920000471174717, -0.9920000471174717, 0.9920000471174717, 0.0, 0.0, 0.0, 0.0, 0.0, 1.70759607298271E9, 0.0, 2024-02-10 15:14:32.982
77.0, -111.53877627849579, -527.5353281497955, -1797.784868299961, -170.41976118087769, -0.9920000471174717, -0.9920000471174717, 0.9920000471174717, 0.0, 0.0, 0.0, 0.0, 0.0, 1.70759607298271E9, 0.0, 2024-02-10 15:14:32.982
78.0, -99.57109642028809, -512.2166979312897, -1780.0727021098137, -168.7442860007286, -0.9920000471174717, -0.9920000471174717, 0.9920000471174717, 0.0, 0.0, 0.0, 0.0, 0.0, 1.707596072983233E9, 0.0, 2024-02-10 15:14:32.983
78.0, -143.37280470132828, -580.9111803174019, -1871.7451298236847, -212.0672870874405, -0.9920000471174717, -0.9920000471174717, 0.9920000471174717, 0.0, 0.0, 0.0, 0.0, 0.0, 1.707596072983233E9, 0.0, 2024-02-10 15:14:32.983
79.0, -131.40512484312057, -553.6248702406883, -1840.3898085951805, -192.91899931430817, -0.9920000471174717, -0.9920000471174717, 0.9920000471174717, 0.0, 0.0, 0.0, 0.0, 0.0, 1.707596072996757E9, 0.0, 2024-02-10 15:14:32.996
79.0, -96.69885325431824, -508.62639397382736, -1770.9772654175758, -166.35075002908707, -0.9920000471174717, -0.9920000471174717, 0.9920000471174717, 0.0, 0.0, 0.0, 0.0, 0.0, 1.707596072996757E9, 0.0, 2024-02-10 15:14:32.996
80.0, -132.8412464261055, -563.1990141272545, -1842.783344566822, -198.90283924341202, -0.9920000471174717, -0.9920000471174717, 1.008000047877431, 0.0, 0.0, 0.0, 0.0, 0.0, 1.7075960730126915E9, 0.0, 2024-02-10 15:14:33.012
80.0, -145.04827988147736, -574.2092795968056, -1870.787715435028, -205.12603276968002, -0.9920000471174717, -0.9920000471174717, 1.008000047877431, 0.0, 0.0, 0.0, 0.0, 0.0, 1.7075960730126915E9, 0.0, 2024-02-10 15:14:33.012
81.0, -101.24657160043716, -508.62639397382736, -1778.875934123993, -170.41976118087769, -0.9920000471174717, -1.008000047877431, 1.008000047877431, 0.0, 0.0, 0.0, 0.0, 0.0, 1.7075960730131717E9, 0.0, 2024-02-10 15:14:33.013
81.0, -116.08649462461472, -541.4178367853165, -1807.8377193808556, -190.04675614833832, -0.9920000471174717, -1.008000047877431, 1.008000047877431, 0.0, 0.0, 0.0, 0.0, 0.0, 1.7075960730131717E9, 0.0, 2024-02-10 15:14:33.013
82.0, -149.11729103326797, -588.5704954266548, -1883.7128096818924, -214.70017665624619, -1.008000047877431, -1.008000047877431, 1.008000047877431, 0.0, 0.0, 0.0, 0.0, 0.0, 1.7075960730271657E9, 0.0, 2024-02-10 15:14:33.027
82.0, -113.21425145864487, -531.364985704422, -1798.5029290914536, -173.05265074968338, -1.008000047877431, -1.008000047877431, 1.008000047877431, 0.0, 0.0, 0.0, 0.0, 0.0, 1.7075960730271657E9, 0.0, 2024-02-10 15:14:33.027
83.0, -92.62984210252762, -507.66897958517075, -1779.3546413183212, -167.30816441774368, -1.008000047877431, -1.008000047877431, 1.008000047877431, 0.0, 0.0, 0.0, 0.0, 0.0, 1.7075960730424745E9, 0.0, 2024-02-10 15:14:33.042
83.0, -144.09086549282074, -580.6718267202377, -1875.335433781147, -211.10987269878387, -1.008000047877431, -1.008000047877431, 1.008000047877431, 0.0, 0.0, 0.0, 0.0, 0.0, 1.7075960730424745E9, 0.0, 2024-02-10 15:14:33.042
84.0, -129.49029606580734, -556.0184062123299, -1847.331062912941, -194.59447449445724, -1.008000047877431, -1.008000047877431, 1.008000047877431, 0.0, 0.0, 0.0, 0.0, 0.0, 1.7075960730431635E9, 0.0, 2024-02-10 15:14:33.043
84.0, -91.43307411670685, -502.6425540447235, -1759.9669999480247, -164.675274848938, -1.008000047877431, -1.008000047877431, 1.008000047877431, 0.0, 0.0, 0.0, 0.0, 0.0, 1.7075960730431635E9, 0.0, 2024-02-10 15:14:33.043
85.0, -129.7296496629715, -568.70414686203, -1849.00653809309, -202.97185039520264, -1.008000047877431, -1.008000047877431, 1.008000047877431, 0.0, 0.0, 0.0, 0.0, 0.0, 1.7075960730567887E9, 0.0, 2024-02-10 15:14:33.056
85.0, -152.46824139356613, -585.698252260685, -1879.883152127266, -218.2904806137085, -1.008000047877431, -1.008000047877431, 1.008000047877431, 0.0, 0.0, 0.0, 0.0, 0.0, 1.7075960730567887E9, 0.0, 2024-02-10 15:14:33.056
86.0, -109.14524030685425, -516.2857090830803, -1783.1842988729477, -171.8558827638626, -1.008000047877431, -1.008000047877431, 1.008000047877431, 0.0, 0.0, 0.0, 0.0, 0.0, 1.7075960730724783E9, 0.0, 2024-02-10 15:14:33.072
86.0, -128.53288167715073, -550.9919806718826, -1818.8479848504066, -196.50930327177048, -1.008000047877431, -1.008000047877431, 1.008000047877431, 0.0, 0.0, 0.0, 0.0, 0.0, 1.7075960730724783E9, 0.0, 2024-02-10 15:14:33.072
87.0, -164.19656765460968, -603.4104184508324, -1897.8346719145775, -224.0349669456482, -1.008000047877431, -1.008000047877431, 1.008000047877431, 0.0, 0.0, 0.0, 0.0, 0.0, 1.7075960730732307E9, 0.0, 2024-02-10 15:14:33.073
87.0, -128.05417448282242, -544.7687871456146, -1824.8318247795105, -200.81766802072525, -1.008000047877431, -1.008000047877431, 1.008000047877431, 0.0, 0.0, 0.0, 0.0, 0.0, 1.7075960730732307E9, 0.0, 2024-02-10 15:14:33.073
88.0, -119.43744498491287, -528.9714497327805, -1802.8112938404083, -195.55188888311386, -1.008000047877431, -1.008000047877431, 1.008000047877431, 0.0, 0.0, 0.0, 0.0, 0.0, 1.7075960730868287E9, 0.0, 2024-02-10 15:14:33.086
88.0, -164.675274848938, -599.3414072990417, -1892.568892776966, -232.65169644355774, -1.008000047877431, -1.008000047877431, 1.008000047877431, 0.0, 0.0, 0.0, 0.0, 0.0, 1.7075960730868287E9, 0.0, 2024-02-10 15:14:33.086
89.0, -148.63858383893967, -571.5763900279999, -1854.7510244250298, -207.04086154699326, -1.008000047877431, -1.008000047877431, 1.008000047877431, 0.0, 0.0, 0.0, 0.0, 0.0, 1.7075960731026986E9, 0.0, 2024-02-10 15:14:33.102
89.0, -110.58136188983917, -519.8760130405426, -1773.3708013892174, -174.72812592983246, -1.008000047877431, -1.008000047877431, 1.008000047877431, 0.0, 0.0, 0.0, 0.0, 0.0, 1.7075960731026986E9, 0.0, 2024-02-10 15:14:33.102
90.0, -140.26120793819427, -565.592550098896, -1844.4588197469711, -201.29637521505356, -1.008000047877431, -1.008000047877431, 1.008000047877431, 0.0, 0.0, 0.0, 0.0, 0.0, 1.7075960731033523E9, 0.0, 2024-02-10 15:14:33.103
90.0, -144.8089262843132, -571.815743625164, -1870.0696546435356, -204.40797197818756, -1.008000047877431, -1.008000047877431, 1.008000047877431, 0.0, 0.0, 0.0, 0.0, 0.0, 1.7075960731033523E9, 0.0, 2024-02-10 15:14:33.103
91.0, -95.98079246282578, -497.85548210144043, -1769.780497431755, -162.5210924744606, -1.008000047877431, -1.008000047877431, 1.008000047877431, 0.0, 0.0, 0.0, 0.0, 0.0, 1.7075960731169822E9, 0.0, 2024-02-10 15:14:33.116
91.0, -117.52261620759964, -536.3914112448692, -1812.1460841298103, -184.06291621923447, -1.008000047877431, -1.008000047877431, 1.008000047877431, 0.0, 0.0, 0.0, 0.0, 0.0, 1.7075960731169822E9, 0.0, 2024-02-10 15:14:33.116
92.0, -154.86177736520767, -590.9640313982964, -1884.670224070549, -207.51956874132156, -1.008000047877431, -1.008000047877431, 1.008000047877431, 0.0, 0.0, 0.0, 0.0, 0.0, 1.7075960731325295E9, 0.0, 2024-02-10 15:14:33.132
92.0, -108.42717951536179, -521.3121346235275, -1788.9287852048874, -167.06881082057953, -1.008000047877431, -1.008000047877431, 1.008000047877431, 0.0, 0.0, 0.0, 0.0, 0.0, 1.7075960731325295E9, 0.0, 2024-02-10 15:14:33.132
93.0, -105.31558275222778, -513.6528195142746, -1771.9346798062325, -162.28173887729645, -1.008000047877431, -1.008000047877431, 1.008000047877431, 0.0, 0.0, 0.0, 0.0, 0.0, 1.707596073133196E9, 0.0, 2024-02-10 15:14:33.133
93.0, -146.00569427013397, -578.7569979429245, -1875.8141409754753, -199.86025363206863, -1.008000047877431, -1.008000047877431, 1.008000047877431, 0.0, 0.0, 0.0, 0.0, 0.0, 1.707596073133196E9, 0.0, 2024-02-10 15:14:33.133
94.0, -126.13934570550919, -541.8965439796448, -1830.8156647086143, -183.10550183057785, -1.008000047877431, -1.008000047877431, 1.008000047877431, 0.0, 0.0, 0.0, 0.0, 0.0, 1.7075960731468675E9, 0.0, 2024-02-10 15:14:33.146
94.0, -84.97052699327469, -489.95681339502335, -1752.3076848387718, -151.27147340774536, -1.008000047877431, -1.008000047877431, 1.008000047877431, 0.0, 0.0, 0.0, 0.0, 0.0, 1.7075960731468675E9, 0.0, 2024-02-10 15:14:33.146
95.0, -124.46387052536011, -558.1725885868073, -1836.7995046377182, -188.37128096818924, -1.008000047877431, -1.008000047877431, 1.008000047877431, 0.0, 0.0, 0.0, 0.0, 0.0, 1.7075960731624343E9, 0.0, 2024-02-10 15:14:33.162
95.0, -131.64447844028473, -569.4222076535225, -1852.5968420505524, -191.00417053699493, -1.008000047877431, -1.008000047877431, 1.008000047877431, 0.0, 0.0, 0.0, 0.0, 0.0, 1.7075960731624343E9, 0.0, 2024-02-10 15:14:33.162
96.0, -93.58725649118423, -491.39293497800827, -1772.892094194889, -163.23915326595306, -1.008000047877431, -1.008000047877431, 1.008000047877431, 0.0, 0.0, 0.0, 0.0, 0.0, 1.7075960731632605E9, 0.0, 2024-02-10 15:14:33.163
96.0, -107.70911872386932, -526.0992065668106, -1806.4015977978706, -185.25968420505524, -1.008000047877431, -1.008000047877431, 1.008000047877431, 0.0, 0.0, 0.0, 0.0, 0.0, 1.7075960731632605E9, 0.0, 2024-02-10 15:14:33.163
97.0, -143.37280470132828, -575.1666939854622, -1872.9418978095055, -200.5783144235611, -1.008000047877431, -1.008000047877431, 1.008000047877431, 0.0, 0.0, 0.0, 0.0, 0.0, 1.7075960731768425E9, 0.0, 2024-02-10 15:14:33.176
97.0, -104.83687555789948, -519.3973058462143, -1798.9816362857819, -167.30816441774368, -1.008000047877431, -1.008000047877431, 1.008000047877431, 0.0, 0.0, 0.0, 0.0, 0.0, 1.7075960731768425E9, 0.0, 2024-02-10 15:14:33.176
98.0, -91.1937205195427, -514.3708803057671, -1770.4985582232475, -162.5210924744606, -1.008000047877431, -1.008000047877431, 1.008000047877431, 0.0, 0.0, 0.0, 0.0, 0.0, 1.7075960731921036E9, 0.0, 2024-02-10 15:14:33.192
98.0, -144.3302190899849, -578.038937151432, -1871.9844834208488, -203.45055758953094, -1.008000047877431, -1.008000047877431, 1.008000047877431, 0.0, 0.0, 0.0, 0.0, 0.0, 1.7075960731921036E9, 0.0, 2024-02-10 15:14:33.192
0.0, -87.84277015924454, -499.29160368442535, -1759.7276463508606, -158.45208132266998, -1.008000047877431, -1.008000047877431, 1.008000047877431, 0.0, 0.0, 0.0, 0.0, 0.0, 1.7075960732075064E9, 0.0, 2024-02-10 15:14:33.207
0.0, -119.19809138774872, -551.7100414633751, -1833.209200680256, -188.84998816251755, -1.008000047877431, -1.008000047877431, 1.008000047877431, 0.0, 0.0, 0.0, 0.0, 0.0, 1.7075960732075064E9, 0.0, 2024-02-10 15:14:33.207
1.0, -133.55930721759796, -564.8744893074036, -1852.3574884533882, -193.87641370296478, -1.008000047877431, -0.01600000075995922, 1.008000047877431, 0.0, 0.0, 0.0, 0.0, 0.0, 1.7075960732081888E9, 0.0, 2024-02-10 15:14:33.208
1.0, -89.75759893655777, -502.1638468503952, -1764.5147182941437, -155.57983815670013, -1.008000047877431, -0.01600000075995922, 1.008000047877431, 0.0, 0.0, 0.0, 0.0, 0.0, 1.7075960732081888E9, 0.0, 2024-02-10 15:14:33.208
2.0, -112.25683706998825, -536.3914112448692, -1802.8112938404083, -178.79713708162308, 0.09600000455975533, -0.01600000075995922, 1.008000047877431, 0.0, 0.0, 0.0, 0.0, 0.0, 1.7075960732226143E9, 0.0, 2024-02-10 15:14:33.222
2.0, -152.94694858789444, -592.4001529812813, -1883.4734560847282, -212.0672870874405, 0.09600000455975533, -0.01600000075995922, 1.008000047877431, 0.0, 0.0, 0.0, 0.0, 0.0, 1.7075960732226143E9, 0.0, 2024-02-10 15:14:33.222
3.0, -114.88972663879395, -533.5191680788994, -1802.8112938404083, -173.5313579440117, 0.09600000455975533, -0.01600000075995922, 1.008000047877431, 0.0, 0.0, 0.0, 0.0, 0.0, 1.7075960732379255E9, 0.0, 2024-02-10 15:14:33.237
3.0, -105.31558275222778, -521.5514882206917, -1780.551409304142, -171.8558827638626, 0.09600000455975533, -0.01600000075995922, 1.008000047877431, 0.0, 0.0, 0.0, 0.0, 0.0, 1.7075960732379255E9, 0.0, 2024-02-10 15:14:33.237
4.0, -149.59599822759628, -593.596920967102, -1877.4896161556244, -215.89694464206696, 0.09600000455975533, -0.01600000075995922, 1.008000047877431, 0.0, 0.0, 0.0, 0.0, 0.0, 1.7075960732382689E9, 0.0, 2024-02-10 15:14:33.238
4.0, -138.34637916088104, -566.3106108903885, -1840.3898085951805, -197.9454248547554, 0.09600000455975533, -0.01600000075995922, 1.008000047877431, 0.0, 0.0, 0.0, 0.0, 0.0, 1.7075960732382689E9, 0.0, 2024-02-10 15:14:33.238
5.0, -97.89562124013901, -506.71156519651413, -1763.0785967111588, -162.28173887729645, 0.09600000455975533, -0.01600000075995922, 1.008000047877431, 0.0, 0.0, 0.0, 0.0, 0.0, 1.7075960732521217E9, 0.0, 2024-02-10 15:14:33.252
5.0, -145.52698707580566, -575.8847547769547, -1847.0917093157768, -206.08344715833664, 0.09600000455975533, -0.01600000075995922, 1.008000047877431, 0.0, 0.0, 0.0, 0.0, 0.0, 1.7075960732521217E9, 0.0, 2024-02-10 15:14:33.252
6.0, -148.63858383893967, -586.1769594550133, -1872.223837018013, -211.34922629594803, 0.09600000455975533, -0.01600000075995922, 1.008000047877431, 0.0, 0.0, 0.0, 0.0, 0.0, 1.707596073267726E9, 0.0, 2024-02-10 15:14:33.267
6.0, -95.74143886566162, -505.2754436135292, -1767.8656686544418, -166.82945722341537, 0.09600000455975533, -0.01600000075995922, 1.008000047877431, 0.0, 0.0, 0.0, 0.0, 0.0, 1.707596073267726E9, 0.0, 2024-02-10 15:14:33.267
7.0, -118.00132340192795, -548.1197375059128, -1813.342852115631, -195.07318168878555, 0.09600000455975533, -0.01600000075995922, 1.008000047877431, 0.0, 0.0, 0.0, 0.0, 0.0, 1.707596073268195E9, 0.0, 2024-02-10 15:14:33.268
7.0, -155.34048455953598, -589.5279098153114, -1893.0475999712944, -223.07755255699158, 0.09600000455975533, -0.01600000075995922, 1.008000047877431, 0.0, 0.0, 0.0, 0.0, 0.0, 1.707596073268195E9, 0.0, 2024-02-10 15:14:33.268
8.0, -119.19809138774872, -530.8862785100937, -1806.1622442007065, -184.06291621923447, 0.09600000455975533, -0.01600000075995922, 1.008000047877431, 0.0, 0.0, 0.0, 0.0, 0.0, 1.7075960732821527E9, 0.0, 2024-02-10 15:14:33.282
8.0, -99.57109642028809, -513.4134659171104, -1778.1578733325005, -169.46234679222107, 0.09600000455975533, -0.01600000075995922, 1.008000047877431, 0.0, 0.0, 0.0, 0.0, 0.0, 1.7075960732821527E9, 0.0, 2024-02-10 15:14:33.282
9.0, -145.76634067296982, -584.7408378720284, -1877.2502625584602, -216.37565183639526, 0.09600000455975533, -0.01600000075995922, 1.008000047877431, 0.0, 0.0, 0.0, 0.0, 0.0, 1.7075960732976868E9, 0.0, 2024-02-10 15:14:33.297
9.0, -134.03801441192627, -560.5661245584488, -1843.5014053583145, -201.29637521505356, 0.09600000455975533, -0.01600000075995922, 1.008000047877431, 0.0, 0.0, 0.0, 0.0, 0.0, 1.7075960732976868E9, 0.0, 2024-02-10 15:14:33.297
10.0, -95.50208526849747, -512.4560515284538, -1771.6953262090683, -172.81329715251923, 0.09600000455975533, -0.01600000075995922, 1.008000047877431, 0.0, 0.0, 0.0, 0.0, 0.0, 1.7075960732981763E9, 0.0, 2024-02-10 15:14:33.298
10.0, -131.88383203744888, -568.4647932648659, -1845.655587732792, -207.51956874132156, 0.09600000455975533, -0.01600000075995922, 1.008000047877431, 0.0, 0.0, 0.0, 0.0, 0.0, 1.7075960732981763E9, 0.0, 2024-02-10 15:14:33.298
11.0, -144.3302190899849, -576.1241083741188, -1870.787715435028, -203.45055758953094, 0.09600000455975533, -0.01600000075995922, 1.008000047877431, 0.0, 0.0, 0.0, 0.0, 0.0, 1.7075960733118284E9, 0.0, 2024-02-10 15:14:33.311
11.0, -106.51235073804855, -515.5676482915878, -1776.003690958023, -171.13782197237015, 0.09600000455975533, -0.01600000075995922, 1.008000047877431, 0.0, 0.0, 0.0, 0.0, 0.0, 1.7075960733118284E9, 0.0, 2024-02-10 15:14:33.311
12.0, -122.07033455371857, -538.0668864250183, -1815.2576808929443, -191.48287773132324, 0.0800000037997961, -0.01600000075995922, 1.008000047877431, 0.0, 0.0, 0.0, 0.0, 0.0, 1.7075960733274915E9, 0.0, 2024-02-10 15:14:33.327
12.0, -161.56367808580399, -592.4001529812813, -1894.4837215542793, -224.75302773714066, 0.0800000037997961, -0.01600000075995922, 1.008000047877431, 0.0, 0.0, 0.0, 0.0, 0.0, 1.7075960733274915E9, 0.0, 2024-02-10 15:14:33.327
13.0, -118.48003059625626, -530.6469249129295, -1814.5396201014519, -191.96158492565155, 0.0800000037997961, -0.01600000075995922, 1.008000047877431, 0.0, 0.0, 0.0, 0.0, 0.0, 1.7075960733281944E9, 0.0, 2024-02-10 15:14:33.328
13.0, -109.14524030685425, -526.0992065668106, -1793.4765035510063, -189.56804895401, 0.0800000037997961, -0.01600000075995922, 1.008000047877431, 0.0, 0.0, 0.0, 0.0, 0.0, 1.7075960733281944E9, 0.0, 2024-02-10 15:14:33.328
14.0, -151.98953419923782, -590.485324203968, -1888.4998816251755, -223.79561334848404, 0.0800000037997961, -0.01600000075995922, 1.008000047877431, 0.0, 0.0, 0.0, 0.0, 0.0, 1.707596073341794E9, 0.0, 2024-02-10 15:14:33.341
14.0, -137.14961117506027, -561.0448317527771, -1845.655587732792, -196.98801046609879, 0.0800000037997961, -0.01600000075995922, 1.008000047877431, 0.0, 0.0, 0.0, 0.0, 0.0, 1.707596073341794E9, 0.0, 2024-02-10 15:14:33.341
15.0, -88.08212375640869, -496.8980677127838, -1766.668900668621, -163.95721405744553, 0.0800000037997961, -0.01600000075995922, 1.008000047877431, 0.0, 0.0, 0.0, 0.0, 0.0, 1.7075960733578105E9, 0.0, 2024-02-10 15:14:33.357
15.0, -126.85740649700165, -552.9068094491959, -1841.5865765810013, -196.26994967460632, 0.0800000037997961, -0.01600000075995922, 1.008000047877431, 0.0, 0.0, 0.0, 0.0, 0.0, 1.7075960733578105E9, 0.0, 2024-02-10 15:14:33.357
16.0, -139.5431471467018, -573.4912188053131, -1871.2664226293564, -207.51956874132156, 0.0800000037997961, -0.01600000075995922, 1.008000047877431, 0.0, 0.0, 0.0, 0.0, 0.0, 1.707596073358289E9, 0.0, 2024-02-10 15:14:33.358
16.0, -101.24657160043716, -508.62639397382736, -1770.7379118204117, -168.7442860007286, 0.0800000037997961, -0.01600000075995922, 1.008000047877431, 0.0, 0.0, 0.0, 0.0, 0.0, 1.707596073358289E9, 0.0, 2024-02-10 15:14:33.358
17.0, -118.95873779058456, -538.0668864250183, -1805.444183409214, -187.17451298236847, 0.0800000037997961, -0.01600000075995922, 1.008000047877431, 0.0, 0.0, 0.0, 0.0, 0.0, 1.7075960733722093E9, 0.0, 2024-02-10 15:14:33.372
17.0, -151.0321198105812, -586.4163130521774, -1886.8244064450264, -213.26405507326126, 0.0800000037997961, -0.01600000075995922, 1.008000047877431, 0.0, 0.0, 0.0, 0.0, 0.0, 1.7075960733722093E9, 0.0, 2024-02-10 15:14:33.372
18.0, -114.65037304162979, -528.0140353441238, -1806.4015977978706, -178.31842988729477, 0.0800000037997961, -0.01600000075995922, 1.008000047877431, 0.0, 0.0, 0.0, 0.0, 0.0, 1.707596073387437E9, 0.0, 2024-02-10 15:14:33.387
18.0, -103.40075397491455, -510.0625155568123, -1781.0301164984703, -169.94105398654938, 0.0800000037997961, -0.01600000075995922, 1.008000047877431, 0.0, 0.0, 0.0, 0.0, 0.0, 1.707596073387437E9, 0.0, 2024-02-10 15:14:33.387
19.0, -147.9205230474472, -579.7144123315811, -1878.6863841414452, -214.22146946191788, 0.0800000037997961, -0.01600000075995922, 1.008000047877431, 0.0, 0.0, 0.0, 0.0, 0.0, 1.7075960733881698E9, 0.0, 2024-02-10 15:14:33.388
19.0, -129.49029606580734, -552.9068094491959, -1839.9111014008522, -191.7222313284874, 0.0800000037997961, -0.01600000075995922, 1.008000047877431, 0.0, 0.0, 0.0, 0.0, 0.0, 1.7075960733881698E9, 0.0, 2024-02-10 15:14:33.388
20.0, -97.65626764297485, -501.44578605890274, -1762.8392431139946, -156.2978989481926, 0.0800000037997961, -0.01600000075995922, 0.9920000471174717, 0.0, 0.0, 0.0, 0.0, 0.0, 1.7075960734022832E9, 0.0, 2024-02-10 15:14:33.402
20.0, -137.14961117506027, -567.028671681881, -1854.0329636335373, -207.04086154699326, 0.0800000037997961, -0.01600000075995922, 0.9920000471174717, 0.0, 0.0, 0.0, 0.0, 0.0, 1.7075960734022832E9, 0.0, 2024-02-10 15:14:33.402
21.0, -143.13345110416412, -576.1241083741188, -1874.1386657953262, -208.9556903243065, 0.0800000037997961, 0.0, 0.9920000471174717, 0.0, 0.0, 0.0, 0.0, 0.0, 1.707596073418193E9, 0.0, 2024-02-10 15:14:33.418
21.0, -102.20398598909378, -513.8921731114388, -1781.2694700956345, -170.41976118087769, 0.0800000037997961, 0.0, 0.9920000471174717, 0.0, 0.0, 0.0, 0.0, 0.0, 1.707596073418193E9, 0.0, 2024-02-10 15:14:33.418
22.0, -112.73554426431656, -532.5617536902428, -1810.7099625468254, -187.17451298236847, 0.0800000037997961, 0.0, 0.9920000471174717, 0.0, 0.0, 0.0, 0.0, 0.0, 1.707596073432916E9, 0.0, 2024-02-10 15:14:33.432
22.0, -148.3992302417755, -587.373727440834, -1886.8244064450264, -216.85435903072357, 0.0800000037997961, 0.0, 0.9920000471174717, 0.0, 0.0, 0.0, 0.0, 0.0, 1.707596073432916E9, 0.0, 2024-02-10 15:14:33.432
23.0, -106.75170433521271, -518.4398914575577, -1800.657111465931, -174.01006513834, 0.0800000037997961, 0.0, 0.9920000471174717, 0.0, 0.0, 0.0, 0.0, 0.0, 1.707596073433236E9, 0.0, 2024-02-10 15:14:33.433
23.0, -99.09238922595978, -512.9347587227821, -1781.0301164984703, -176.6429547071457, 0.0800000037997961, 0.0, 0.9920000471174717, 0.0, 0.0, 0.0, 0.0, 0.0, 1.707596073433236E9, 0.0, 2024-02-10 15:14:33.433
24.0, -146.24504786729813, -587.6130810379982, -1877.4896161556244, -214.46082305908203, 0.0800000037997961, 0.0, 0.9920000471174717, 0.0, 0.0, 0.0, 0.0, 0.0, 1.7075960734476388E9, 0.0, 2024-02-10 15:14:33.447
24.0, -124.70322412252426, -553.3855166435242, -1843.9801125526428, -196.03059607744217, 0.0800000037997961, 0.0, 0.9920000471174717, 0.0, 0.0, 0.0, 0.0, 0.0, 1.7075960734476388E9, 0.0, 2024-02-10 15:14:33.447
25.0, -89.75759893655777, -499.0522500872612, -1761.6424751281738, -165.39333564043045, 0.0800000037997961, 0.0, 0.9920000471174717, 0.0, 0.0, 0.0, 0.0, 0.0, 1.707596073448312E9, 0.0, 2024-02-10 15:14:33.448
25.0, -125.89999210834503, -560.3267709612846, -1838.7143334150314, -196.03059607744217, 0.0800000037997961, 0.0, 0.9920000471174717, 0.0, 0.0, 0.0, 0.0, 0.0, 1.707596073448312E9, 0.0, 2024-02-10 15:14:33.448
26.0, -136.19219678640366, -569.4222076535225, -1867.676118671894, -205.60473996400833, 0.0800000037997961, 0.0, 0.9920000471174717, 0.0, 0.0, 0.0, 0.0, 0.0, 1.707596073461712E9, 0.0, 2024-02-10 15:14:33.461
26.0, -90.71501332521439, -501.6851396560669, -1768.3443758487701, -168.02622520923615, 0.0800000037997961, 0.0, 0.9920000471174717, 0.0, 0.0, 0.0, 0.0, 0.0, 1.707596073461712E9, 0.0, 2024-02-10 15:14:33.461
27.0, -106.51235073804855, -531.6043393015862, -1800.1784042716026, -175.68554031848907, 0.0800000037997961, 0.0, 0.9920000471174717, 0.0, 0.0, 0.0, 0.0, 0.0, 1.7075960734774764E9, 0.0, 2024-02-10 15:14:33.477
27.0, -144.09086549282074, -583.7834234833717, -1877.010908961296, -210.87051910161972, 0.0800000037997961, 0.0, 0.9920000471174717, 0.0, 0.0, 0.0, 0.0, 0.0, 1.7075960734774764E9, 0.0, 2024-02-10 15:14:33.477
28.0, -106.2729971408844, -527.7746817469597, -1799.9390506744385, -175.20683312416077, 0.0800000037997961, 0.0, 0.9920000471174717, 0.0, 0.0, 0.0, 0.0, 0.0, 1.7075960734781451E9, 0.0, 2024-02-10 15:14:33.478
28.0, -102.44333958625793, -515.5676482915878, -1776.003690958023, -170.898468375206, 0.0800000037997961, 0.0, 0.9920000471174717, 0.0, 0.0, 0.0, 0.0, 0.0, 1.7075960734781451E9, 0.0, 2024-02-10 15:14:33.478
29.0, -152.94694858789444, -581.8685947060585, -1870.548361837864, -207.51956874132156, 0.0800000037997961, 0.0, 0.9920000471174717, 0.0, 0.0, 0.0, 0.0, 0.0, 1.7075960734923787E9, 0.0, 2024-02-10 15:14:33.492
29.0, -133.3199536204338, -551.9493950605392, -1844.6981733441353, -191.2435241341591, 0.0800000037997961, 0.0, 0.9920000471174717, 0.0, 0.0, 0.0, 0.0, 0.0, 1.7075960734923787E9, 0.0, 2024-02-10 15:14:33.492
30.0, -98.85303562879562, -505.2754436135292, -1763.0785967111588, -172.09523636102676, 0.0800000037997961, 0.0, 1.008000047877431, 0.0, 0.0, 0.0, 0.0, 0.0, 1.7075960735079403E9, 0.0, 2024-02-10 15:14:33.507
30.0, -134.27736800909042, -565.1138429045677, -1848.5278308987617, -206.56215435266495, 0.0800000037997961, 0.0, 1.008000047877431, 0.0, 0.0, 0.0, 0.0, 0.0, 1.7075960735079403E9, 0.0, 2024-02-10 15:14:33.507
31.0, -151.0321198105812, -577.0815227627754, -1871.0270690321922, -201.5357288122177, 0.0800000037997961, 0.0, 1.008000047877431, 0.0, 0.0, 0.0, 0.0, 0.0, 1.7075960735081992E9, 0.0, 2024-02-10 15:14:33.508
31.0, -106.2729971408844, -510.30186915397644, -1775.5249837636948, -167.786871612072, 0.0800000037997961, 0.0, 1.008000047877431, 0.0, 0.0, 0.0, 0.0, 0.0, 1.7075960735081992E9, 0.0, 2024-02-10 15:14:33.508
32.0, -115.60778743028641, -535.6733504533768, -1802.8112938404083, -179.27584427595139, 0.0800000037997961, 0.0, 1.008000047877431, 0.0, 0.0, 0.0, 0.0, 0.0, 1.7075960735218968E9, 0.0, 2024-02-10 15:14:33.521
32.0, -155.57983815670013, -594.3149817585945, -1884.4308704733849, -208.71633672714233, 0.0800000037997961, 0.0, 1.008000047877431, 0.0, 0.0, 0.0, 0.0, 0.0, 1.7075960735218968E9, 0.0, 2024-02-10 15:14:33.521
33.0, -113.21425145864487, -531.1256321072578, -1806.1622442007065, -175.20683312416077, 0.0800000037997961, 0.0, 1.008000047877431, 0.0, 0.0, 0.0, 0.0, 0.0, 1.7075960735377545E9, 0.0, 2024-02-10 15:14:33.537
33.0, -101.00721800327301, -518.2005378603935, -1773.6101549863815, -169.94105398654938, 0.0800000037997961, 0.0, 1.008000047877431, 0.0, 0.0, 0.0, 0.0, 0.0, 1.7075960735377545E9, 0.0, 2024-02-10 15:14:33.537
34.0, -145.52698707580566, -590.0066170096397, -1878.2076769471169, -215.41823744773865, 0.0800000037997961, 0.0, 1.008000047877431, 0.0, 0.0, 0.0, 0.0, 0.0, 1.707596073538299E9, 0.0, 2024-02-10 15:14:33.538
34.0, -137.14961117506027, -560.3267709612846, -1849.00653809309, -198.90283924341202, 0.0800000037997961, 0.0, 1.008000047877431, 0.0, 0.0, 0.0, 0.0, 0.0, 1.707596073538299E9, 0.0, 2024-02-10 15:14:33.538
35.0, -101.00721800327301, -513.6528195142746, -1765.2327790856361, -166.1113964319229, 0.0800000037997961, 0.0, 1.008000047877431, 0.0, 0.0, 0.0, 0.0, 0.0, 1.7075960735682716E9, 0.0, 2024-02-10 15:14:33.568
35.0, -135.71348959207535, -569.1828540563583, -1851.87878125906, -201.29637521505356, 0.0800000037997961, 0.0, 1.008000047877431, 0.0, 0.0, 0.0, 0.0, 0.0, 1.7075960735682716E9, 0.0, 2024-02-10 15:14:33.568
36.0, -147.4418158531189, -582.3473019003868, -1877.2502625584602, -203.92926478385925, 0.0800000037997961, 0.0, 1.008000047877431, 0.0, 0.0, 0.0, 0.0, 0.0, 1.7075960735689597E9, 0.0, 2024-02-10 15:14:33.568
36.0, -99.33174282312393, -507.19027239084244, -1779.3546413183212, -166.35075002908707, 0.0800000037997961, 0.0, 1.008000047877431, 0.0, 0.0, 0.0, 0.0, 0.0, 1.7075960735689597E9, 0.0, 2024-02-10 15:14:33.568
37.0, -120.63421297073364, -544.5294335484505, -1805.6835370063782, -184.78097701072693, 0.0800000037997961, 0.0, 1.008000047877431, 0.0, 0.0, 0.0, 0.0, 0.0, 1.7075960735698917E9, 0.0, 2024-02-10 15:14:33.569
37.0, -153.90436297655106, -596.4691641330719, -1903.339804649353, -219.00854140520096, 0.0800000037997961, 0.0, 1.008000047877431, 0.0, 0.0, 0.0, 0.0, 0.0, 1.7075960735698917E9, 0.0, 2024-02-10 15:14:33.569
38.0, -106.51235073804855, -520.3547202348709, -1794.673271536827, -165.1539820432663, 0.0800000037997961, 0.0, 1.008000047877431, 0.0, 0.0, 0.0, 0.0, 0.0, 1.7075960735818768E9, 0.0, 2024-02-10 15:14:33.581
38.0, -105.55493634939194, -517.7218306660652, -1776.003690958023, -167.06881082057953, 0.0800000037997961, 0.0, 1.008000047877431, 0.0, 0.0, 0.0, 0.0, 0.0, 1.7075960735818768E9, 0.0, 2024-02-10 15:14:33.581
39.0, -146.24504786729813, -588.5704954266548, -1875.0960801839828, -200.0996072292328, 0.0800000037997961, 0.0, 1.008000047877431, 0.0, 0.0, 0.0, 0.0, 0.0, 1.7075960735976636E9, 0.0, 2024-02-10 15:14:33.597
39.0, -135.9528431892395, -559.369356572628, -1847.0917093157768, -192.679645717144, 0.0800000037997961, 0.0, 1.008000047877431, 0.0, 0.0, 0.0, 0.0, 0.0, 1.7075960735976636E9, 0.0, 2024-02-10 15:14:33.597
40.0, -105.07622915506363, -508.8657475709915, -1762.1211823225021, -164.91462844610214, 0.0800000037997961, 0.0, 1.008000047877431, 0.0, 0.0, 0.0, 0.0, 0.0, 1.7075960735982692E9, 0.0, 2024-02-10 15:14:33.598
40.0, -140.26120793819427, -573.251865208149, -1857.3839139938354, -204.40797197818756, 0.0800000037997961, 0.0, 1.008000047877431, 0.0, 0.0, 0.0, 0.0, 0.0, 1.7075960735982692E9, 0.0, 2024-02-10 15:14:33.598
41.0, -158.9307885169983, -592.8788601756096, -1879.6437985301018, -210.87051910161972, 0.0800000037997961, 0.0, 1.008000047877431, 0.0, 0.0, 0.0, 0.0, 0.0, 1.707596073611812E9, 0.0, 2024-02-10 15:14:33.611
41.0, -111.53877627849579, -518.6792450547218, -1774.328215777874, -165.6326892375946, 0.0800000037997961, 0.0, 1.008000047877431, 0.0, 0.0, 0.0, 0.0, 0.0, 1.707596073611812E9, 0.0, 2024-02-10 15:14:33.611
42.0, -131.40512484312057, -552.9068094491959, -1816.215095281601, -194.11576730012894, 0.09600000455975533, 0.0, 1.008000047877431, 0.0, 0.0, 0.0, 0.0, 0.0, 1.707596073627848E9, 0.0, 2024-02-10 15:14:33.627
42.0, -176.40360110998154, -611.5484407544136, -1904.2972190380096, -229.06139248609543, 0.09600000455975533, 0.0, 1.008000047877431, 0.0, 0.0, 0.0, 0.0, 0.0, 1.707596073627848E9, 0.0, 2024-02-10 15:14:33.627
43.0, -126.6180528998375, -537.58817923069, -1802.5719402432442, -177.36101549863815, 0.09600000455975533, 0.0, 1.008000047877431, 0.0, 0.0, 0.0, 0.0, 0.0, 1.7075960736282587E9, 0.0, 2024-02-10 15:14:33.628
43.0, -106.03364354372025, -524.6630849838257, -1781.987530887127, -171.61652916669846, 0.09600000455975533, 0.0, 1.008000047877431, 0.0, 0.0, 0.0, 0.0, 0.0, 1.7075960736282587E9, 0.0, 2024-02-10 15:14:33.628
44.0, -155.8191917538643, -601.256236076355, -1883.9521632790565, -219.00854140520096, 0.09600000455975533, 0.0, 1.008000047877431, 0.0, 0.0, 0.0, 0.0, 0.0, 1.7075960736420891E9, 0.0, 2024-02-10 15:14:33.642
44.0, -138.5857327580452, -568.2254396677017, -1853.0755492448807, -197.70607125759125, 0.09600000455975533, 0.0, 1.008000047877431, 0.0, 0.0, 0.0, 0.0, 0.0, 1.7075960736420891E9, 0.0, 2024-02-10 15:14:33.642
45.0, -101.96463239192963, -512.4560515284538, -1759.9669999480247, -166.82945722341537, 0.09600000455975533, 0.0, 1.008000047877431, 0.0, 0.0, 0.0, 0.0, 0.0, 1.7075960736578207E9, 0.0, 2024-02-10 15:14:33.657
45.0, -141.2186223268509, -573.4912188053131, -1849.4852452874184, -200.81766802072525, 0.09600000455975533, 0.0, 1.008000047877431, 0.0, 0.0, 0.0, 0.0, 0.0, 1.7075960736578207E9, 0.0, 2024-02-10 15:14:33.657
46.0, -153.1863021850586, -589.7672634124756, -1883.234102487564, -212.5459942817688, 0.09600000455975533, 0.0, 1.008000047877431, 0.0, 0.0, 0.0, 0.0, 0.0, 1.7075960736582563E9, 0.0, 2024-02-10 15:14:33.658
46.0, -107.23041152954102, -510.78057634830475, -1776.4823981523514, -167.30816441774368, 0.09600000455975533, 0.0, 1.008000047877431, 0.0, 0.0, 0.0, 0.0, 0.0, 1.7075960736582563E9, 0.0, 2024-02-10 15:14:33.658
47.0, -118.48003059625626, -548.3590911030769, -1810.9493161439896, -190.52546334266663, 0.09600000455975533, 0.0, 1.008000047877431, 0.0, 0.0, 0.0, 0.0, 0.0, 1.7075960736720672E9, 0.0, 2024-02-10 15:14:33.672
47.0, -152.70759499073029, -593.3575673699379, -1892.0901855826378, -212.30664068460464, 0.09600000455975533, 0.0, 1.008000047877431, 0.0, 0.0, 0.0, 0.0, 0.0, 1.7075960736720672E9, 0.0, 2024-02-10 15:14:33.672
48.0, -113.21425145864487, -529.9288641214371, -1808.7951337695122, -176.88230830430984, 0.09600000455975533, 0.0, 1.008000047877431, 0.0, 0.0, 0.0, 0.0, 0.0, 1.7075960736874957E9, 0.0, 2024-02-10 15:14:33.687
48.0, -112.4961906671524, -529.2108033299446, -1787.0139564275742, -175.44618672132492, 0.09600000455975533, 0.0, 1.008000047877431, 0.0, 0.0, 0.0, 0.0, 0.0, 1.7075960736874957E9, 0.0, 2024-02-10 15:14:33.687
49.0, -160.12755650281906, -601.9742968678474, -1891.1327711939812, -211.58857989311218, 0.09600000455975533, 0.0, 1.008000047877431, 0.0, 0.0, 0.0, 0.0, 0.0, 1.7075960736883128E9, 0.0, 2024-02-10 15:14:33.688
49.0, -140.97926872968674, -562.7203069329262, -1854.5116708278656, -195.3125352859497, 0.09600000455975533, 0.0, 1.008000047877431, 0.0, 0.0, 0.0, 0.0, 0.0, 1.7075960736883128E9, 0.0, 2024-02-10 15:14:33.688
50.0, -100.76786440610886, -510.30186915397644, -1770.2592046260834, -166.1113964319229, 0.09600000455975533, 0.0, 1.008000047877431, 0.0, 0.0, 0.0, 0.0, 0.0, 1.707596073702093E9, 0.0, 2024-02-10 15:14:33.702
50.0, -141.45797592401505, -574.927340388298, -1849.00653809309, -195.55188888311386, 0.09600000455975533, 0.0, 1.008000047877431, 0.0, 0.0, 0.0, 0.0, 0.0, 1.707596073702093E9, 0.0, 2024-02-10 15:14:33.702
51.0, -153.90436297655106, -587.373727440834, -1872.7025442123413, -199.86025363206863, 0.09600000455975533, 0.0, 1.008000047877431, 0.0, 0.0, 0.0, 0.0, 0.0, 1.7075960737178419E9, 0.0, 2024-02-10 15:14:33.717
51.0, -110.58136188983917, -514.1315267086029, -1774.5675693750381, -163.23915326595306, 0.09600000455975533, 0.0, 1.008000047877431, 0.0, 0.0, 0.0, 0.0, 0.0, 1.7075960737178419E9, 0.0, 2024-02-10 15:14:33.717
52.0, -124.70322412252426, -548.1197375059128, -1814.3002665042877, -189.32869535684586, 0.09600000455975533, 0.0, 1.008000047877431, 0.0, 0.0, 0.0, 0.0, 0.0, 1.707596073718407E9, 0.0, 2024-02-10 15:14:33.718
52.0, -167.54751801490784, -609.6336119771004, -1895.6804895401, -219.2478950023651, 0.09600000455975533, 0.0, 1.008000047877431, 0.0, 0.0, 0.0, 0.0, 0.0, 1.707596073718407E9, 0.0, 2024-02-10 15:14:33.718
53.0, -123.02774894237518, -538.7849472165108, -1811.1886697411537, -177.83972269296646, 0.09600000455975533, 0.0, 1.008000047877431, 0.0, 0.0, 0.0, 0.0, 0.0, 1.7075960737320108E9, 0.0, 2024-02-10 15:14:33.732
53.0, -111.06006908416748, -527.5353281497955, -1782.9449452757835, -174.72812592983246, 0.09600000455975533, 0.0, 1.008000047877431, 0.0, 0.0, 0.0, 0.0, 0.0, 1.7075960737320108E9, 0.0, 2024-02-10 15:14:33.732
54.0, -155.10113096237183, -601.7349432706833, -1888.4998816251755, -219.72660219669342, 0.09600000455975533, 0.0, 1.008000047877431, 0.0, 0.0, 0.0, 0.0, 0.0, 1.7075960737479448E9, 0.0, 2024-02-10 15:14:33.747
54.0, -143.37280470132828, -567.2680252790451, -1856.1871460080147, -204.1686183810234, 0.09600000455975533, 0.0, 1.008000047877431, 0.0, 0.0, 0.0, 0.0, 0.0, 1.7075960737479448E9, 0.0, 2024-02-10 15:14:33.747
55.0, -104.83687555789948, -511.0199299454689, -1764.993425488472, -171.13782197237015, 0.09600000455975533, 0.0, 1.008000047877431, 0.0, 0.0, 0.0, 0.0, 0.0, 1.707596073748291E9, 0.0, 2024-02-10 15:14:33.748
55.0, -142.1760367155075, -573.4912188053131, -1850.6820132732391, -204.64732557535172, 0.09600000455975533, 0.0, 1.008000047877431, 0.0, 0.0, 0.0, 0.0, 0.0, 1.707596073748291E9, 0.0, 2024-02-10 15:14:33.748
56.0, -152.94694858789444, -583.5440698862076, -1879.6437985301018, -214.93953025341034, 0.09600000455975533, 0.0, 1.008000047877431, 0.0, 0.0, 0.0, 0.0, 0.0, 1.707596073761881E9, 0.0, 2024-02-10 15:14:33.761
56.0, -108.9058867096901, -518.6792450547218, -1769.780497431755, -166.59010362625122, 0.09600000455975533, 0.0, 1.008000047877431, 0.0, 0.0, 0.0, 0.0, 0.0, 1.707596073761881E9, 0.0, 2024-02-10 15:14:33.761
57.0, -119.67679858207703, -545.4868479371071, -1805.9228906035423, -179.51519787311554, 0.09600000455975533, 0.0, 1.008000047877431, 0.0, 0.0, 0.0, 0.0, 0.0, 1.7075960737775283E9, 0.0, 2024-02-10 15:14:33.777
57.0, -166.59010362625122, -603.6497720479965, -1900.4675614833832, -220.44466298818588, 0.09600000455975533, 0.0, 1.008000047877431, 0.0, 0.0, 0.0, 0.0, 0.0, 1.7075960737775283E9, 0.0, 2024-02-10 15:14:33.777
58.0, -120.39485937356949, -534.2372288703918, -1806.880304992199, -179.03649067878723, 0.09600000455975533, 0.0, 1.008000047877431, 0.0, 0.0, 0.0, 0.0, 0.0, 1.7075960737782607E9, 0.0, 2024-02-10 15:14:33.778
58.0, -100.28915721178055, -513.8921731114388, -1774.8069229722023, -165.6326892375946, 0.09600000455975533, 0.0, 1.008000047877431, 0.0, 0.0, 0.0, 0.0, 0.0, 1.7075960737782607E9, 0.0, 2024-02-10 15:14:33.778
59.0, -147.20246225595474, -589.5279098153114, -1882.9947488904, -207.2802151441574, 0.09600000455975533, 0.0, 1.008000047877431, 0.0, 0.0, 0.0, 0.0, 0.0, 1.7075960737918785E9, 0.0, 2024-02-10 15:14:33.791
59.0, -139.5431471467018, -562.9596605300903, -1852.118134856224, -195.79124248027802, 0.09600000455975533, 0.0, 1.008000047877431, 0.0, 0.0, 0.0, 0.0, 0.0, 1.7075960737918785E9, 0.0, 2024-02-10 15:14:33.791
60.0, -100.28915721178055, -504.07867562770844, -1766.668900668621, -168.50493240356445, 0.09600000455975533, 0.0, 1.008000047877431, 0.0, 0.0, 0.0, 0.0, 0.0, 1.707596073807489E9, 0.0, 2024-02-10 15:14:33.807
60.0, -140.02185434103012, -567.7467324733734, -1858.341328382492, -214.70017665624619, 0.09600000455975533, 0.0, 1.008000047877431, 0.0, 0.0, 0.0, 0.0, 0.0, 1.707596073807489E9, 0.0, 2024-02-10 15:14:33.807
61.0, -163.95721405744553, -591.6820921897888, -1891.3721247911453, -220.20530939102173, 0.09600000455975533, -0.01600000075995922, 1.008000047877431, 0.0, 0.0, 0.0, 0.0, 0.0, 1.7075960738081596E9, 0.0, 2024-02-10 15:14:33.808
61.0, -107.23041152954102, -513.1741123199463, -1781.987530887127, -171.8558827638626, 0.09600000455975533, -0.01600000075995922, 1.008000047877431, 0.0, 0.0, 0.0, 0.0, 0.0, 1.7075960738081596E9, 0.0, 2024-02-10 15:14:33.808
62.0, -112.97489786148071, -535.4339968562126, -1817.4118632674217, -193.15835291147232, 0.09600000455975533, -0.01600000075995922, 1.008000047877431, 0.0, 0.0, 0.0, 0.0, 0.0, 1.707596073822077E9, 0.0, 2024-02-10 15:14:33.822
62.0, -169.46234679222107, -612.9845623373985, -1903.5791582465172, -228.34333169460297, 0.09600000455975533, -0.01600000075995922, 1.008000047877431, 0.0, 0.0, 0.0, 0.0, 0.0, 1.707596073822077E9, 0.0, 2024-02-10 15:14:33.822
63.0, -128.53288167715073, -541.8965439796448, -1815.4970344901085, -189.56804895401, 0.09600000455975533, -0.01600000075995922, 1.008000047877431, 0.0, 0.0, 0.0, 0.0, 0.0, 1.7075960738377771E9, 0.0, 2024-02-10 15:14:33.837
63.0, -112.4961906671524, -518.4398914575577, -1781.987530887127, -178.07907629013062, 0.09600000455975533, -0.01600000075995922, 1.008000047877431, 0.0, 0.0, 0.0, 0.0, 0.0, 1.7075960738377771E9, 0.0, 2024-02-10 15:14:33.837
64.0, -149.83535182476044, -589.2885562181473, -1888.0211744308472, -215.1788838505745, 0.09600000455975533, -0.01600000075995922, 1.008000047877431, 0.0, 0.0, 0.0, 0.0, 0.0, 1.7075960738382733E9, 0.0, 2024-02-10 15:14:33.838
64.0, -137.38896477222443, -559.369356572628, -1853.3149028420448, -203.45055758953094, 0.09600000455975533, -0.01600000075995922, 1.008000047877431, 0.0, 0.0, 0.0, 0.0, 0.0, 1.7075960738382733E9, 0.0, 2024-02-10 15:14:33.838
65.0, -97.4169140458107, -504.3180292248726, -1761.881828725338, -161.32432448863983, 0.09600000455975533, -0.01600000075995922, 1.008000047877431, 0.0, 0.0, 0.0, 0.0, 0.0, 1.7075960738517373E9, 0.0, 2024-02-10 15:14:33.851
65.0, -129.49029606580734, -564.3957821130753, -1846.3736485242844, -200.33896082639694, 0.09600000455975533, -0.01600000075995922, 1.008000047877431, 0.0, 0.0, 0.0, 0.0, 0.0, 1.7075960738517373E9, 0.0, 2024-02-10 15:14:33.851
66.0, -148.3992302417755, -583.5440698862076, -1881.7979809045792, -205.36538636684418, 0.09600000455975533, -0.01600000075995922, 1.008000047877431, 0.0, 0.0, 0.0, 0.0, 0.0, 1.7075960738675997E9, 0.0, 2024-02-10 15:14:33.867
66.0, -103.6401075720787, -501.44578605890274, -1776.2430445551872, -164.91462844610214, 0.09600000455975533, -0.01600000075995922, 1.008000047877431, 0.0, 0.0, 0.0, 0.0, 0.0, 1.7075960738675997E9, 0.0, 2024-02-10 15:14:33.867
67.0, -113.21425145864487, -537.58817923069, -1809.0344873666763, -185.9777449965477, 0.09600000455975533, -0.01600000075995922, 1.008000047877431, 0.0, 0.0, 0.0, 0.0, 0.0, 1.707596073868234E9, 0.0, 2024-02-10 15:14:33.868
67.0, -167.54751801490784, -605.3252472281456, -1908.8449373841286, -226.18914932012558, 0.09600000455975533, -0.01600000075995922, 1.008000047877431, 0.0, 0.0, 0.0, 0.0, 0.0, 1.707596073868234E9, 0.0, 2024-02-10 15:14:33.868
68.0, -128.53288167715073, -534.7159360647202, -1815.7363880872726, -191.96158492565155, 0.09600000455975533, -0.01600000075995922, 1.008000047877431, 0.0, 0.0, 0.0, 0.0, 0.0, 1.707596073882111E9, 0.0, 2024-02-10 15:14:33.882
68.0, -114.17166584730148, -528.4927425384521, -1795.3913323283195, -187.41386657953262, 0.09600000455975533, -0.01600000075995922, 1.008000047877431, 0.0, 0.0, 0.0, 0.0, 0.0, 1.707596073882111E9, 0.0, 2024-02-10 15:14:33.882
69.0, -165.87204283475876, -608.6761975884438, -1903.8185118436813, -236.24200040102005, 0.09600000455975533, -0.01600000075995922, 1.008000047877431, 0.0, 0.0, 0.0, 0.0, 0.0, 1.70759607389767E9, 0.0, 2024-02-10 15:14:33.897
69.0, -150.31405901908875, -568.4647932648659, -1856.4264996051788, -203.2112039923668, 0.09600000455975533, -0.01600000075995922, 1.008000047877431, 0.0, 0.0, 0.0, 0.0, 0.0, 1.70759607389767E9, 0.0, 2024-02-10 15:14:33.897
70.0, -102.92204678058624, -495.9406533241272, -1760.445707142353, -162.76044607162476, 0.09600000455975533, -0.01600000075995922, 1.008000047877431, 0.0, 0.0, 0.0, 0.0, 0.0, 1.7075960738982646E9, 0.0, 2024-02-10 15:14:33.898
70.0, -134.27736800909042, -568.2254396677017, -1850.442659676075, -198.4241320490837, 0.09600000455975533, -0.01600000075995922, 1.008000047877431, 0.0, 0.0, 0.0, 0.0, 0.0, 1.7075960738982646E9, 0.0, 2024-02-10 15:14:33.898
71.0, -161.32432448863983, -594.3149817585945, -1892.8082463741302, -211.10987269878387, 0.09600000455975533, 0.0, 1.008000047877431, 0.0, 0.0, 0.0, 0.0, 0.0, 1.7075960739119017E9, 0.0, 2024-02-10 15:14:33.911
71.0, -112.25683706998825, -501.92449325323105, -1764.5147182941437, -164.675274848938, 0.09600000455975533, 0.0, 1.008000047877431, 0.0, 0.0, 0.0, 0.0, 0.0, 1.7075960739119017E9, 0.0, 2024-02-10 15:14:33.911
72.0, -119.67679858207703, -539.2636544108391, -1811.1886697411537, -187.41386657953262, 0.0800000037997961, 0.0, 1.008000047877431, 0.0, 0.0, 0.0, 0.0, 0.0, 1.707596073927504E9, 0.0, 2024-02-10 15:14:33.927
72.0, -168.02622520923615, -617.5322806835175, -1922.4880924224854, -232.8910500407219, 0.0800000037997961, 0.0, 1.008000047877431, 0.0, 0.0, 0.0, 0.0, 0.0, 1.707596073927504E9, 0.0, 2024-02-10 15:14:33.927
73.0, -130.2083568572998, -529.4501569271088, -1808.3164265751839, -188.13192737102509, 0.0800000037997961, 0.0, 1.008000047877431, 0.0, 0.0, 0.0, 0.0, 0.0, 1.707596073928182E9, 0.0, 2024-02-10 15:14:33.928
73.0, -102.68269318342209, -515.5676482915878, -1767.6263150572777, -174.24941873550415, 0.0800000037997961, 0.0, 1.008000047877431, 0.0, 0.0, 0.0, 0.0, 0.0, 1.707596073928182E9, 0.0, 2024-02-10 15:14:33.928
74.0, -159.8882029056549, -611.0697335600853, -1903.8185118436813, -226.42850291728973, 0.0800000037997961, 0.0, 1.008000047877431, 0.0, 0.0, 0.0, 0.0, 0.0, 1.7075960739421632E9, 0.0, 2024-02-10 15:14:33.942
74.0, -154.86177736520767, -578.2782907485962, -1860.4955107569695, -201.5357288122177, 0.0800000037997961, 0.0, 1.008000047877431, 0.0, 0.0, 0.0, 0.0, 0.0, 1.7075960739421632E9, 0.0, 2024-02-10 15:14:33.942
75.0, -89.75759893655777, -480.14331591129303, -1734.8348722457886, -151.27147340774536, 0.0800000037997961, 0.0, 1.008000047877431, 0.0, 0.0, 0.0, 0.0, 0.0, 1.707596073958495E9, 0.0, 2024-02-10 15:14:33.958
75.0, -128.53288167715073, -572.2944508194923, -1853.3149028420448, -192.44029211997986, 0.0800000037997961, 0.0, 1.008000047877431, 0.0, 0.0, 0.0, 0.0, 0.0, 1.707596073958495E9, 0.0, 2024-02-10 15:14:33.958
76.0, -164.91462844610214, -598.3839929103851, -1903.339804649353, -213.26405507326126, 0.0800000037997961, 0.0, 1.008000047877431, 0.0, 0.0, 0.0, 0.0, 0.0, 1.7075960739585383E9, 0.0, 2024-02-10 15:14:33.958
76.0, -113.69295865297318, -504.7967364192009, -1762.8392431139946, -165.6326892375946, 0.0800000037997961, 0.0, 1.008000047877431, 0.0, 0.0, 0.0, 0.0, 0.0, 1.7075960739585383E9, 0.0, 2024-02-10 15:14:33.958
77.0, -114.88972663879395, -540.4604223966599, -1803.2900010347366, -186.93515938520432, 0.0800000037997961, 0.0, 1.008000047877431, 0.0, 0.0, 0.0, 0.0, 0.0, 1.707596073972022E9, 0.0, 2024-02-10 15:14:33.972
77.0, -164.43592125177383, -614.4206839203835, -1904.775926232338, -209.19504392147064, 0.0800000037997961, 0.0, 1.008000047877431, 0.0, 0.0, 0.0, 0.0, 0.0, 1.707596073972022E9, 0.0, 2024-02-10 15:14:33.972
78.0, -137.14961117506027, -529.2108033299446, -1792.0403819680214, -165.1539820432663, 0.0800000037997961, 0.0, 1.008000047877431, 0.0, 0.0, 0.0, 0.0, 0.0, 1.707596074004225E9, 0.0, 2024-02-10 15:14:34.004
78.0, -107.46976512670517, -507.4296259880066, -1748.2386736869812, -147.9205230474472, 0.0800000037997961, 0.0, 1.008000047877431, 0.0, 0.0, 0.0, 0.0, 0.0, 1.707596074004225E9, 0.0, 2024-02-10 15:14:34.004
79.0, -165.6326892375946, -602.2136504650116, -1895.9198431372643, -205.36538636684418, 0.0800000037997961, 0.0, 1.008000047877431, 0.0, 0.0, 0.0, 0.0, 0.0, 1.7075960740046687E9, 0.0, 2024-02-10 15:14:34.004
79.0, -157.01595973968506, -567.9860860705376, -1848.5278308987617, -182.3874410390854, 0.0800000037997961, 0.0, 1.008000047877431, 0.0, 0.0, 0.0, 0.0, 0.0, 1.7075960740046687E9, 0.0, 2024-02-10 15:14:34.004
80.0, -100.0498036146164, -476.7923655509949, -1721.1917172074318, -131.40512484312057, 0.0800000037997961, 0.0, 1.008000047877431, 0.0, 0.0, 0.0, 0.0, 0.0, 1.7075960740054855E9, 0.0, 2024-02-10 15:14:34.005
80.0, -140.73991513252258, -571.5763900279999, -1850.6820132732391, -189.56804895401, 0.0800000037997961, 0.0, 1.008000047877431, 0.0, 0.0, 0.0, 0.0, 0.0, 1.7075960740054855E9, 0.0, 2024-02-10 15:14:34.005
81.0, -171.61652916669846, -596.708517730236, -1894.005014359951, -207.75892233848572, 0.0800000037997961, -0.01600000075995922, 1.008000047877431, 0.0, 0.0, 0.0, 0.0, 0.0, 1.7075960740062578E9, 0.0, 2024-02-10 15:14:34.006
81.0, -113.45360505580902, -492.3503493666649, -1745.6057841181755, -147.68116945028305, 0.0800000037997961, -0.01600000075995922, 1.008000047877431, 0.0, 0.0, 0.0, 0.0, 0.0, 1.7075960740062578E9, 0.0, 2024-02-10 15:14:34.006
82.0, -122.54904174804688, -529.9288641214371, -1791.8010283708572, -170.65911477804184, 0.0800000037997961, -0.01600000075995922, 1.008000047877431, 0.0, 0.0, 0.0, 0.0, 0.0, 1.7075960740171323E9, 0.0, 2024-02-10 15:14:34.017
82.0, -183.344855427742, -623.5161206126213, -1918.658434867859, -217.33306622505188, 0.0800000037997961, -0.01600000075995922, 1.008000047877431, 0.0, 0.0, 0.0, 0.0, 0.0, 1.7075960740171323E9, 0.0, 2024-02-10 15:14:34.017
83.0, -146.48440146446228, -537.58817923069, -1799.220989882946, -164.43592125177383, 0.0800000037997961, -0.01600000075995922, 1.008000047877431, 0.0, 0.0, 0.0, 0.0, 0.0, 1.7075960740317109E9, 0.0, 2024-02-10 15:14:34.031
83.0, -106.99105793237686, -505.7541508078575, -1752.7863920331001, -154.86177736520767, 0.0800000037997961, -0.01600000075995922, 1.008000047877431, 0.0, 0.0, 0.0, 0.0, 0.0, 1.7075960740317109E9, 0.0, 2024-02-10 15:14:34.031
84.0, -158.45208132266998, -609.1549047827721, -1904.0578654408455, -218.05112701654434, 0.0800000037997961, -0.01600000075995922, 1.008000047877431, 0.0, 0.0, 0.0, 0.0, 0.0, 1.707596074047567E9, 0.0, 2024-02-10 15:14:34.047
84.0, -160.84561729431152, -575.8847547769547, -1865.7612898945808, -196.50930327177048, 0.0800000037997961, -0.01600000075995922, 1.008000047877431, 0.0, 0.0, 0.0, 0.0, 0.0, 1.707596074047567E9, 0.0, 2024-02-10 15:14:34.047
85.0, -92.15113490819931, -465.54274648427963, -1699.4105398654938, -135.9528431892395, 0.0800000037997961, -0.01600000075995922, 1.008000047877431, 0.0, 0.0, 0.0, 0.0, 0.0, 1.70759607404823E9, 0.0, 2024-02-10 15:14:34.048
85.0, -125.66063851118088, -578.038937151432, -1858.341328382492, -201.29637521505356, 0.0800000037997961, -0.01600000075995922, 1.008000047877431, 0.0, 0.0, 0.0, 0.0, 0.0, 1.70759607404823E9, 0.0, 2024-02-10 15:14:34.048
86.0, -187.65322017669678, -631.1754357218742, -1928.7112859487534, -224.75302773714066, 0.0800000037997961, -0.01600000075995922, 1.008000047877431, 0.0, 0.0, 0.0, 0.0, 0.0, 1.7075960740782273E9, 0.0, 2024-02-10 15:14:34.078
86.0, -106.03364354372025, -463.1492105126381, -1703.2401974201202, -129.01158887147903, 0.0800000037997961, -0.01600000075995922, 1.008000047877431, 0.0, 0.0, 0.0, 0.0, 0.0, 1.7075960740782273E9, 0.0, 2024-02-10 15:14:34.078
87.0, -90.71501332521439, -509.3444547653198, -1776.2430445551872, -165.6326892375946, 0.0800000037997961, -0.01600000075995922, 1.008000047877431, 0.0, 0.0, 0.0, 0.0, 0.0, 1.7075960740788753E9, 0.0, 2024-02-10 15:14:34.078
87.0, -181.66938024759293, -642.6644083857536, -1969.8801046609879, -246.29485148191452, 0.0800000037997961, -0.01600000075995922, 1.008000047877431, 0.0, 0.0, 0.0, 0.0, 0.0, 1.7075960740788753E9, 0.0, 2024-02-10 15:14:34.078
88.0, -139.5431471467018, -509.82316195964813, -1783.663006067276, -166.82945722341537, 0.0800000037997961, -0.01600000075995922, 1.008000047877431, 0.0, 0.0, 0.0, 0.0, 0.0, 1.7075960740796351E9, 0.0, 2024-02-10 15:14:34.079
88.0, -79.7047478556633, -467.2182216644287, -1711.3782197237015, -138.34637916088104, 0.0800000037997961, -0.01600000075995922, 1.008000047877431, 0.0, 0.0, 0.0, 0.0, 0.0, 1.7075960740796351E9, 0.0, 2024-02-10 15:14:34.079
89.0, -161.32432448863983, -636.9199220538139, -1941.1576730012894, -233.3697572350502, 0.0800000037997961, -0.01600000075995922, 1.008000047877431, 0.0, 0.0, 0.0, 0.0, 0.0, 1.7075960740919333E9, 0.0, 2024-02-10 15:14:34.091
89.0, -175.92489391565323, -583.5440698862076, -1878.6863841414452, -202.25378960371017, 0.0800000037997961, -0.01600000075995922, 1.008000047877431, 0.0, 0.0, 0.0, 0.0, 0.0, 1.7075960740919333E9, 0.0, 2024-02-10 15:14:34.091
90.0, -84.97052699327469, -448.78799468278885, -1677.86871612072, -127.0967600941658, 0.0800000037997961, -0.01600000075995922, 1.008000047877431, 0.0, 0.0, 0.0, 0.0, 0.0, 1.707596074107908E9, 0.0, 2024-02-10 15:14:34.107
90.0, -120.39485937356949, -582.8260090947151, -1868.8728866577148, -203.45055758953094, 0.0800000037997961, -0.01600000075995922, 1.008000047877431, 0.0, 0.0, 0.0, 0.0, 0.0, 1.707596074107908E9, 0.0, 2024-02-10 15:14:34.107
91.0, -187.17451298236847, -625.6703029870987, -1937.328015446663, -229.06139248609543, 0.0800000037997961, -0.01600000075995922, 1.008000047877431, 0.0, 0.0, 0.0, 0.0, 0.0, 1.7075960741082351E9, 0.0, 2024-02-10 15:14:34.108
91.0, -101.96463239192963, -457.8834313750267, -1711.3782197237015, -147.4418158531189, 0.0800000037997961, -0.01600000075995922, 1.008000047877431, 0.0, 0.0, 0.0, 0.0, 0.0, 1.7075960741082351E9, 0.0, 2024-02-10 15:14:34.108
92.0, -93.34790289402008, -519.1579522490501, -1781.5088236927986, -174.9674795269966, 0.0800000037997961, -0.01600000075995922, 1.008000047877431, 0.0, 0.0, 0.0, 0.0, 0.0, 1.7075960741219056E9, 0.0, 2024-02-10 15:14:34.121
92.0, -182.8661482334137, -661.3339889645576, -1973.4704086184502, -248.20968025922775, 0.0800000037997961, -0.01600000075995922, 1.008000047877431, 0.0, 0.0, 0.0, 0.0, 0.0, 1.7075960741219056E9, 0.0, 2024-02-10 15:14:34.121
93.0, -139.78250074386597, -516.5250626802444, -1788.450078010559, -169.70170038938522, 0.0800000037997961, -0.01600000075995922, 1.008000047877431, 0.0, 0.0, 0.0, 0.0, 0.0, 1.7075960741380477E9, 0.0, 2024-02-10 15:14:34.138
93.0, -84.73117339611053, -471.5265864133835, -1712.335634112358, -145.04827988147736, 0.0800000037997961, -0.01600000075995922, 1.008000047877431, 0.0, 0.0, 0.0, 0.0, 0.0, 1.7075960741380477E9, 0.0, 2024-02-10 15:14:34.138
94.0, -169.46234679222107, -640.2708724141121, -1943.3118553757668, -239.83230435848236, 0.0800000037997961, -0.01600000075995922, 1.008000047877431, 0.0, 0.0, 0.0, 0.0, 0.0, 1.7075960741382885E9, 0.0, 2024-02-10 15:14:34.138
94.0, -178.79713708162308, -587.373727440834, -1883.9521632790565, -216.37565183639526, 0.0800000037997961, -0.01600000075995922, 1.008000047877431, 0.0, 0.0, 0.0, 0.0, 0.0, 1.7075960741382885E9, 0.0, 2024-02-10 15:14:34.138
95.0, -82.09828382730484, -446.3944587111473, -1683.8525560498238, -137.86767196655273, 0.0800000037997961, -0.01600000075995922, 1.008000047877431, 0.0, 0.0, 0.0, 0.0, 0.0, 1.707596074151818E9, 0.0, 2024-02-10 15:14:34.151
95.0, -127.57546728849411, -586.1769594550133, -1876.0534945726395, -216.1362982392311, 0.0800000037997961, -0.01600000075995922, 1.008000047877431, 0.0, 0.0, 0.0, 0.0, 0.0, 1.707596074151818E9, 0.0, 2024-02-10 15:14:34.151
96.0, -185.9777449965477, -626.3883637785912, -1940.9183194041252, -230.49751406908035, 0.0800000037997961, -0.01600000075995922, 1.008000047877431, 0.0, 0.0, 0.0, 0.0, 0.0, 1.7075960741677046E9, 0.0, 2024-02-10 15:14:34.167
96.0, -102.20398598909378, -457.4047241806984, -1708.0272693634033, -140.26120793819427, 0.0800000037997961, -0.01600000075995922, 1.008000047877431, 0.0, 0.0, 0.0, 0.0, 0.0, 1.7075960741677046E9, 0.0, 2024-02-10 15:14:34.167
97.0, -85.9279413819313, -511.9773443341255, -1773.8495085835457, -166.1113964319229, 0.0800000037997961, -0.01600000075995922, 1.008000047877431, 0.0, 0.0, 0.0, 0.0, 0.0, 1.7075960741681538E9, 0.0, 2024-02-10 15:14:34.168
97.0, -178.79713708162308, -646.9727731347084, -1967.4865686893463, -237.67812198400497, 0.0800000037997961, -0.01600000075995922, 1.008000047877431, 0.0, 0.0, 0.0, 0.0, 0.0, 1.7075960741681538E9, 0.0, 2024-02-10 15:14:34.168
98.0, -138.1070255637169, -514.3708803057671, -1772.892094194889, -158.9307885169983, 0.0800000037997961, -0.01600000075995922, 1.008000047877431, 0.0, 0.0, 0.0, 0.0, 0.0, 1.7075960741822636E9, 0.0, 2024-02-10 15:14:34.182
98.0, -88.32147735357285, -477.51042634248734, -1716.4046452641487, -148.87793743610382, 0.0800000037997961, -0.01600000075995922, 1.008000047877431, 0.0, 0.0, 0.0, 0.0, 0.0, 1.7075960741822636E9, 0.0, 2024-02-10 15:14:34.182
99.0, -151.51082700490952, -630.2180213332176, -1939.4821978211403, -235.76329320669174, 0.0800000037997961, -0.01600000075995922, 1.008000047877431, 0.0, 0.0, 0.0, 0.0, 0.0, 1.7075960741970065E9, 0.0, 2024-02-10 15:14:34.197
99.0, -168.50493240356445, -578.2782907485962, -1875.8141409754753, -206.08344715833664, 0.0800000037997961, -0.01600000075995922, 1.008000047877431, 0.0, 0.0, 0.0, 0.0, 0.0, 1.7075960741970065E9, 0.0, 2024-02-10 15:14:34.197
0.0, -120.39485937356949, -579.2357051372528, -1874.3780193924904, -216.1362982392311, 0.0800000037997961, -0.01600000075995922, 1.008000047877431, 0.0, 0.0, 0.0, 0.0, 0.0, 1.7075960742128556E9, 0.0, 2024-02-10 15:14:34.212
0.0, -178.55778348445892, -621.8406454324722, -1945.7053913474083, -236.4813539981842, 0.0800000037997961, -0.01600000075995922, 1.008000047877431, 0.0, 0.0, 0.0, 0.0, 0.0, 1.7075960742128556E9, 0.0, 2024-02-10 15:14:34.212
1.0, -98.37432843446732, -457.16537058353424, -1698.4531254768372, -131.88383203744888, 0.0800000037997961, -0.01600000075995922, 1.008000047877431, 0.0, 0.0, 0.0, 0.0, 0.0, 1.707596074213287E9, 0.0, 2024-02-10 15:14:34.213
1.0, -87.36406296491623, -522.2695490121841, -1774.0888621807098, -167.06881082057953, 0.0800000037997961, -0.01600000075995922, 1.008000047877431, 0.0, 0.0, 0.0, 0.0, 0.0, 1.707596074213287E9, 0.0, 2024-02-10 15:14:34.213
2.0, -177.83972269296646, -652.2385522723198, -1966.0504471063614, -244.14066910743713, 0.0800000037997961, -0.01600000075995922, 1.008000047877431, 0.0, 0.0, 0.0, 0.0, 0.0, 1.7075960742270267E9, 0.0, 2024-02-10 15:14:34.227
2.0, -134.27736800909042, -511.73799073696136, -1776.003690958023, -167.06881082057953, 0.0800000037997961, -0.01600000075995922, 1.008000047877431, 0.0, 0.0, 0.0, 0.0, 0.0, 1.7075960742270267E9, 0.0, 2024-02-10 15:14:34.227
3.0, -74.91767591238022, -472.9627079963684, -1708.2666229605675, -148.63858383893967, 0.0800000037997961, -0.01600000075995922, 1.008000047877431, 0.0, 0.0, 0.0, 0.0, 0.0, 1.7075960742430067E9, 0.0, 2024-02-10 15:14:34.243
3.0, -154.38307017087936, -629.260606944561, -1946.1840985417366, -241.02907234430313, 0.0800000037997961, -0.01600000075995922, 1.008000047877431, 0.0, 0.0, 0.0, 0.0, 0.0, 1.7075960742430067E9, 0.0, 2024-02-10 15:14:34.243
4.0, -166.35075002908707, -583.7834234833717, -1879.4044449329376, -214.70017665624619, 0.0800000037997961, -0.01600000075995922, 1.008000047877431, 0.0, 0.0, 0.0, 0.0, 0.0, 1.7075960742432947E9, 0.0, 2024-02-10 15:14:34.243
4.0, -76.83250468969345, -446.15510511398315, -1679.544191300869, -135.23478239774704, 0.0800000037997961, -0.01600000075995922, 1.008000047877431, 0.0, 0.0, 0.0, 0.0, 0.0, 1.7075960742432947E9, 0.0, 2024-02-10 15:14:34.243
5.0, -120.8735665678978, -587.6130810379982, -1871.7451298236847, -211.58857989311218, 0.0800000037997961, -0.01600000075995922, 1.008000047877431, 0.0, 0.0, 0.0, 0.0, 0.0, 1.7075960742572713E9, 0.0, 2024-02-10 15:14:34.257
5.0, -184.78097701072693, -632.372203707695, -1957.673071205616, -252.75739860534668, 0.0800000037997961, -0.01600000075995922, 1.008000047877431, 0.0, 0.0, 0.0, 0.0, 0.0, 1.7075960742572713E9, 0.0, 2024-02-10 15:14:34.257
6.0, -106.51235073804855, -464.82468569278717, -1712.335634112358, -148.15987664461136, 0.0800000037997961, -0.01600000075995922, 1.008000047877431, 0.0, 0.0, 0.0, 0.0, 0.0, 1.7075960742729857E9, 0.0, 2024-02-10 15:14:34.272
6.0, -93.34790289402008, -528.0140353441238, -1793.4765035510063, -182.62679463624954, 0.0800000037997961, -0.01600000075995922, 1.008000047877431, 0.0, 0.0, 0.0, 0.0, 0.0, 1.7075960742729857E9, 0.0, 2024-02-10 15:14:34.272
7.0, -195.55188888311386, -674.259083211422, -1991.6612820029259, -261.3741281032562, 0.0800000037997961, -0.01600000075995922, 1.008000047877431, 0.0, 0.0, 0.0, 0.0, 0.0, 1.7075960742733164E9, 0.0, 2024-02-10 15:14:34.273
7.0, -148.3992302417755, -519.8760130405426, -1799.220989882946, -188.13192737102509, 0.0800000037997961, -0.01600000075995922, 1.008000047877431, 0.0, 0.0, 0.0, 0.0, 0.0, 1.7075960742733164E9, 0.0, 2024-02-10 15:14:34.273
8.0, -75.39638310670853, -478.46784073114395, -1719.994949221611, -158.69143491983414, 0.0800000037997961, -0.01600000075995922, 1.008000047877431, 0.0, 0.0, 0.0, 0.0, 0.0, 1.707596074286939E9, 0.0, 2024-02-10 15:14:34.286
8.0, -163.71786046028137, -650.0843698978424, -1957.673071205616, -254.43287378549576, 0.0800000037997961, -0.01600000075995922, 1.008000047877431, 0.0, 0.0, 0.0, 0.0, 0.0, 1.707596074286939E9, 0.0, 2024-02-10 15:14:34.286
9.0, -172.81329715251923, -588.3311418294907, -1885.1489312648773, -219.00854140520096, 0.0800000037997961, -0.01600000075995922, 1.008000047877431, 0.0, 0.0, 0.0, 0.0, 0.0, 1.7075960743029892E9, 0.0, 2024-02-10 15:14:34.302
9.0, -78.74733346700668, -448.5486410856247, -1683.8525560498238, -144.56957268714905, 0.0800000037997961, -0.01600000075995922, 1.008000047877431, 0.0, 0.0, 0.0, 0.0, 0.0, 1.7075960743029892E9, 0.0, 2024-02-10 15:14:34.302
10.0, -127.0967600941658, -598.8627001047134, -1880.12250572443, -223.31690615415573, 0.0800000037997961, -0.01600000075995922, 1.008000047877431, 0.0, 0.0, 0.0, 0.0, 0.0, 1.7075960743032904E9, 0.0, 2024-02-10 15:14:34.303
10.0, -182.62679463624954, -627.8244853615761, -1950.4924632906914, -243.90131551027298, 0.0800000037997961, -0.01600000075995922, 1.008000047877431, 0.0, 0.0, 0.0, 0.0, 0.0, 1.7075960743032904E9, 0.0, 2024-02-10 15:14:34.303
11.0, -103.40075397491455, -458.362138569355, -1714.0111092925072, -152.70759499073029, 0.0800000037997961, -0.01600000075995922, 1.008000047877431, 0.0, 0.0, 0.0, 0.0, 0.0, 1.7075960743170338E9, 0.0, 2024-02-10 15:14:34.317
11.0, -93.34790289402008, -529.2108033299446, -1783.1842988729477, -182.14808744192123, 0.0800000037997961, -0.01600000075995922, 1.008000047877431, 0.0, 0.0, 0.0, 0.0, 0.0, 1.7075960743170338E9, 0.0, 2024-02-10 15:14:34.317
12.0, -185.9777449965477, -659.6585137844086, -1984.241320490837, -261.85283529758453, 0.0800000037997961, -0.01600000075995922, 1.008000047877431, 0.0, 0.0, 0.0, 0.0, 0.0, 1.7075960743330631E9, 0.0, 2024-02-10 15:14:34.333
12.0, -134.99542880058289, -511.73799073696136, -1787.2533100247383, -178.07907629013062, 0.0800000037997961, -0.01600000075995922, 1.008000047877431, 0.0, 0.0, 0.0, 0.0, 0.0, 1.7075960743330631E9, 0.0, 2024-02-10 15:14:34.333
13.0, -81.85893023014069, -484.9303878545761, -1718.558827638626, -155.34048455953598, 0.0800000037997961, -0.01600000075995922, 1.008000047877431, 0.0, 0.0, 0.0, 0.0, 0.0, 1.7075960743332758E9, 0.0, 2024-02-10 15:14:34.333
13.0, -159.64884930849075, -644.1005299687386, -1956.4763032197952, -252.27869141101837, 0.0800000037997961, -0.01600000075995922, 1.008000047877431, 0.0, 0.0, 0.0, 0.0, 0.0, 1.7075960743332758E9, 0.0, 2024-02-10 15:14:34.333
14.0, -170.65911477804184, -588.0917882323265, -1883.4734560847282, -220.44466298818588, 0.0800000037997961, -0.01600000075995922, 1.008000047877431, 0.0, 0.0, 0.0, 0.0, 0.0, 1.7075960743468964E9, 0.0, 2024-02-10 15:14:34.346
14.0, -71.80607914924622, -439.93191158771515, -1682.8951416611671, -139.30379354953766, 0.0800000037997961, -0.01600000075995922, 1.008000047877431, 0.0, 0.0, 0.0, 0.0, 0.0, 1.7075960743468964E9, 0.0, 2024-02-10 15:14:34.346
15.0, -114.88972663879395, -582.1079483032227, -1881.558627307415, -221.16272377967834, 0.0800000037997961, -0.01600000075995922, 1.008000047877431, 0.0, 0.0, 0.0, 0.0, 0.0, 1.707596074362468E9, 0.0, 2024-02-10 15:14:34.362
15.0, -191.96158492565155, -635.483800470829, -1953.8434136509895, -247.01291227340698, 0.0800000037997961, -0.01600000075995922, 1.008000047877431, 0.0, 0.0, 0.0, 0.0, 0.0, 1.707596074362468E9, 0.0, 2024-02-10 15:14:34.362
16.0, -106.75170433521271, -461.9524425268173, -1709.9420981407166, -148.63858383893967, 0.0800000037997961, -0.01600000075995922, 1.008000047877431, 0.0, 0.0, 0.0, 0.0, 0.0, 1.707596074363194E9, 0.0, 2024-02-10 15:14:34.363
16.0, -93.58725649118423, -520.3547202348709, -1781.7481772899628, -184.78097701072693, 0.0800000037997961, -0.01600000075995922, 1.008000047877431, 0.0, 0.0, 0.0, 0.0, 0.0, 1.707596074363194E9, 0.0, 2024-02-10 15:14:34.363
17.0, -185.02033060789108, -659.1798065900803, -1984.001966893673, -259.21994572877884, 0.0800000037997961, -0.01600000075995922, 1.008000047877431, 0.0, 0.0, 0.0, 0.0, 0.0, 1.707596074376827E9, 0.0, 2024-02-10 15:14:34.376
17.0, -139.30379354953766, -512.4560515284538, -1792.7584427595139, -178.55778348445892, 0.0800000037997961, -0.01600000075995922, 1.008000047877431, 0.0, 0.0, 0.0, 0.0, 0.0, 1.707596074376827E9, 0.0, 2024-02-10 15:14:34.376
18.0, -69.65189677476883, -467.9362824559212, -1711.6175733208656, -151.27147340774536, 0.0800000037997961, -0.01600000075995922, 1.008000047877431, 0.0, 0.0, 0.0, 0.0, 0.0, 1.7075960743924768E9, 0.0, 2024-02-10 15:14:34.392
18.0, -151.27147340774536, -628.0638389587402, -1950.7318168878555, -244.14066910743713, 0.0800000037997961, -0.01600000075995922, 1.008000047877431, 0.0, 0.0, 0.0, 0.0, 0.0, 1.7075960743924768E9, 0.0, 2024-02-10 15:14:34.392
19.0, -166.82945722341537, -583.5440698862076, -1881.0799201130867, -210.63116550445557, 0.0800000037997961, -0.01600000075995922, 1.008000047877431, 0.0, 0.0, 0.0, 0.0, 0.0, 1.7075960743931823E9, 0.0, 2024-02-10 15:14:34.393
19.0, -78.26862627267838, -441.6073867678642, -1679.7835448980331, -137.38896477222443, 0.0800000037997961, -0.01600000075995922, 1.008000047877431, 0.0, 0.0, 0.0, 0.0, 0.0, 1.7075960743931823E9, 0.0, 2024-02-10 15:14:34.393
20.0, -117.52261620759964, -582.3473019003868, -1875.0960801839828, -221.64143097400665, 0.0800000037997961, -0.01600000075995922, 1.008000047877431, 0.0, 0.0, 0.0, 0.0, 0.0, 1.7075960744071949E9, 0.0, 2024-02-10 15:14:34.407
20.0, -192.2009385228157, -640.9889332056046, -1951.449877679348, -243.18325471878052, 0.0800000037997961, -0.01600000075995922, 1.008000047877431, 0.0, 0.0, 0.0, 0.0, 0.0, 1.7075960744071949E9, 0.0, 2024-02-10 15:14:34.407
21.0, -107.23041152954102, -461.23438173532486, -1708.0272693634033, -144.3302190899849, 0.0800000037997961, 0.0, 1.008000047877431, 0.0, 0.0, 0.0, 0.0, 0.0, 1.707596074422799E9, 0.0, 2024-02-10 15:14:34.422
21.0, -95.50208526849747, -521.0727810263634, -1790.1255531907082, -185.4990378022194, 0.0800000037997961, 0.0, 1.008000047877431, 0.0, 0.0, 0.0, 0.0, 0.0, 1.707596074422799E9, 0.0, 2024-02-10 15:14:34.422
22.0, -184.30226981639862, -662.5307569503784, -1987.113563656807, -258.9805921316147, 0.0800000037997961, 0.0, 1.008000047877431, 0.0, 0.0, 0.0, 0.0, 0.0, 1.707596074423364E9, 0.0, 2024-02-10 15:14:34.423
22.0, -139.5431471467018, -517.9611842632294, -1791.322321176529, -178.31842988729477, 0.0800000037997961, 0.0, 1.008000047877431, 0.0, 0.0, 0.0, 0.0, 0.0, 1.707596074423364E9, 0.0, 2024-02-10 15:14:34.423
23.0, -65.34353202581406, -463.86727130413055, -1709.9420981407166, -141.6973295211792, 0.0800000037997961, 0.0, 1.008000047877431, 0.0, 0.0, 0.0, 0.0, 0.0, 1.7075960744373562E9, 0.0, 2024-02-10 15:14:34.437
23.0, -155.34048455953598, -631.8934965133667, -1951.2105240821838, -241.02907234430313, 0.0800000037997961, 0.0, 1.008000047877431, 0.0, 0.0, 0.0, 0.0, 0.0, 1.7075960744373562E9, 0.0, 2024-02-10 15:14:34.437
24.0, -162.9997996687889, -575.1666939854622, -1880.6012129187584, -207.75892233848572, 0.0800000037997961, 0.0, 1.008000047877431, 0.0, 0.0, 0.0, 0.0, 0.0, 1.7075960744527805E9, 0.0, 2024-02-10 15:14:34.452
24.0, -78.50797986984253, -442.804154753685, -1672.1242297887802, -135.9528431892395, 0.0800000037997961, 0.0, 1.008000047877431, 0.0, 0.0, 0.0, 0.0, 0.0, 1.7075960744527805E9, 0.0, 2024-02-10 15:14:34.452
25.0, -114.88972663879395, -584.7408378720284, -1869.3515938520432, -212.30664068460464, 0.0800000037997961, 0.0, 1.008000047877431, 0.0, 0.0, 0.0, 0.0, 0.0, 1.7075960744532375E9, 0.0, 2024-02-10 15:14:34.453
25.0, -183.58420902490616, -628.7818997502327, -1947.1415129303932, -243.42260831594467, 0.0800000037997961, 0.0, 1.008000047877431, 0.0, 0.0, 0.0, 0.0, 0.0, 1.7075960744532375E9, 0.0, 2024-02-10 15:14:34.453
26.0, -99.33174282312393, -465.3033928871155, -1714.2504628896713, -145.2876334786415, 0.0800000037997961, 0.0, 1.008000047877431, 0.0, 0.0, 0.0, 0.0, 0.0, 1.7075960744667964E9, 0.0, 2024-02-10 15:14:34.466
26.0, -79.46539425849915, -512.2166979312897, -1774.0888621807098, -169.46234679222107, 0.0800000037997961, 0.0, 1.008000047877431, 0.0, 0.0, 0.0, 0.0, 0.0, 1.7075960744667964E9, 0.0, 2024-02-10 15:14:34.466
27.0, -169.22299319505692, -646.9727731347084, -1978.9755413532257, -251.32127702236176, 0.0800000037997961, 0.0, 1.008000047877431, 0.0, 0.0, 0.0, 0.0, 0.0, 1.7075960744829285E9, 0.0, 2024-02-10 15:14:34.482
27.0, -142.41539031267166, -522.2695490121841, -1787.7320172190666, -172.81329715251923, 0.0800000037997961, 0.0, 1.008000047877431, 0.0, 0.0, 0.0, 0.0, 0.0, 1.7075960744829285E9, 0.0, 2024-02-10 15:14:34.482
28.0, -75.15702950954437, -473.20206159353256, -1712.8143413066864, -150.31405901908875, 0.0800000037997961, 0.0, 1.008000047877431, 0.0, 0.0, 0.0, 0.0, 0.0, 1.7075960744832852E9, 0.0, 2024-02-10 15:14:34.483
28.0, -151.0321198105812, -627.8244853615761, -1940.678965806961, -238.6355363726616, 0.0800000037997961, 0.0, 1.008000047877431, 0.0, 0.0, 0.0, 0.0, 0.0, 1.7075960744832852E9, 0.0, 2024-02-10 15:14:34.483
29.0, -163.71786046028137, -585.4588986635208, -1879.883152127266, -207.99827593564987, 0.0800000037997961, 0.0, 1.008000047877431, 0.0, 0.0, 0.0, 0.0, 0.0, 1.7075960744968896E9, 0.0, 2024-02-10 15:14:34.496
29.0, -78.74733346700668, -442.08609396219254, -1675.4751801490784, -129.49029606580734, 0.0800000037997961, 0.0, 1.008000047877431, 0.0, 0.0, 0.0, 0.0, 0.0, 1.7075960744968896E9, 0.0, 2024-02-10 15:14:34.496
30.0, -116.08649462461472, -580.4324731230736, -1866.2399970889091, -210.3918119072914, 0.0800000037997961, 0.0, 1.008000047877431, 0.0, 0.0, 0.0, 0.0, 0.0, 1.7075960745124896E9, 0.0, 2024-02-10 15:14:34.512
30.0, -179.51519787311554, -619.4471094608307, -1939.7215514183044, -235.04523241519928, 0.0800000037997961, 0.0, 1.008000047877431, 0.0, 0.0, 0.0, 0.0, 0.0, 1.7075960745124896E9, 0.0, 2024-02-10 15:14:34.512
31.0, -100.76786440610886, -463.6279177069664, -1714.0111092925072, -144.56957268714905, 0.0800000037997961, 0.0, 1.008000047877431, 0.0, 0.0, 0.0, 0.0, 0.0, 1.7075960745131595E9, 0.0, 2024-02-10 15:14:34.513
31.0, -92.15113490819931, -514.1315267086029, -1776.9611053466797, -181.90873384475708, 0.0800000037997961, 0.0, 1.008000047877431, 0.0, 0.0, 0.0, 0.0, 0.0, 1.7075960745131595E9, 0.0, 2024-02-10 15:14:34.513
32.0, -184.30226981639862, -651.041784286499, -1966.7685078978539, -252.51804500818253, 0.0800000037997961, 0.0, 1.008000047877431, 0.0, 0.0, 0.0, 0.0, 0.0, 1.7075960745267785E9, 0.0, 2024-02-10 15:14:34.526
32.0, -137.62831836938858, -525.8598529696465, -1798.5029290914536, -179.51519787311554, 0.0800000037997961, 0.0, 1.008000047877431, 0.0, 0.0, 0.0, 0.0, 0.0, 1.7075960745267785E9, 0.0, 2024-02-10 15:14:34.526
33.0, -85.20988059043884, -478.2284871339798, -1721.67042440176, -155.34048455953598, 0.0800000037997961, 0.0, 1.008000047877431, 0.0, 0.0, 0.0, 0.0, 0.0, 1.707596074542462E9, 0.0, 2024-02-10 15:14:34.542
33.0, -157.2553133368492, -623.037413418293, -1925.8390427827835, -226.42850291728973, 0.0800000037997961, 0.0, 1.008000047877431, 0.0, 0.0, 0.0, 0.0, 0.0, 1.707596074542462E9, 0.0, 2024-02-10 15:14:34.542
34.0, -156.05854535102844, -578.5176443457603, -1872.223837018013, -201.0570216178894, 0.0800000037997961, 0.0, 1.008000047877431, 0.0, 0.0, 0.0, 0.0, 0.0, 1.7075960745431333E9, 0.0, 2024-02-10 15:14:34.543
34.0, -91.91178131103516, -474.6381831765175, -1718.0801204442978, -152.70759499073029, 0.0800000037997961, 0.0, 1.008000047877431, 0.0, 0.0, 0.0, 0.0, 0.0, 1.7075960745431333E9, 0.0, 2024-02-10 15:14:34.543
35.0, -133.3199536204338, -585.9376058578491, -1856.665853202343, -211.82793349027634, 0.0800000037997961, 0.0, 1.008000047877431, 0.0, 0.0, 0.0, 0.0, 0.0, 1.7075960745567677E9, 0.0, 2024-02-10 15:14:34.556
35.0, -173.05265074968338, -616.3355126976967, -1915.3074845075607, -226.90721011161804, 0.0800000037997961, 0.0, 1.008000047877431, 0.0, 0.0, 0.0, 0.0, 0.0, 1.7075960745567677E9, 0.0, 2024-02-10 15:14:34.556
36.0, -117.04390901327133, -506.9509187936783, -1754.9405744075775, -169.70170038938522, 0.0800000037997961, 0.0, 1.008000047877431, 0.0, 0.0, 0.0, 0.0, 0.0, 1.7075960745730572E9, 0.0, 2024-02-10 15:14:34.573
36.0, -110.58136188983917, -532.5617536902428, -1798.9816362857819, -183.58420902490616, 0.0800000037997961, 0.0, 1.008000047877431, 0.0, 0.0, 0.0, 0.0, 0.0, 1.7075960745730572E9, 0.0, 2024-02-10 15:14:34.573
37.0, -174.01006513834, -626.8670709729195, -1940.678965806961, -240.55036514997482, 0.0800000037997961, 0.0, 1.008000047877431, 0.0, 0.0, 0.0, 0.0, 0.0, 1.707596074573388E9, 0.0, 2024-02-10 15:14:34.573
37.0, -136.19219678640366, -536.3914112448692, -1811.667376935482, -190.04675614833832, 0.0800000037997961, 0.0, 1.008000047877431, 0.0, 0.0, 0.0, 0.0, 0.0, 1.707596074573388E9, 0.0, 2024-02-10 15:14:34.573
38.0, -96.93820685148239, -505.99350440502167, -1756.6160495877266, -169.22299319505692, 0.0800000037997961, 0.0, 1.008000047877431, 0.0, 0.0, 0.0, 0.0, 0.0, 1.7075960745869896E9, 0.0, 2024-02-10 15:14:34.586
38.0, -150.31405901908875, -612.2665015459061, -1910.5204125642776, -227.38591730594635, 0.0800000037997961, 0.0, 1.008000047877431, 0.0, 0.0, 0.0, 0.0, 0.0, 1.7075960745869896E9, 0.0, 2024-02-10 15:14:34.586
39.0, -148.87793743610382, -573.9699259996414, -1867.1974114775658, -205.36538636684418, 0.0800000037997961, 0.0, 1.008000047877431, 0.0, 0.0, 0.0, 0.0, 0.0, 1.7075960746027157E9, 0.0, 2024-02-10 15:14:34.602
39.0, -90.95436692237854, -478.46784073114395, -1723.3458995819092, -151.51082700490952, 0.0800000037997961, 0.0, 1.008000047877431, 0.0, 0.0, 0.0, 0.0, 0.0, 1.7075960746027157E9, 0.0, 2024-02-10 15:14:34.602
40.0, -132.12318563461304, -579.475058734417, -1855.4690852165222, -210.87051910161972, 0.0800000037997961, 0.0, 1.008000047877431, 0.0, 0.0, 0.0, 0.0, 0.0, 1.7075960746033344E9, 0.0, 2024-02-10 15:14:34.603
40.0, -162.76044607162476, -603.1710648536682, -1902.8610974550247, -221.4020773768425, 0.0800000037997961, 0.0, 1.008000047877431, 0.0, 0.0, 0.0, 0.0, 0.0, 1.7075960746033344E9, 0.0, 2024-02-10 15:14:34.603
41.0, -98.85303562879562, -483.73361986875534, -1743.9303089380264, -151.75018060207367, 0.0800000037997961, 0.0, 1.008000047877431, 0.0, 0.0, 0.0, 0.0, 0.0, 1.7075960746171975E9, 0.0, 2024-02-10 15:14:34.617
41.0, -92.86919569969177, -523.9450241923332, -1791.0829675793648, -181.19067305326462, 0.0800000037997961, 0.0, 1.008000047877431, 0.0, 0.0, 0.0, 0.0, 0.0, 1.7075960746171975E9, 0.0, 2024-02-10 15:14:34.617
42.0, -159.64884930849075, -619.2077558636665, -1932.0622363090515, -236.4813539981842, 0.0800000037997961, 0.0, 1.008000047877431, 0.0, 0.0, 0.0, 0.0, 0.0, 1.7075960746325004E9, 0.0, 2024-02-10 15:14:34.632
42.0, -123.9851633310318, -525.141792178154, -1793.7158571481705, -175.44618672132492, 0.0800000037997961, 0.0, 1.008000047877431, 0.0, 0.0, 0.0, 0.0, 0.0, 1.7075960746325004E9, 0.0, 2024-02-10 15:14:34.632
43.0, -82.337637424469, -485.8878022432327, -1744.648369729519, -157.73402053117752, 0.0800000037997961, 0.0, 1.008000047877431, 0.0, 0.0, 0.0, 0.0, 0.0, 1.7075960746332047E9, 0.0, 2024-02-10 15:14:34.633
43.0, -153.42565578222275, -607.9581367969513, -1912.9139485359192, -231.69428205490112, 0.0800000037997961, 0.0, 1.008000047877431, 0.0, 0.0, 0.0, 0.0, 0.0, 1.7075960746332047E9, 0.0, 2024-02-10 15:14:34.633
44.0, -153.42565578222275, -570.3796220421791, -1865.2825827002525, -205.36538636684418, 0.0800000037997961, 0.0, 1.008000047877431, 0.0, 0.0, 0.0, 0.0, 0.0, 1.7075960746469977E9, 0.0, 2024-02-10 15:14:34.646
44.0, -79.94410145282745, -466.97886806726456, -1715.447230875492, -144.8089262843132, 0.0800000037997961, 0.0, 1.008000047877431, 0.0, 0.0, 0.0, 0.0, 0.0, 1.7075960746469977E9, 0.0, 2024-02-10 15:14:34.646
45.0, -122.07033455371857, -570.140268445015, -1856.665853202343, -210.87051910161972, 0.0800000037997961, 0.0, 1.008000047877431, 0.0, 0.0, 0.0, 0.0, 0.0, 1.7075960746625586E9, 0.0, 2024-02-10 15:14:34.662
45.0, -164.91462844610214, -601.9742968678474, -1907.4088158011436, -226.42850291728973, 0.0800000037997961, 0.0, 1.008000047877431, 0.0, 0.0, 0.0, 0.0, 0.0, 1.7075960746625586E9, 0.0, 2024-02-10 15:14:34.662
46.0, -96.93820685148239, -481.10073029994965, -1740.1006513834, -151.75018060207367, 0.0800000037997961, 0.0, 1.008000047877431, 0.0, 0.0, 0.0, 0.0, 0.0, 1.707596074663237E9, 0.0, 2024-02-10 15:14:34.663
46.0, -99.09238922595978, -519.6366594433784, -1776.9611053466797, -168.2655788064003, 0.0800000037997961, 0.0, 1.008000047877431, 0.0, 0.0, 0.0, 0.0, 0.0, 1.707596074663237E9, 0.0, 2024-02-10 15:14:34.663
47.0, -164.675274848938, -615.3780983090401, -1929.9080539345741, -233.8484644293785, 0.0800000037997961, 0.0, 1.008000047877431, 0.0, 0.0, 0.0, 0.0, 0.0, 1.7075960746768107E9, 0.0, 2024-02-10 15:14:34.676
47.0, -121.83098095655441, -516.5250626802444, -1798.2635754942894, -176.6429547071457, 0.0800000037997961, 0.0, 1.008000047877431, 0.0, 0.0, 0.0, 0.0, 0.0, 1.7075960746768107E9, 0.0, 2024-02-10 15:14:34.676
48.0, -81.14086943864822, -484.9303878545761, -1736.989054620266, -151.51082700490952, 0.0800000037997961, 0.0, 1.008000047877431, 0.0, 0.0, 0.0, 0.0, 0.0, 1.7075960746925485E9, 0.0, 2024-02-10 15:14:34.692
48.0, -152.46824139356613, -612.7452087402344, -1912.9139485359192, -226.18914932012558, 0.0800000037997961, 0.0, 1.008000047877431, 0.0, 0.0, 0.0, 0.0, 0.0, 1.7075960746925485E9, 0.0, 2024-02-10 15:14:34.692
49.0, -150.0747054219246, -577.5602299571037, -1869.112240254879, -210.63116550445557, 0.0800000037997961, 0.0, 1.008000047877431, 0.0, 0.0, 0.0, 0.0, 0.0, 1.7075960746932049E9, 0.0, 2024-02-10 15:14:34.693
49.0, -84.25246620178223, -474.6381831765175, -1728.3723251223564, -159.64884930849075, 0.0800000037997961, 0.0, 1.008000047877431, 0.0, 0.0, 0.0, 0.0, 0.0, 1.7075960746932049E9, 0.0, 2024-02-10 15:14:34.693
50.0, -122.07033455371857, -570.140268445015, -1857.6232675909996, -215.6575910449028, 0.0800000037997961, 0.0, 1.008000047877431, 0.0, 0.0, 0.0, 0.0, 0.0, 1.7075960747068467E9, 0.0, 2024-02-10 15:14:34.706
50.0, -169.94105398654938, -610.591026365757, -1914.3500701189041, -238.15682917833328, 0.0800000037997961, 0.0, 1.008000047877431, 0.0, 0.0, 0.0, 0.0, 0.0, 1.7075960747068467E9, 0.0, 2024-02-10 15:14:34.706
51.0, -108.18782591819763, -494.2651781439781, -1757.5734639763832, -168.7442860007286, 0.0800000037997961, -0.01600000075995922, 1.008000047877431, 0.0, 0.0, 0.0, 0.0, 0.0, 1.7075960747227857E9, 0.0, 2024-02-10 15:14:34.722
51.0, -105.07622915506363, -533.9978752732277, -1800.1784042716026, -189.56804895401, 0.0800000037997961, -0.01600000075995922, 1.008000047877431, 0.0, 0.0, 0.0, 0.0, 0.0, 1.7075960747227857E9, 0.0, 2024-02-10 15:14:34.722
52.0, -176.16424751281738, -627.5851317644119, -1937.567369043827, -243.42260831594467, 0.0800000037997961, -0.01600000075995922, 1.008000047877431, 0.0, 0.0, 0.0, 0.0, 0.0, 1.7075960747233307E9, 0.0, 2024-02-10 15:14:34.723
52.0, -130.92641764879227, -528.4927425384521, -1798.9816362857819, -179.27584427595139, 0.0800000037997961, -0.01600000075995922, 1.008000047877431, 0.0, 0.0, 0.0, 0.0, 0.0, 1.7075960747233307E9, 0.0, 2024-02-10 15:14:34.723
53.0, -95.50208526849747, -491.6322885751724, -1738.1858226060867, -156.2978989481926, 0.0800000037997961, -0.01600000075995922, 1.008000047877431, 0.0, 0.0, 0.0, 0.0, 0.0, 1.7075960747372153E9, 0.0, 2024-02-10 15:14:34.737
53.0, -155.34048455953598, -608.1974903941154, -1904.2972190380096, -224.9923813343048, 0.0800000037997961, -0.01600000075995922, 1.008000047877431, 0.0, 0.0, 0.0, 0.0, 0.0, 1.7075960747372153E9, 0.0, 2024-02-10 15:14:34.737
54.0, -150.0747054219246, -566.0712572932243, -1854.7510244250298, -199.62090003490448, 0.0800000037997961, -0.01600000075995922, 1.008000047877431, 0.0, 0.0, 0.0, 0.0, 0.0, 1.7075960747527206E9, 0.0, 2024-02-10 15:14:34.752
54.0, -91.43307411670685, -472.9627079963684, -1717.1227060556412, -147.20246225595474, 0.0800000037997961, -0.01600000075995922, 1.008000047877431, 0.0, 0.0, 0.0, 0.0, 0.0, 1.7075960747527206E9, 0.0, 2024-02-10 15:14:34.752
55.0, -132.3625392317772, -578.038937151432, -1850.6820132732391, -201.29637521505356, 0.0800000037997961, -0.01600000075995922, 1.008000047877431, 0.0, 0.0, 0.0, 0.0, 0.0, 1.707596074753268E9, 0.0, 2024-02-10 15:14:34.753
55.0, -174.72812592983246, -611.5484407544136, -1915.5468381047249, -229.30074608325958, 0.0800000037997961, -0.01600000075995922, 1.008000047877431, 0.0, 0.0, 0.0, 0.0, 0.0, 1.707596074753268E9, 0.0, 2024-02-10 15:14:34.753
56.0, -104.59752196073532, -486.6058630347252, -1744.1696625351906, -155.57983815670013, 0.0800000037997961, -0.01600000075995922, 1.008000047877431, 0.0, 0.0, 0.0, 0.0, 0.0, 1.7075960747671778E9, 0.0, 2024-02-10 15:14:34.767
56.0, -111.77812987565994, -534.9552896618843, -1794.9126251339912, -182.14808744192123, 0.0800000037997961, -0.01600000075995922, 1.008000047877431, 0.0, 0.0, 0.0, 0.0, 0.0, 1.7075960747671778E9, 0.0, 2024-02-10 15:14:34.767
57.0, -173.05265074968338, -634.5263860821724, -1930.1474075317383, -230.7368676662445, 0.0800000037997961, -0.01600000075995922, 1.008000047877431, 0.0, 0.0, 0.0, 0.0, 0.0, 1.70759607478297E9, 0.0, 2024-02-10 15:14:34.782
57.0, -133.79866081476212, -530.1682177186012, -1793.4765035510063, -174.72812592983246, 0.0800000037997961, -0.01600000075995922, 1.008000047877431, 0.0, 0.0, 0.0, 0.0, 0.0, 1.70759607478297E9, 0.0, 2024-02-10 15:14:34.782
58.0, -106.51235073804855, -506.2328580021858, -1759.4882927536964, -182.14808744192123, 0.0800000037997961, -0.01600000075995922, 1.008000047877431, 0.0, 0.0, 0.0, 0.0, 0.0, 1.7075960747835567E9, 0.0, 2024-02-10 15:14:34.783
58.0, -156.05854535102844, -616.0961591005325, -1912.9139485359192, -234.32717162370682, 0.0800000037997961, -0.01600000075995922, 1.008000047877431, 0.0, 0.0, 0.0, 0.0, 0.0, 1.7075960747835567E9, 0.0, 2024-02-10 15:14:34.783
59.0, -148.87793743610382, -564.8744893074036, -1857.8626211881638, -199.14219284057617, 0.0800000037997961, -0.01600000075995922, 1.008000047877431, 0.0, 0.0, 0.0, 0.0, 0.0, 1.7075960747972195E9, 0.0, 2024-02-10 15:14:34.797
59.0, -89.75759893655777, -474.39882957935333, -1713.771755695343, -143.85151189565659, 0.0800000037997961, -0.01600000075995922, 1.008000047877431, 0.0, 0.0, 0.0, 0.0, 0.0, 1.7075960747972195E9, 0.0, 2024-02-10 15:14:34.797
60.0, -130.92641764879227, -573.251865208149, -1847.5704165101051, -197.4667176604271, 0.0800000037997961, -0.01600000075995922, 1.008000047877431, 0.0, 0.0, 0.0, 0.0, 0.0, 1.707596074812712E9, 0.0, 2024-02-10 15:14:34.812
60.0, -162.5210924744606, -599.82011449337, -1902.3823902606964, -215.6575910449028, 0.0800000037997961, -0.01600000075995922, 1.008000047877431, 0.0, 0.0, 0.0, 0.0, 0.0, 1.707596074812712E9, 0.0, 2024-02-10 15:14:34.812
61.0, -110.10265469551086, -494.5045317411423, -1742.2548337578773, -155.57983815670013, 0.0800000037997961, 0.0, 1.008000047877431, 0.0, 0.0, 0.0, 0.0, 0.0, 1.7075960748132915E9, 0.0, 2024-02-10 15:14:34.813
61.0, -109.3845939040184, -526.3385601639748, -1799.6996970772743, -186.69580578804016, 0.0800000037997961, 0.0, 1.008000047877431, 0.0, 0.0, 0.0, 0.0, 0.0, 1.7075960748132915E9, 0.0, 2024-02-10 15:14:34.813
62.0, -172.09523636102676, -630.6967285275459, -1937.0886618494987, -244.61937630176544, 0.0800000037997961, 0.0, 1.008000047877431, 0.0, 0.0, 0.0, 0.0, 0.0, 1.707596074826835E9, 0.0, 2024-02-10 15:14:34.826
62.0, -139.78250074386597, -535.4339968562126, -1806.1622442007065, -187.89257377386093, 0.0800000037997961, 0.0, 1.008000047877431, 0.0, 0.0, 0.0, 0.0, 0.0, 1.707596074826835E9, 0.0, 2024-02-10 15:14:34.826
63.0, -104.35816836357117, -507.19027239084244, -1752.3076848387718, -173.05265074968338, 0.0800000037997961, 0.0, 1.008000047877431, 0.0, 0.0, 0.0, 0.0, 0.0, 1.7075960748424456E9, 0.0, 2024-02-10 15:14:34.842
63.0, -162.5210924744606, -617.5322806835175, -1915.786191701889, -230.97622126340866, 0.0800000037997961, 0.0, 1.008000047877431, 0.0, 0.0, 0.0, 0.0, 0.0, 1.7075960748424456E9, 0.0, 2024-02-10 15:14:34.842
64.0, -157.2553133368492, -583.0653626918793, -1863.1284003257751, -205.84409356117249, 0.0800000037997961, 0.0, 1.008000047877431, 0.0, 0.0, 0.0, 0.0, 0.0, 1.7075960748431811E9, 0.0, 2024-02-10 15:14:34.843
64.0, -100.5285108089447, -476.0743047595024, -1720.4736564159393, -152.46824139356613, 0.0800000037997961, 0.0, 1.008000047877431, 0.0, 0.0, 0.0, 0.0, 0.0, 1.7075960748431811E9, 0.0, 2024-02-10 15:14:34.843
65.0, -129.2509424686432, -569.6615612506866, -1850.442659676075, -213.74276226758957, 0.0800000037997961, 0.0, 1.008000047877431, 0.0, 0.0, 0.0, 0.0, 0.0, 1.7075960748569512E9, 0.0, 2024-02-10 15:14:34.856
65.0, -173.29200434684753, -607.9581367969513, -1904.2972190380096, -227.38591730594635, 0.0800000037997961, 0.0, 1.008000047877431, 0.0, 0.0, 0.0, 0.0, 0.0, 1.7075960748569512E9, 0.0, 2024-02-10 15:14:34.856
66.0, -111.29942268133163, -495.70129972696304, -1751.110916852951, -164.675274848938, 0.0800000037997961, 0.0, 1.008000047877431, 0.0, 0.0, 0.0, 0.0, 0.0, 1.7075960748729467E9, 0.0, 2024-02-10 15:14:34.872
66.0, -112.73554426431656, -533.5191680788994, -1790.1255531907082, -190.76481693983078, 0.0800000037997961, 0.0, 1.008000047877431, 0.0, 0.0, 0.0, 0.0, 0.0, 1.7075960748729467E9, 0.0, 2024-02-10 15:14:34.872
67.0, -182.14808744192123, -637.1592756509781, -1941.1576730012894, -250.6032162308693, 0.0800000037997961, 0.0, 1.008000047877431, 0.0, 0.0, 0.0, 0.0, 0.0, 1.707596074873303E9, 0.0, 2024-02-10 15:14:34.873
67.0, -143.85151189565659, -546.922969520092, -1806.880304992199, -193.15835291147232, 0.0800000037997961, 0.0, 1.008000047877431, 0.0, 0.0, 0.0, 0.0, 0.0, 1.707596074873303E9, 0.0, 2024-02-10 15:14:34.873
68.0, -99.33174282312393, -499.5309572815895, -1752.7863920331001, -174.72812592983246, 0.0800000037997961, 0.0, 1.008000047877431, 0.0, 0.0, 0.0, 0.0, 0.0, 1.707596074886816E9, 0.0, 2024-02-10 15:14:34.886
68.0, -163.47850686311722, -618.0109878778458, -1917.4616668820381, -249.40644824504852, 0.0800000037997961, 0.0, 1.008000047877431, 0.0, 0.0, 0.0, 0.0, 0.0, 1.707596074886816E9, 0.0, 2024-02-10 15:14:34.886
69.0, -167.54751801490784, -586.6556666493416, -1877.9683233499527, -227.86462450027466, 0.0800000037997961, 0.0, 1.008000047877431, 0.0, 0.0, 0.0, 0.0, 0.0, 1.7075960749029593E9, 0.0, 2024-02-10 15:14:34.902
69.0, -97.17756044864655, -483.4942662715912, -1729.329739511013, -166.1113964319229, 0.0800000037997961, 0.0, 1.008000047877431, 0.0, 0.0, 0.0, 0.0, 0.0, 1.7075960749029593E9, 0.0, 2024-02-10 15:14:34.902
70.0, -134.51672160625458, -584.5014842748642, -1866.2399970889091, -223.55625975131989, 0.0800000037997961, 0.0, 1.008000047877431, 0.0, 0.0, 0.0, 0.0, 0.0, 1.7075960749032881E9, 0.0, 2024-02-10 15:14:34.903
70.0, -180.233258664608, -626.3883637785912, -1918.1797276735306, -235.28458601236343, 0.0800000037997961, 0.0, 1.008000047877431, 0.0, 0.0, 0.0, 0.0, 0.0, 1.7075960749032881E9, 0.0, 2024-02-10 15:14:34.903
71.0, -125.66063851118088, -506.71156519651413, -1759.2489391565323, -171.61652916669846, 0.0800000037997961, -0.01600000075995922, 1.008000047877431, 0.0, 0.0, 0.0, 0.0, 0.0, 1.7075960749170215E9, 0.0, 2024-02-10 15:14:34.917
71.0, -121.59162735939026, -542.1358975768089, -1799.4603434801102, -191.48287773132324, 0.0800000037997961, -0.01600000075995922, 1.008000047877431, 0.0, 0.0, 0.0, 0.0, 0.0, 1.7075960749170215E9, 0.0, 2024-02-10 15:14:34.917
72.0, -182.3874410390854, -635.0050932765007, -1933.4983578920364, -241.7471331357956, 0.0800000037997961, -0.01600000075995922, 1.008000047877431, 0.0, 0.0, 0.0, 0.0, 0.0, 1.7075960749328983E9, 0.0, 2024-02-10 15:14:34.932
