%OpenBCI Raw EXG Data
%Number of channels = 4
%Sample Rate = 200 Hz
%Board = OpenBCI_GUI$BoardGanglionBLE
Sample Index, EXG Channel 0, EXG Channel 1, EXG Channel 2, EXG Channel 3, Accel Channel 0, Accel Channel 1, Accel Channel 2, Other, Other, Other, Other, Other, Timestamp, Other, Timestamp (Formatted)
56.0, -356.63685977458954, -618.2503414750099, -2016.0753489136696, -224.27432054281235, 0.0, 0.0, 0.0, 0.0, 0.0, 0.0, 0.0, 0.0, 1.70759553319796E9, 0.0, 2024-02-10 15:05:33.197
56.0, 0.0, 0.0, 0.0, 0.0, 0.0, 0.0, 0.0, 0.0, 0.0, 0.0, 0.0, 0.0, 1.70759553319796E9, 0.0, 2024-02-10 15:05:33.197
0.0, -318.3402842283249, -614.8993911147118, -2071.126676261425, -209.4343975186348, 0.0, 0.0, 1.008000047877431, 0.0, 0.0, 0.0, 0.0, 0.0, 1.7075955332445445E9, 0.0, 2024-02-10 15:05:33.244
0.0, -347.30206948518753, -614.1813303232193, -2016.3147025108337, -226.6678565144539, 0.0, 0.0, 1.008000047877431, 0.0, 0.0, 0.0, 0.0, 0.0, 1.7075955332445445E9, 0.0, 2024-02-10 15:05:33.244
1.0, -343.2330583333969, -644.5792371630669, -2068.4937866926193, -239.35359716415405, 0.0, -1.008000047877431, 1.008000047877431, 0.0, 0.0, 0.0, 0.0, 0.0, 1.7075955332591348E9, 0.0, 2024-02-10 15:05:33.259
1.0, -316.90416264533997, -627.3457781672478, -2089.3175496459007, -222.12013816833496, 0.0, -1.008000047877431, 1.008000047877431, 0.0, 0.0, 0.0, 0.0, 0.0, 1.7075955332591348E9, 0.0, 2024-02-10 15:05:33.259
2.0, -336.5311576128006, -601.4955896735191, -2029.9578575491905, -221.8807845711708, -1.008000047877431, -1.008000047877431, 1.008000047877431, 0.0, 0.0, 0.0, 0.0, 0.0, 1.7075955332736974E9, 0.0, 2024-02-10 15:05:33.273
2.0, -345.62659430503845, -630.6967285275459, -2049.8242061138153, -243.90131551027298, -1.008000047877431, -1.008000047877431, 1.008000047877431, 0.0, 0.0, 0.0, 0.0, 0.0, 1.7075955332736974E9, 0.0, 2024-02-10 15:05:33.273
3.0, -330.7866712808609, -640.9889332056046, -2099.370400726795, -231.93363565206528, -1.008000047877431, -1.008000047877431, 1.008000047877431, 0.0, 0.0, 0.0, 0.0, 0.0, 1.7075955332743726E9, 0.0, 2024-02-10 15:05:33.274
3.0, -328.39313530921936, -608.9155511856079, -2053.4145100712776, -220.68401658535004, -1.008000047877431, -1.008000047877431, 1.008000047877431, 0.0, 0.0, 0.0, 0.0, 0.0, 1.7075955332743726E9, 0.0, 2024-02-10 15:05:33.274
4.0, -350.41366624832153, -622.0799990296364, -2032.5907471179962, -241.26842594146729, -1.008000047877431, -1.008000047877431, 1.008000047877431, 0.0, 0.0, 0.0, 0.0, 0.0, 1.7075955332879064E9, 0.0, 2024-02-10 15:05:33.287
4.0, -324.80283135175705, -641.706993997097, -2085.9665992856026, -234.80587881803513, -1.008000047877431, -1.008000047877431, 1.008000047877431, 0.0, 0.0, 0.0, 0.0, 0.0, 1.7075955332879064E9, 0.0, 2024-02-10 15:05:33.287
5.0, -315.2286874651909, -620.1651702523232, -2068.254433095455, -213.0247014760971, -1.008000047877431, -1.008000047877431, 1.008000047877431, 0.0, 0.0, 0.0, 0.0, 0.0, 1.707595533304098E9, 0.0, 2024-02-10 15:05:33.304
5.0, -351.84978783130646, -611.3090871572495, -2017.7508240938187, -226.90721011161804, -1.008000047877431, -1.008000047877431, 1.008000047877431, 0.0, 0.0, 0.0, 0.0, 0.0, 1.707595533304098E9, 0.0, 2024-02-10 15:05:33.304
6.0, -340.1214615702629, -638.3560436367989, -2059.3983500003815, -227.38591730594635, -1.008000047877431, -1.008000047877431, 1.008000047877431, 0.0, 0.0, 0.0, 0.0, 0.0, 1.7075955333189044E9, 0.0, 2024-02-10 15:05:33.318
6.0, -320.2551130056381, -617.2929270863533, -2066.339604318142, -196.74865686893463, -1.008000047877431, -1.008000047877431, 1.008000047877431, 0.0, 0.0, 0.0, 0.0, 0.0, 1.7075955333189044E9, 0.0, 2024-02-10 15:05:33.318
7.0, -322.8880025744438, -584.2621306777, -2009.3734481930733, -199.38154643774033, -1.008000047877431, -1.008000047877431, 1.008000047877431, 0.0, 0.0, 0.0, 0.0, 0.0, 1.707595533319411E9, 0.0, 2024-02-10 15:05:33.319
7.0, -333.18020725250244, -618.4896950721741, -2023.4953104257584, -222.35949176549911, -1.008000047877431, -1.008000047877431, 1.008000047877431, 0.0, 0.0, 0.0, 0.0, 0.0, 1.707595533319411E9, 0.0, 2024-02-10 15:05:33.319
8.0, -315.46804106235504, -632.6115573048592, -2076.8711625933647, -205.12603276968002, -1.008000047877431, -1.008000047877431, 1.008000047877431, 0.0, 0.0, 0.0, 0.0, 0.0, 1.707595533333663E9, 0.0, 2024-02-10 15:05:33.333
8.0, -320.2551130056381, -602.2136504650116, -2032.351393520832, -193.39770650863647, -1.008000047877431, -1.008000047877431, 1.008000047877431, 0.0, 0.0, 0.0, 0.0, 0.0, 1.707595533333663E9, 0.0, 2024-02-10 15:05:33.333
9.0, -338.44598639011383, -604.367832839489, -2013.681812942028, -219.48724859952927, -1.008000047877431, -1.008000047877431, 1.008000047877431, 0.0, 0.0, 0.0, 0.0, 0.0, 1.7075955333344543E9, 0.0, 2024-02-10 15:05:33.334
9.0, -319.7764058113098, -634.7657396793365, -2063.228007555008, -214.70017665624619, -1.008000047877431, -1.008000047877431, 1.008000047877431, 0.0, 0.0, 0.0, 0.0, 0.0, 1.7075955333344543E9, 0.0, 2024-02-10 15:05:33.334
10.0, -310.4416155219078, -607.479429602623, -2047.909377336502, -194.8338280916214, -1.008000047877431, -1.008000047877431, 0.6400000303983688, 0.0, 0.0, 0.0, 0.0, 0.0, 1.7075955333482993E9, 0.0, 2024-02-10 15:05:33.348
10.0, -337.0098648071289, -598.8627001047134, -2006.5012050271034, -214.70017665624619, -1.008000047877431, -1.008000047877431, 0.6400000303983688, 0.0, 0.0, 0.0, 0.0, 0.0, 1.7075955333482993E9, 0.0, 2024-02-10 15:05:33.348
11.0, -332.70150005817413, -640.0315188169479, -2059.3983500003815, -230.01880687475204, -1.008000047877431, -0.6400000303983688, 0.6400000303983688, 0.0, 0.0, 0.0, 0.0, 0.0, 1.7075955333640232E9, 0.0, 2024-02-10 15:05:33.364
11.0, -311.3990299105644, -616.5748662948608, -2081.1795273423195, -211.82793349027634, -1.008000047877431, -0.6400000303983688, 0.6400000303983688, 0.0, 0.0, 0.0, 0.0, 0.0, 1.7075955333640232E9, 0.0, 2024-02-10 15:05:33.364
12.0, -336.77051120996475, -609.8729655742645, -2032.112039923668, -221.16272377967834, -0.6400000303983688, -0.6400000303983688, 0.6400000303983688, 0.0, 0.0, 0.0, 0.0, 0.0, 1.7075955333644967E9, 0.0, 2024-02-10 15:05:33.364
12.0, -351.84978783130646, -638.8347508311272, -2048.8667917251587, -242.7045475244522, -0.6400000303983688, -0.6400000303983688, 0.6400000303983688, 0.0, 0.0, 0.0, 0.0, 0.0, 1.7075955333644967E9, 0.0, 2024-02-10 15:05:33.364
13.0, -331.7440856695175, -658.4617457985878, -2107.5084230303764, -234.56652522087097, -0.6400000303983688, -0.6400000303983688, 0.6400000303983688, 0.0, 0.0, 0.0, 0.0, 0.0, 1.7075955333782487E9, 0.0, 2024-02-10 15:05:33.378
13.0, -325.76024574041367, -610.3516727685928, -2056.2867532372475, -224.9923813343048, -0.6400000303983688, -0.6400000303983688, 0.6400000303983688, 0.0, 0.0, 0.0, 0.0, 0.0, 1.7075955333782487E9, 0.0, 2024-02-10 15:05:33.378
14.0, -344.908533513546, -625.4309493899345, -2041.9255374073982, -245.09808349609375, -0.6400000303983688, -0.6400000303983688, 0.6400000303983688, 0.0, 0.0, 0.0, 0.0, 0.0, 1.7075955334102075E9, 0.0, 2024-02-10 15:05:33.410
14.0, -324.32412415742874, -643.8611763715744, -2088.5994888544083, -233.60911083221436, -0.6400000303983688, -0.6400000303983688, 0.6400000303983688, 0.0, 0.0, 0.0, 0.0, 0.0, 1.7075955334102075E9, 0.0, 2024-02-10 15:05:33.410
15.0, -319.53705221414566, -609.3942583799362, -2074.477626621723, -217.09371262788773, -0.6400000303983688, -0.6400000303983688, 0.6400000303983688, 0.0, 0.0, 0.0, 0.0, 0.0, 1.707595533410884E9, 0.0, 2024-02-10 15:05:33.410
15.0, -345.14788711071014, -610.1123191714287, -2028.0430287718773, -236.0026468038559, -0.6400000303983688, -0.6400000303983688, 0.6400000303983688, 0.0, 0.0, 0.0, 0.0, 0.0, 1.707595533410884E9, 0.0, 2024-02-10 15:05:33.410
16.0, -334.13762164115906, -641.4676403999329, -2069.9299082756042, -247.25226587057114, -0.6400000303983688, -0.6400000303983688, 0.6400000303983688, 0.0, 0.0, 0.0, 0.0, 0.0, 1.7075955334115844E9, 0.0, 2024-02-10 15:05:33.411
16.0, -317.3828698396683, -633.8083252906799, -2083.812416911125, -214.46082305908203, -0.6400000303983688, -0.6400000303983688, 0.6400000303983688, 0.0, 0.0, 0.0, 0.0, 0.0, 1.7075955334115844E9, 0.0, 2024-02-10 15:05:33.411
17.0, -334.8556824326515, -609.8729655742645, -2036.899111866951, -228.58268529176712, -0.6400000303983688, -0.6400000303983688, 0.6400000303983688, 0.0, 0.0, 0.0, 0.0, 0.0, 1.707595533412364E9, 0.0, 2024-02-10 15:05:33.412
17.0, -341.55758315324783, -633.0902644991875, -2053.893217265606, -250.84256982803345, -0.6400000303983688, -0.6400000303983688, 0.6400000303983688, 0.0, 0.0, 0.0, 0.0, 0.0, 1.707595533412364E9, 0.0, 2024-02-10 15:05:33.412
18.0, -320.01575940847397, -646.0153587460518, -2100.327815115452, -228.58268529176712, -0.6400000303983688, -0.6400000303983688, 0.6400000303983688, 0.0, 0.0, 0.0, 0.0, 0.0, 1.7075955334229383E9, 0.0, 2024-02-10 15:05:33.422
18.0, -336.5311576128006, -618.7290486693382, -2053.6538636684418, -217.57241982221603, -0.6400000303983688, -0.6400000303983688, 0.6400000303983688, 0.0, 0.0, 0.0, 0.0, 0.0, 1.7075955334229383E9, 0.0, 2024-02-10 15:05:33.422
19.0, -361.6632853150368, -634.7657396793365, -2034.2662222981453, -236.72070759534836, -0.6400000303983688, -0.6400000303983688, 0.6400000303983688, 0.0, 0.0, 0.0, 0.0, 0.0, 1.7075955334546592E9, 0.0, 2024-02-10 15:05:33.454
19.0, -338.92469358444214, -651.2811378836632, -2088.8388424515724, -230.01880687475204, -0.6400000303983688, -0.6400000303983688, 0.6400000303983688, 0.0, 0.0, 0.0, 0.0, 0.0, 1.7075955334546592E9, 0.0, 2024-02-10 15:05:33.454
20.0, -323.84541696310043, -621.1225846409798, -2074.238273024559, -216.1362982392311, -0.6400000303983688, -0.6400000303983688, 0.8320000395178795, 0.0, 0.0, 0.0, 0.0, 0.0, 1.7075955334551327E9, 0.0, 2024-02-10 15:05:33.455
20.0, -347.78077667951584, -613.702623128891, -2021.341128051281, -231.45492845773697, -0.6400000303983688, -0.6400000303983688, 0.8320000395178795, 0.0, 0.0, 0.0, 0.0, 0.0, 1.7075955334551327E9, 0.0, 2024-02-10 15:05:33.455
21.0, -347.78077667951584, -646.9727731347084, -2066.100250720978, -234.80587881803513, -0.6400000303983688, -0.8320000395178795, 0.8320000395178795, 0.0, 0.0, 0.0, 0.0, 0.0, 1.7075955334558535E9, 0.0, 2024-02-10 15:05:33.455
21.0, -320.9731737971306, -629.260606944561, -2086.445306479931, -218.7691878080368, -0.6400000303983688, -0.8320000395178795, 0.8320000395178795, 0.0, 0.0, 0.0, 0.0, 0.0, 1.7075955334558535E9, 0.0, 2024-02-10 15:05:33.455
22.0, -332.9408536553383, -601.7349432706833, -2027.8036751747131, -217.57241982221603, -0.8320000395178795, -0.8320000395178795, 0.8320000395178795, 0.0, 0.0, 0.0, 0.0, 0.0, 1.7075955334682913E9, 0.0, 2024-02-10 15:05:33.468
22.0, -345.14788711071014, -635.2444468736649, -2044.558426976204, -236.9600611925125, -0.8320000395178795, -0.8320000395178795, 0.8320000395178795, 0.0, 0.0, 0.0, 0.0, 0.0, 1.7075955334682913E9, 0.0, 2024-02-10 15:05:33.468
23.0, -314.5106266736984, -629.7393141388893, -2098.6523399353027, -230.7368676662445, -0.8320000395178795, -0.8320000395178795, 0.8320000395178795, 0.0, 0.0, 0.0, 0.0, 0.0, 1.7075955335002224E9, 0.0, 2024-02-10 15:05:33.500
23.0, -328.39313530921936, -617.2929270863533, -2046.7126093506813, -214.46082305908203, -0.8320000395178795, -0.8320000395178795, 0.8320000395178795, 0.0, 0.0, 0.0, 0.0, 0.0, 1.7075955335002224E9, 0.0, 2024-02-10 15:05:33.500
24.0, -354.00397020578384, -625.1915957927704, -2029.000443160534, -231.93363565206528, -0.8320000395178795, -0.8320000395178795, 0.8320000395178795, 0.0, 0.0, 0.0, 0.0, 0.0, 1.7075955335012856E9, 0.0, 2024-02-10 15:05:33.501
24.0, -329.8292568922043, -640.9889332056046, -2087.881428062916, -233.8484644293785, -0.8320000395178795, -0.8320000395178795, 0.8320000395178795, 0.0, 0.0, 0.0, 0.0, 0.0, 1.7075955335012856E9, 0.0, 2024-02-10 15:05:33.501
25.0, -314.5106266736984, -614.8993911147118, -2071.8447370529175, -209.4343975186348, -0.8320000395178795, -0.8320000395178795, 0.8320000395178795, 0.0, 0.0, 0.0, 0.0, 0.0, 1.7075955335015635E9, 0.0, 2024-02-10 15:05:33.501
25.0, -337.4885720014572, -605.5646008253098, -2025.1707856059074, -230.01880687475204, -0.8320000395178795, -0.8320000395178795, 0.8320000395178795, 0.0, 0.0, 0.0, 0.0, 0.0, 1.7075955335015635E9, 0.0, 2024-02-10 15:05:33.501
26.0, -333.18020725250244, -641.9463475942612, -2070.887322664261, -244.61937630176544, -0.8320000395178795, -0.8320000395178795, 0.8320000395178795, 0.0, 0.0, 0.0, 0.0, 0.0, 1.707595533502421E9, 0.0, 2024-02-10 15:05:33.502
26.0, -311.87773710489273, -623.5161206126213, -2091.9504392147064, -223.79561334848404, -0.8320000395178795, -0.8320000395178795, 0.8320000395178795, 0.0, 0.0, 0.0, 0.0, 0.0, 1.707595533502421E9, 0.0, 2024-02-10 15:05:33.502
27.0, -327.43572092056274, -596.708517730236, -2032.112039923668, -226.18914932012558, -0.8320000395178795, -0.8320000395178795, 0.8320000395178795, 0.0, 0.0, 0.0, 0.0, 0.0, 1.7075955335131443E9, 0.0, 2024-02-10 15:05:33.513
27.0, -338.92469358444214, -630.6967285275459, -2039.5320014357567, -238.6355363726616, -0.8320000395178795, -0.8320000395178795, 0.8320000395178795, 0.0, 0.0, 0.0, 0.0, 0.0, 1.7075955335131443E9, 0.0, 2024-02-10 15:05:33.513
28.0, -310.9203227162361, -635.0050932765007, -2094.8226823806763, -227.6252709031105, -0.8320000395178795, -0.8320000395178795, 0.8320000395178795, 0.0, 0.0, 0.0, 0.0, 0.0, 1.70759553352806E9, 0.0, 2024-02-10 15:05:33.528
28.0, -322.16994178295135, -605.5646008253098, -2054.13257086277, -223.79561334848404, -0.8320000395178795, -0.8320000395178795, 0.8320000395178795, 0.0, 0.0, 0.0, 0.0, 0.0, 1.70759553352806E9, 0.0, 2024-02-10 15:05:33.528
29.0, -342.7543511390686, -623.037413418293, -2039.0532942414284, -245.8161442875862, -0.8320000395178795, -0.8320000395178795, 0.8320000395178795, 0.0, 0.0, 0.0, 0.0, 0.0, 1.7075955335437255E9, 0.0, 2024-02-10 15:05:33.543
29.0, -331.98343926668167, -642.9037619829178, -2088.5994888544083, -234.56652522087097, -0.8320000395178795, -0.8320000395178795, 0.8320000395178795, 0.0, 0.0, 0.0, 0.0, 0.0, 1.7075955335437255E9, 0.0, 2024-02-10 15:05:33.543
30.0, -312.83515149354935, -609.1549047827721, -2068.4937866926193, -212.5459942817688, -0.8320000395178795, -0.8320000395178795, 0.9280000440776348, 0.0, 0.0, 0.0, 0.0, 0.0, 1.7075955335443962E9, 0.0, 2024-02-10 15:05:33.544
30.0, -328.87184250354767, -599.82011449337, -2016.554056107998, -226.42850291728973, -0.8320000395178795, -0.8320000395178795, 0.9280000440776348, 0.0, 0.0, 0.0, 0.0, 0.0, 1.7075955335443962E9, 0.0, 2024-02-10 15:05:33.544
31.0, -325.9995993375778, -629.0212533473969, -2062.7493003606796, -234.32717162370682, -0.8320000395178795, -0.9280000440776348, 0.9280000440776348, 0.0, 0.0, 0.0, 0.0, 0.0, 1.707595533558005E9, 0.0, 2024-02-10 15:05:33.558
31.0, -313.0745050907135, -619.2077558636665, -2079.2646985650063, -206.56215435266495, -0.8320000395178795, -0.9280000440776348, 0.9280000440776348, 0.0, 0.0, 0.0, 0.0, 0.0, 1.707595533558005E9, 0.0, 2024-02-10 15:05:33.558
32.0, -337.9672791957855, -603.4104184508324, -2024.452724814415, -212.78534787893295, -0.9280000440776348, -0.9280000440776348, 0.9280000440776348, 0.0, 0.0, 0.0, 0.0, 0.0, 1.7075955335736535E9, 0.0, 2024-02-10 15:05:33.573
32.0, -351.6104342341423, -633.5689716935158, -2036.4204046726227, -230.97622126340866, -0.9280000440776348, -0.9280000440776348, 0.9280000440776348, 0.0, 0.0, 0.0, 0.0, 0.0, 1.7075955335736535E9, 0.0, 2024-02-10 15:05:33.573
33.0, -319.2976986169815, -630.6967285275459, -2079.7434057593346, -212.0672870874405, -0.9280000440776348, -0.9280000440776348, 0.9280000440776348, 0.0, 0.0, 0.0, 0.0, 0.0, 1.7075955335743477E9, 0.0, 2024-02-10 15:05:33.574
33.0, -308.7661403417587, -590.485324203968, -2036.6597582697868, -196.50930327177048, -0.9280000440776348, -0.9280000440776348, 0.9280000440776348, 0.0, 0.0, 0.0, 0.0, 0.0, 1.7075955335743477E9, 0.0, 2024-02-10 15:05:33.574
34.0, -335.0950360298157, -608.1974903941154, -2017.5114704966545, -220.44466298818588, -0.9280000440776348, -0.9280000440776348, 0.9280000440776348, 0.0, 0.0, 0.0, 0.0, 0.0, 1.7075955335881631E9, 0.0, 2024-02-10 15:05:33.588
34.0, -319.2976986169815, -622.3193526268005, -2068.4937866926193, -221.4020773768425, -0.9280000440776348, -0.9280000440776348, 0.9280000440776348, 0.0, 0.0, 0.0, 0.0, 0.0, 1.7075955335881631E9, 0.0, 2024-02-10 15:05:33.588
35.0, -303.97906839847565, -595.7511033415794, -2057.00481402874, -195.3125352859497, -0.9280000440776348, -0.9280000440776348, 0.9280000440776348, 0.0, 0.0, 0.0, 0.0, 0.0, 1.7075955336039035E9, 0.0, 2024-02-10 15:05:33.603
35.0, -337.24921840429306, -600.0594680905342, -2019.665652871132, -219.48724859952927, -0.9280000440776348, -0.9280000440776348, 0.9280000440776348, 0.0, 0.0, 0.0, 0.0, 0.0, 1.7075955336039035E9, 0.0, 2024-02-10 15:05:33.603
36.0, -341.0788759589195, -640.5102260112762, -2062.031239569187, -233.13040363788605, -0.9280000440776348, -0.9280000440776348, 0.9280000440776348, 0.0, 0.0, 0.0, 0.0, 0.0, 1.707595533604538E9, 0.0, 2024-02-10 15:05:33.604
36.0, -323.3667097687721, -635.9625076651573, -2086.924013674259, -219.2478950023651, -0.9280000440776348, -0.9280000440776348, 0.9280000440776348, 0.0, 0.0, 0.0, 0.0, 0.0, 1.707595533604538E9, 0.0, 2024-02-10 15:05:33.604
37.0, -324.32412415742874, -601.9742968678474, -2028.0430287718773, -219.2478950023651, -0.9280000440776348, -0.9280000440776348, 0.9280000440776348, 0.0, 0.0, 0.0, 0.0, 0.0, 1.7075955336183677E9, 0.0, 2024-02-10 15:05:33.618
37.0, -342.2756439447403, -631.8934965133667, -2046.9519629478455, -246.53420507907867, -0.9280000440776348, -0.9280000440776348, 0.9280000440776348, 0.0, 0.0, 0.0, 0.0, 0.0, 1.7075955336183677E9, 0.0, 2024-02-10 15:05:33.618
38.0, -319.2976986169815, -633.8083252906799, -2100.327815115452, -232.41234284639359, -0.9280000440776348, -0.9280000440776348, 0.9280000440776348, 0.0, 0.0, 0.0, 0.0, 0.0, 1.707595533633669E9, 0.0, 2024-02-10 15:05:33.633
38.0, -316.90416264533997, -601.9742968678474, -2054.13257086277, -217.57241982221603, -0.9280000440776348, -0.9280000440776348, 0.9280000440776348, 0.0, 0.0, 0.0, 0.0, 0.0, 1.707595533633669E9, 0.0, 2024-02-10 15:05:33.633
39.0, -348.25948387384415, -615.3780983090401, -2034.9842830896378, -239.83230435848236, -0.9280000440776348, -0.9280000440776348, 0.9280000440776348, 0.0, 0.0, 0.0, 0.0, 0.0, 1.707595533634321E9, 0.0, 2024-02-10 15:05:33.634
39.0, -327.91442811489105, -634.5263860821724, -2082.136941730976, -234.56652522087097, -0.9280000440776348, -0.9280000440776348, 0.9280000440776348, 0.0, 0.0, 0.0, 0.0, 0.0, 1.707595533634321E9, 0.0, 2024-02-10 15:05:33.634
40.0, -311.15967631340027, -616.5748662948608, -2072.56279784441, -215.89694464206696, -0.9280000440776348, -0.9280000440776348, 0.9600000455975533, 0.0, 0.0, 0.0, 0.0, 0.0, 1.7075955336485603E9, 0.0, 2024-02-10 15:05:33.648
40.0, -332.70150005817413, -614.1813303232193, -2017.9901776909828, -222.12013816833496, -0.9280000440776348, -0.9280000440776348, 0.9600000455975533, 0.0, 0.0, 0.0, 0.0, 0.0, 1.7075955336485603E9, 0.0, 2024-02-10 15:05:33.648
41.0, -341.796936750412, -646.9727731347084, -2067.0576651096344, -237.43876838684082, -0.9280000440776348, -0.9600000455975533, 0.9600000455975533, 0.0, 0.0, 0.0, 0.0, 0.0, 1.7075955336639915E9, 0.0, 2024-02-10 15:05:33.663
41.0, -316.90416264533997, -623.2767670154572, -2088.360135257244, -217.57241982221603, -0.9280000440776348, -0.9600000455975533, 0.9600000455975533, 0.0, 0.0, 0.0, 0.0, 0.0, 1.7075955336639915E9, 0.0, 2024-02-10 15:05:33.663
42.0, -325.0421849489212, -601.0168824791908, -2031.3939791321754, -220.20530939102173, -0.9600000455975533, -0.9600000455975533, 0.9600000455975533, 0.0, 0.0, 0.0, 0.0, 0.0, 1.7075955336645432E9, 0.0, 2024-02-10 15:05:33.664
42.0, -332.70150005817413, -622.7980598211288, -2046.4732557535172, -239.35359716415405, -0.9600000455975533, -0.9600000455975533, 0.9600000455975533, 0.0, 0.0, 0.0, 0.0, 0.0, 1.7075955336645432E9, 0.0, 2024-02-10 15:05:33.664
43.0, -309.9629083275795, -630.2180213332176, -2093.147207200527, -221.16272377967834, -0.9600000455975533, -0.9600000455975533, 0.9600000455975533, 0.0, 0.0, 0.0, 0.0, 0.0, 1.7075955336783943E9, 0.0, 2024-02-10 15:05:33.678
43.0, -316.42545545101166, -609.6336119771004, -2047.1913165450096, -208.47698312997818, -0.9600000455975533, -0.9600000455975533, 0.9600000455975533, 0.0, 0.0, 0.0, 0.0, 0.0, 1.7075955336783943E9, 0.0, 2024-02-10 15:05:33.678
44.0, -348.25948387384415, -619.6864630579948, -2028.5217359662056, -227.86462450027466, -0.9600000455975533, -0.9600000455975533, 0.9600000455975533, 0.0, 0.0, 0.0, 0.0, 0.0, 1.7075955336938372E9, 0.0, 2024-02-10 15:05:33.693
44.0, -331.98343926668167, -633.0902644991875, -2074.9563338160515, -220.9233701825142, -0.9600000455975533, -0.9600000455975533, 0.9600000455975533, 0.0, 0.0, 0.0, 0.0, 0.0, 1.7075955336938372E9, 0.0, 2024-02-10 15:05:33.693
45.0, -309.4842011332512, -607.9581367969513, -2056.5261068344116, -198.18477845191956, -0.9600000455975533, -0.9600000455975533, 0.9600000455975533, 0.0, 0.0, 0.0, 0.0, 0.0, 1.7075955336947663E9, 0.0, 2024-02-10 15:05:33.694
45.0, -337.72792559862137, -602.9317112565041, -2012.2456913590431, -213.98211586475372, -0.9600000455975533, -0.9600000455975533, 0.9600000455975533, 0.0, 0.0, 0.0, 0.0, 0.0, 1.7075955336947663E9, 0.0, 2024-02-10 15:05:33.694
46.0, -329.8292568922043, -629.260606944561, -2053.1751564741135, -227.86462450027466, -0.9600000455975533, -0.9600000455975533, 0.9600000455975533, 0.0, 0.0, 0.0, 0.0, 0.0, 1.7075955337082658E9, 0.0, 2024-02-10 15:05:33.708
46.0, -313.5532122850418, -625.9096565842628, -2074.238273024559, -202.01443600654602, -0.9600000455975533, -0.9600000455975533, 0.9600000455975533, 0.0, 0.0, 0.0, 0.0, 0.0, 1.7075955337082658E9, 0.0, 2024-02-10 15:05:33.708
47.0, -333.18020725250244, -597.9052857160568, -2022.777249634266, -204.40797197818756, -0.9600000455975533, -0.9600000455975533, 0.9600000455975533, 0.0, 0.0, 0.0, 0.0, 0.0, 1.7075955337238708E9, 0.0, 2024-02-10 15:05:33.723
47.0, -340.1214615702629, -622.3193526268005, -2035.7023438811302, -226.6678565144539, -0.9600000455975533, -0.9600000455975533, 0.9600000455975533, 0.0, 0.0, 0.0, 0.0, 0.0, 1.7075955337238708E9, 0.0, 2024-02-10 15:05:33.723
48.0, -315.46804106235504, -635.9625076651573, -2090.7536712288857, -223.55625975131989, -0.9600000455975533, -0.9600000455975533, 0.9600000455975533, 0.0, 0.0, 0.0, 0.0, 0.0, 1.707595533724414E9, 0.0, 2024-02-10 15:05:33.724
48.0, -313.79256588220596, -600.5381752848625, -2050.3029133081436, -208.71633672714233, -0.9600000455975533, -0.9600000455975533, 0.9600000455975533, 0.0, 0.0, 0.0, 0.0, 0.0, 1.707595533724414E9, 0.0, 2024-02-10 15:05:33.724
49.0, -338.685339987278, -625.1915957927704, -2027.564321577549, -239.83230435848236, -0.9600000455975533, -0.9600000455975533, 0.9600000455975533, 0.0, 0.0, 0.0, 0.0, 0.0, 1.7075955337380452E9, 0.0, 2024-02-10 15:05:33.738
49.0, -340.36081516742706, -650.0843698978424, -2092.4291464090347, -244.3800227046013, -0.9600000455975533, -0.9600000455975533, 0.9600000455975533, 0.0, 0.0, 0.0, 0.0, 0.0, 1.7075955337380452E9, 0.0, 2024-02-10 15:05:33.738
50.0, -318.10093063116074, -616.5748662948608, -2073.2808586359024, -214.70017665624619, -0.9600000455975533, -0.9600000455975533, 0.9920000471174717, 0.0, 0.0, 0.0, 0.0, 0.0, 1.7075955337536724E9, 0.0, 2024-02-10 15:05:33.753
50.0, -339.6427543759346, -601.7349432706833, -2025.1707856059074, -233.60911083221436, -0.9600000455975533, -0.9600000455975533, 0.9920000471174717, 0.0, 0.0, 0.0, 0.0, 0.0, 1.7075955337536724E9, 0.0, 2024-02-10 15:05:33.753
51.0, -337.4885720014572, -645.0579443573952, -2065.142836332321, -241.02907234430313, -0.9600000455975533, -0.9920000471174717, 0.9920000471174717, 0.0, 0.0, 0.0, 0.0, 0.0, 1.7075955337543688E9, 0.0, 2024-02-10 15:05:33.754
51.0, -310.9203227162361, -622.7980598211288, -2081.1795273423195, -209.9131047129631, -0.9600000455975533, -0.9920000471174717, 0.9920000471174717, 0.0, 0.0, 0.0, 0.0, 0.0, 1.7075955337543688E9, 0.0, 2024-02-10 15:05:33.754
52.0, -334.13762164115906, -607.7187831997871, -2029.000443160534, -215.89694464206696, -0.9920000471174717, -0.9920000471174717, 0.9920000471174717, 0.0, 0.0, 0.0, 0.0, 0.0, 1.707595533768192E9, 0.0, 2024-02-10 15:05:33.768
52.0, -343.9511191248894, -625.1915957927704, -2044.3190733790398, -241.02907234430313, -0.9920000471174717, -0.9920000471174717, 0.9920000471174717, 0.0, 0.0, 0.0, 0.0, 0.0, 1.707595533768192E9, 0.0, 2024-02-10 15:05:33.768
53.0, -320.73382019996643, -634.5263860821724, -2087.881428062916, -223.31690615415573, -0.9920000471174717, -0.9920000471174717, 0.9920000471174717, 0.0, 0.0, 0.0, 0.0, 0.0, 1.7075955337838783E9, 0.0, 2024-02-10 15:05:33.783
53.0, -316.1861018538475, -605.0858936309814, -2045.9945485591888, -210.15245831012726, -0.9920000471174717, -0.9920000471174717, 0.9920000471174717, 0.0, 0.0, 0.0, 0.0, 0.0, 1.7075955337838783E9, 0.0, 2024-02-10 15:05:33.783
54.0, -342.03629034757614, -621.6012918353081, -2030.9152719378471, -236.4813539981842, -0.9920000471174717, -0.9920000471174717, 0.9920000471174717, 0.0, 0.0, 0.0, 0.0, 0.0, 1.707595533784372E9, 0.0, 2024-02-10 15:05:33.784
54.0, -335.81309682130814, -652.2385522723198, -2092.907853603363, -239.83230435848236, -0.9920000471174717, -0.9920000471174717, 0.9920000471174717, 0.0, 0.0, 0.0, 0.0, 0.0, 1.707595533784372E9, 0.0, 2024-02-10 15:05:33.784
55.0, -321.21252739429474, -616.0961591005325, -2072.802151441574, -212.0672870874405, -0.9920000471174717, -0.9920000471174717, 0.9920000471174717, 0.0, 0.0, 0.0, 0.0, 0.0, 1.7075955337984543E9, 0.0, 2024-02-10 15:05:33.798
55.0, -343.7117655277252, -608.4368439912796, -2020.8624208569527, -218.7691878080368, -0.9920000471174717, -0.9920000471174717, 0.9920000471174717, 0.0, 0.0, 0.0, 0.0, 0.0, 1.7075955337984543E9, 0.0, 2024-02-10 15:05:33.798
56.0, -345.14788711071014, -642.1857011914253, -2058.680289208889, -228.82203888893127, -0.9920000471174717, -0.9920000471174717, 0.9920000471174717, 0.0, 0.0, 0.0, 0.0, 0.0, 1.7075955338139243E9, 0.0, 2024-02-10 15:05:33.813
56.0, -312.5957978963852, -620.1651702523232, -2081.658234536648, -209.4343975186348, -0.9920000471174717, -0.9920000471174717, 0.9920000471174717, 0.0, 0.0, 0.0, 0.0, 0.0, 1.7075955338139243E9, 0.0, 2024-02-10 15:05:33.813
57.0, -330.06861048936844, -607.479429602623, -2022.5378960371017, -206.8015079498291, -0.9920000471174717, -0.9920000471174717, 0.9920000471174717, 0.0, 0.0, 0.0, 0.0, 0.0, 1.707595533814468E9, 0.0, 2024-02-10 15:05:33.814
57.0, -345.62659430503845, -640.7495796084404, -2047.909377336502, -241.7471331357956, -0.9920000471174717, -0.9920000471174717, 0.9920000471174717, 0.0, 0.0, 0.0, 0.0, 0.0, 1.707595533814468E9, 0.0, 2024-02-10 15:05:33.814
58.0, -326.238952934742, -646.2547123432159, -2089.796256840229, -223.31690615415573, -0.9920000471174717, -0.9920000471174717, 0.9920000471174717, 0.0, 0.0, 0.0, 0.0, 0.0, 1.7075955338279707E9, 0.0, 2024-02-10 15:05:33.827
58.0, -320.4944666028023, -611.5484407544136, -2047.670023739338, -212.78534787893295, -0.9920000471174717, -0.9920000471174717, 0.9920000471174717, 0.0, 0.0, 0.0, 0.0, 0.0, 1.7075955338279707E9, 0.0, 2024-02-10 15:05:33.827
59.0, -340.6001687645912, -616.0961591005325, -2025.8888463974, -236.72070759534836, -0.9920000471174717, -0.9920000471174717, 0.9920000471174717, 0.0, 0.0, 0.0, 0.0, 0.0, 1.707595533843682E9, 0.0, 2024-02-10 15:05:33.843
59.0, -325.28153854608536, -643.6218227744102, -2086.445306479931, -237.43876838684082, -0.9920000471174717, -0.9920000471174717, 0.9920000471174717, 0.0, 0.0, 0.0, 0.0, 0.0, 1.707595533843682E9, 0.0, 2024-02-10 15:05:33.843
60.0, -314.98933386802673, -614.8993911147118, -2067.5363723039627, -206.56215435266495, -0.9920000471174717, -0.9920000471174717, 1.008000047877431, 0.0, 0.0, 0.0, 0.0, 0.0, 1.7075955338443413E9, 0.0, 2024-02-10 15:05:33.844
60.0, -329.58990329504013, -605.8039544224739, -2020.1443600654602, -225.47108852863312, -0.9920000471174717, -0.9920000471174717, 1.008000047877431, 0.0, 0.0, 0.0, 0.0, 0.0, 1.7075955338443413E9, 0.0, 2024-02-10 15:05:33.844
61.0, -344.66917991638184, -649.1269555091858, -2070.1692618727684, -249.64580184221268, -0.9920000471174717, -1.008000047877431, 1.008000047877431, 0.0, 0.0, 0.0, 0.0, 0.0, 1.7075955338582056E9, 0.0, 2024-02-10 15:05:33.858
61.0, -320.01575940847397, -631.6541429162025, -2084.5304777026176, -222.83819895982742, -0.9920000471174717, -1.008000047877431, 1.008000047877431, 0.0, 0.0, 0.0, 0.0, 0.0, 1.7075955338582056E9, 0.0, 2024-02-10 15:05:33.858
62.0, -332.70150005817413, -612.5058551430702, -2029.4791503548622, -220.68401658535004, -1.008000047877431, -1.008000047877431, 1.008000047877431, 0.0, 0.0, 0.0, 0.0, 0.0, 1.7075955338737152E9, 0.0, 2024-02-10 15:05:33.873
62.0, -345.3872407078743, -630.2180213332176, -2045.9945485591888, -237.67812198400497, -1.008000047877431, -1.008000047877431, 1.008000047877431, 0.0, 0.0, 0.0, 0.0, 0.0, 1.7075955338737152E9, 0.0, 2024-02-10 15:05:33.873
63.0, -313.31385868787766, -630.9360821247101, -2081.1795273423195, -213.98211586475372, -1.008000047877431, -1.008000047877431, 1.008000047877431, 0.0, 0.0, 0.0, 0.0, 0.0, 1.707595533874302E9, 0.0, 2024-02-10 15:05:33.874
63.0, -320.2551130056381, -601.0168824791908, -2044.3190733790398, -207.2802151441574, -1.008000047877431, -1.008000047877431, 1.008000047877431, 0.0, 0.0, 0.0, 0.0, 0.0, 1.707595533874302E9, 0.0, 2024-02-10 15:05:33.874
64.0, -335.81309682130814, -611.7877943515778, -2023.01660323143, -236.0026468038559, -1.008000047877431, -1.008000047877431, 1.008000047877431, 0.0, 0.0, 0.0, 0.0, 0.0, 1.707595533888301E9, 0.0, 2024-02-10 15:05:33.888
64.0, -339.40340077877045, -647.2121267318726, -2079.2646985650063, -233.60911083221436, -1.008000047877431, -1.008000047877431, 1.008000047877431, 0.0, 0.0, 0.0, 0.0, 0.0, 1.707595533888301E9, 0.0, 2024-02-10 15:05:33.888
65.0, -313.5532122850418, -615.1387447118759, -2064.4247755408287, -209.19504392147064, -1.008000047877431, -1.008000047877431, 1.008000047877431, 0.0, 0.0, 0.0, 0.0, 0.0, 1.707595533903978E9, 0.0, 2024-02-10 15:05:33.903
65.0, -341.3182295560837, -607.9581367969513, -2024.2133712172508, -226.42850291728973, -1.008000047877431, -1.008000047877431, 1.008000047877431, 0.0, 0.0, 0.0, 0.0, 0.0, 1.707595533903978E9, 0.0, 2024-02-10 15:05:33.903
66.0, -345.8659479022026, -640.7495796084404, -2061.552532374859, -235.28458601236343, -1.008000047877431, -1.008000047877431, 1.008000047877431, 0.0, 0.0, 0.0, 0.0, 0.0, 1.7075955339043908E9, 0.0, 2024-02-10 15:05:33.904
66.0, -317.8615770339966, -627.8244853615761, -2075.674394607544, -213.0247014760971, -1.008000047877431, -1.008000047877431, 1.008000047877431, 0.0, 0.0, 0.0, 0.0, 0.0, 1.7075955339043908E9, 0.0, 2024-02-10 15:05:33.904
67.0, -342.2756439447403, -618.2503414750099, -2031.1546255350113, -216.37565183639526, -1.008000047877431, -1.008000047877431, 1.008000047877431, 0.0, 0.0, 0.0, 0.0, 0.0, 1.707595533918385E9, 0.0, 2024-02-10 15:05:33.918
67.0, -350.89237344264984, -640.0315188169479, -2037.3778190612793, -236.72070759534836, -1.008000047877431, -1.008000047877431, 1.008000047877431, 0.0, 0.0, 0.0, 0.0, 0.0, 1.707595533918385E9, 0.0, 2024-02-10 15:05:33.918
68.0, -325.0421849489212, -643.8611763715744, -2088.5994888544083, -218.2904806137085, -1.008000047877431, -1.008000047877431, 1.008000047877431, 0.0, 0.0, 0.0, 0.0, 0.0, 1.7075955339336262E9, 0.0, 2024-02-10 15:05:33.933
68.0, -315.2286874651909, -596.4691641330719, -2044.797780573368, -208.9556903243065, -1.008000047877431, -1.008000047877431, 1.008000047877431, 0.0, 0.0, 0.0, 0.0, 0.0, 1.7075955339336262E9, 0.0, 2024-02-10 15:05:33.933
69.0, -347.78077667951584, -623.2767670154572, -2020.1443600654602, -222.59884536266327, -1.008000047877431, -1.008000047877431, 1.008000047877431, 0.0, 0.0, 0.0, 0.0, 0.0, 1.7075955339343634E9, 0.0, 2024-02-10 15:05:33.934
69.0, -332.70150005817413, -646.0153587460518, -2076.1531018018723, -224.0349669456482, -1.008000047877431, -1.008000047877431, 1.008000047877431, 0.0, 0.0, 0.0, 0.0, 0.0, 1.7075955339343634E9, 0.0, 2024-02-10 15:05:33.934
70.0, -314.98933386802673, -615.8568055033684, -2065.142836332321, -209.67375111579895, -1.008000047877431, -1.008000047877431, 1.008000047877431, 0.0, 0.0, 0.0, 0.0, 0.0, 1.70759553396442E9, 0.0, 2024-02-10 15:05:33.964
70.0, -340.1214615702629, -607.7187831997871, -2013.2031057476997, -217.8117734193802, -1.008000047877431, -1.008000047877431, 1.008000047877431, 0.0, 0.0, 0.0, 0.0, 0.0, 1.70759553396442E9, 0.0, 2024-02-10 15:05:33.964
71.0, -342.2756439447403, -644.3398835659027, -2060.116410791874, -236.24200040102005, -1.008000047877431, -1.008000047877431, 1.008000047877431, 0.0, 0.0, 0.0, 0.0, 0.0, 1.7075955339649231E9, 0.0, 2024-02-10 15:05:33.964
71.0, -319.2976986169815, -629.4999605417252, -2096.4981575608253, -224.5136741399765, -1.008000047877431, -1.008000047877431, 1.008000047877431, 0.0, 0.0, 0.0, 0.0, 0.0, 1.7075955339649231E9, 0.0, 2024-02-10 15:05:33.964
72.0, -333.65891444683075, -607.7187831997871, -2042.6435981988907, -225.47108852863312, -1.008000047877431, -1.008000047877431, 1.008000047877431, 0.0, 0.0, 0.0, 0.0, 0.0, 1.707595533978849E9, 0.0, 2024-02-10 15:05:33.978
72.0, -355.2007381916046, -647.2121267318726, -2047.4306701421738, -242.7045475244522, -1.008000047877431, -1.008000047877431, 1.008000047877431, 0.0, 0.0, 0.0, 0.0, 0.0, 1.707595533978849E9, 0.0, 2024-02-10 15:05:33.978
73.0, -329.1111961007118, -643.6218227744102, -2092.907853603363, -223.79561334848404, -1.008000047877431, -1.008000047877431, 1.008000047877431, 0.0, 0.0, 0.0, 0.0, 0.0, 1.7075955339796548E9, 0.0, 2024-02-10 15:05:33.979
73.0, -334.8556824326515, -619.2077558636665, -2053.4145100712776, -217.09371262788773, -1.008000047877431, -1.008000047877431, 1.008000047877431, 0.0, 0.0, 0.0, 0.0, 0.0, 1.7075955339796548E9, 0.0, 2024-02-10 15:05:33.979
74.0, -353.52526301145554, -627.1064245700836, -2036.6597582697868, -248.4490338563919, -1.008000047877431, -1.008000047877431, 1.008000047877431, 0.0, 0.0, 0.0, 0.0, 0.0, 1.7075955340100293E9, 0.0, 2024-02-10 15:05:34.010
74.0, -337.9672791957855, -651.2811378836632, -2088.5994888544083, -237.43876838684082, -1.008000047877431, -1.008000047877431, 1.008000047877431, 0.0, 0.0, 0.0, 0.0, 0.0, 1.7075955340100293E9, 0.0, 2024-02-10 15:05:34.010
75.0, -323.12735617160797, -621.6012918353081, -2071.126676261425, -213.98211586475372, -1.008000047877431, -1.008000047877431, 1.008000047877431, 0.0, 0.0, 0.0, 0.0, 0.0, 1.707595534010714E9, 0.0, 2024-02-10 15:05:34.010
75.0, -335.81309682130814, -604.367832839489, -2025.4101392030716, -224.75302773714066, -1.008000047877431, -1.008000047877431, 1.008000047877431, 0.0, 0.0, 0.0, 0.0, 0.0, 1.707595534010714E9, 0.0, 2024-02-10 15:05:34.010
76.0, -347.5414230823517, -647.6908339262009, -2065.8608971238136, -243.18325471878052, -1.008000047877431, -1.008000047877431, 1.008000047877431, 0.0, 0.0, 0.0, 0.0, 0.0, 1.707595534011468E9, 0.0, 2024-02-10 15:05:34.011
76.0, -324.5634777545929, -632.372203707695, -2088.360135257244, -215.1788838505745, -1.008000047877431, -1.008000047877431, 1.008000047877431, 0.0, 0.0, 0.0, 0.0, 0.0, 1.707595534011468E9, 0.0, 2024-02-10 15:05:34.011
77.0, -328.87184250354767, -602.2136504650116, -2033.3088079094887, -217.8117734193802, -1.008000047877431, -1.008000047877431, 1.008000047877431, 0.0, 0.0, 0.0, 0.0, 0.0, 1.7075955340122175E9, 0.0, 2024-02-10 15:05:34.012
77.0, -341.3182295560837, -621.1225846409798, -2038.0958798527718, -233.13040363788605, -1.008000047877431, -1.008000047877431, 1.008000047877431, 0.0, 0.0, 0.0, 0.0, 0.0, 1.7075955340122175E9, 0.0, 2024-02-10 15:05:34.012
78.0, -318.8189914226532, -632.372203707695, -2085.9665992856026, -225.94979572296143, -1.008000047877431, -1.008000047877431, 1.008000047877431, 0.0, 0.0, 0.0, 0.0, 0.0, 1.7075955340236433E9, 0.0, 2024-02-10 15:05:34.023
78.0, -314.0319194793701, -597.1872249245644, -2043.122305393219, -207.04086154699326, -1.008000047877431, -1.008000047877431, 1.008000047877431, 0.0, 0.0, 0.0, 0.0, 0.0, 1.7075955340236433E9, 0.0, 2024-02-10 15:05:34.023
79.0, -338.92469358444214, -620.4045238494873, -2019.1869456768036, -225.23173493146896, -1.008000047877431, -1.008000047877431, 1.008000047877431, 0.0, 0.0, 0.0, 0.0, 0.0, 1.7075955340383012E9, 0.0, 2024-02-10 15:05:34.038
79.0, -331.02602487802505, -648.4088947176933, -2076.6318089962006, -225.71044212579727, -1.008000047877431, -1.008000047877431, 1.008000047877431, 0.0, 0.0, 0.0, 0.0, 0.0, 1.7075955340383012E9, 0.0, 2024-02-10 15:05:34.038
80.0, -309.72355473041534, -613.9419767260551, -2058.919642806053, -207.75892233848572, -1.008000047877431, -1.008000047877431, 1.008000047877431, 0.0, 0.0, 0.0, 0.0, 0.0, 1.7075955340536406E9, 0.0, 2024-02-10 15:05:34.053
80.0, -334.13762164115906, -596.4691641330719, -2016.3147025108337, -224.0349669456482, -1.008000047877431, -1.008000047877431, 1.008000047877431, 0.0, 0.0, 0.0, 0.0, 0.0, 1.7075955340536406E9, 0.0, 2024-02-10 15:05:34.053
81.0, -339.40340077877045, -639.3134580254555, -2062.988653957844, -238.87488996982574, -1.008000047877431, -1.008000047877431, 1.008000047877431, 0.0, 0.0, 0.0, 0.0, 0.0, 1.7075955340544841E9, 0.0, 2024-02-10 15:05:34.054
81.0, -305.1758363842964, -623.9948278069496, -2083.0943561196327, -219.48724859952927, -1.008000047877431, -1.008000047877431, 1.008000047877431, 0.0, 0.0, 0.0, 0.0, 0.0, 1.7075955340544841E9, 0.0, 2024-02-10 15:05:34.054
82.0, -324.80283135175705, -600.0594680905342, -2029.7185039520264, -216.37565183639526, -1.008000047877431, -1.008000047877431, 1.008000047877431, 0.0, 0.0, 0.0, 0.0, 0.0, 1.7075955340679808E9, 0.0, 2024-02-10 15:05:34.067
82.0, -347.78077667951584, -635.483800470829, -2043.122305393219, -239.35359716415405, -1.008000047877431, -1.008000047877431, 1.008000047877431, 0.0, 0.0, 0.0, 0.0, 0.0, 1.7075955340679808E9, 0.0, 2024-02-10 15:05:34.067
83.0, -325.9995993375778, -645.7760051488876, -2086.924013674259, -227.86462450027466, -1.008000047877431, -1.008000047877431, 1.008000047877431, 0.0, 0.0, 0.0, 0.0, 0.0, 1.707595534083624E9, 0.0, 2024-02-10 15:05:34.083
83.0, -316.90416264533997, -604.1284792423248, -2046.9519629478455, -206.8015079498291, -1.008000047877431, -1.008000047877431, 1.008000047877431, 0.0, 0.0, 0.0, 0.0, 0.0, 1.707595534083624E9, 0.0, 2024-02-10 15:05:34.083
84.0, -337.4885720014572, -608.4368439912796, -2029.000443160534, -235.28458601236343, -1.008000047877431, -1.008000047877431, 1.008000047877431, 0.0, 0.0, 0.0, 0.0, 0.0, 1.707595534084439E9, 0.0, 2024-02-10 15:05:34.084
84.0, -325.9995993375778, -639.5528116226196, -2078.0679305791855, -235.76329320669174, -1.008000047877431, -1.008000047877431, 1.008000047877431, 0.0, 0.0, 0.0, 0.0, 0.0, 1.707595534084439E9, 0.0, 2024-02-10 15:05:34.084
85.0, -316.90416264533997, -624.4735350012779, -2067.0576651096344, -212.0672870874405, -1.008000047877431, -1.008000047877431, 1.008000047877431, 0.0, 0.0, 0.0, 0.0, 0.0, 1.7075955340984821E9, 0.0, 2024-02-10 15:05:34.098
85.0, -342.2756439447403, -606.7613688111305, -2017.9901776909828, -221.4020773768425, -1.008000047877431, -1.008000047877431, 1.008000047877431, 0.0, 0.0, 0.0, 0.0, 0.0, 1.7075955340984821E9, 0.0, 2024-02-10 15:05:34.098
86.0, -333.8982680439949, -641.9463475942612, -2063.7067147493362, -241.7471331357956, -1.008000047877431, -1.008000047877431, 1.008000047877431, 0.0, 0.0, 0.0, 0.0, 0.0, 1.7075955341138492E9, 0.0, 2024-02-10 15:05:34.113
86.0, -323.6060633659363, -630.6967285275459, -2091.471732020378, -219.2478950023651, -1.008000047877431, -1.008000047877431, 1.008000047877431, 0.0, 0.0, 0.0, 0.0, 0.0, 1.7075955341138492E9, 0.0, 2024-02-10 15:05:34.113
87.0, -335.81309682130814, -606.0433080196381, -2027.3249679803848, -215.89694464206696, -1.008000047877431, -1.008000047877431, 1.008000047877431, 0.0, 0.0, 0.0, 0.0, 0.0, 1.7075955341143484E9, 0.0, 2024-02-10 15:05:34.114
87.0, -349.9349590539932, -637.6379828453064, -2054.8506316542625, -252.27869141101837, -1.008000047877431, -1.008000047877431, 1.008000047877431, 0.0, 0.0, 0.0, 0.0, 0.0, 1.7075955341143484E9, 0.0, 2024-02-10 15:05:34.114
88.0, -330.7866712808609, -645.0579443573952, -2105.8329478502274, -242.2258403301239, -1.008000047877431, -1.008000047877431, 1.008000047877431, 0.0, 0.0, 0.0, 0.0, 0.0, 1.7075955341279495E9, 0.0, 2024-02-10 15:05:34.127
88.0, -326.238952934742, -615.8568055033684, -2059.3983500003815, -219.96595579385757, -1.008000047877431, -1.008000047877431, 1.008000047877431, 0.0, 0.0, 0.0, 0.0, 0.0, 1.7075955341279495E9, 0.0, 2024-02-10 15:05:34.127
89.0, -357.354920566082, -636.2018612623215, -2032.351393520832, -237.43876838684082, -1.008000047877431, -1.008000047877431, 1.008000047877431, 0.0, 0.0, 0.0, 0.0, 0.0, 1.707595534143672E9, 0.0, 2024-02-10 15:05:34.143
89.0, -345.14788711071014, -651.2811378836632, -2085.9665992856026, -243.42260831594467, -1.008000047877431, -1.008000047877431, 1.008000047877431, 0.0, 0.0, 0.0, 0.0, 0.0, 1.707595534143672E9, 0.0, 2024-02-10 15:05:34.143
90.0, -320.9731737971306, -622.7980598211288, -2077.8285769820213, -222.83819895982742, -1.008000047877431, -1.008000047877431, 1.008000047877431, 0.0, 0.0, 0.0, 0.0, 0.0, 1.7075955341443865E9, 0.0, 2024-02-10 15:05:34.144
90.0, -346.8233622908592, -613.9419767260551, -2030.9152719378471, -232.17298924922943, -1.008000047877431, -1.008000047877431, 1.008000047877431, 0.0, 0.0, 0.0, 0.0, 0.0, 1.7075955341443865E9, 0.0, 2024-02-10 15:05:34.144
91.0, -346.10530149936676, -656.0682098269463, -2065.142836332321, -239.5929507613182, -1.008000047877431, -1.008000047877431, 1.008000047877431, 0.0, 0.0, 0.0, 0.0, 0.0, 1.707595534157976E9, 0.0, 2024-02-10 15:05:34.157
91.0, -321.21252739429474, -634.5263860821724, -2090.7536712288857, -217.57241982221603, -1.008000047877431, -1.008000047877431, 1.008000047877431, 0.0, 0.0, 0.0, 0.0, 0.0, 1.707595534157976E9, 0.0, 2024-02-10 15:05:34.157
92.0, -332.2227928638458, -603.6497720479965, -2040.2500622272491, -221.16272377967834, -1.008000047877431, -1.008000047877431, 1.008000047877431, 0.0, 0.0, 0.0, 0.0, 0.0, 1.7075955341735876E9, 0.0, 2024-02-10 15:05:34.173
92.0, -358.3123349547386, -646.7334195375443, -2055.329338848591, -243.66196191310883, -1.008000047877431, -1.008000047877431, 1.008000047877431, 0.0, 0.0, 0.0, 0.0, 0.0, 1.7075955341735876E9, 0.0, 2024-02-10 15:05:34.173
93.0, -329.350549697876, -646.0153587460518, -2102.481997489929, -238.15682917833328, -1.008000047877431, -1.008000047877431, 1.008000047877431, 0.0, 0.0, 0.0, 0.0, 0.0, 1.7075955341743524E9, 0.0, 2024-02-10 15:05:34.174
93.0, -330.3079640865326, -618.7290486693382, -2056.5261068344116, -220.9233701825142, -1.008000047877431, -1.008000047877431, 1.008000047877431, 0.0, 0.0, 0.0, 0.0, 0.0, 1.7075955341743524E9, 0.0, 2024-02-10 15:05:34.174
94.0, -352.0891414284706, -626.3883637785912, -2035.223636686802, -233.8484644293785, -1.008000047877431, -1.008000047877431, 1.008000047877431, 0.0, 0.0, 0.0, 0.0, 0.0, 1.7075955341885152E9, 0.0, 2024-02-10 15:05:34.188
94.0, -334.61632883548737, -642.6644083857536, -2089.556903243065, -234.80587881803513, -1.008000047877431, -1.008000047877431, 1.008000047877431, 0.0, 0.0, 0.0, 0.0, 0.0, 1.7075955341885152E9, 0.0, 2024-02-10 15:05:34.188
95.0, -317.1435162425041, -620.6438774466515, -2077.589223384857, -218.52983421087265, -1.008000047877431, -1.008000047877431, 1.008000047877431, 0.0, 0.0, 0.0, 0.0, 0.0, 1.7075955342040627E9, 0.0, 2024-02-10 15:05:34.204
95.0, -350.1743126511574, -617.2929270863533, -2016.793409705162, -222.59884536266327, -1.008000047877431, -1.008000047877431, 1.008000047877431, 0.0, 0.0, 0.0, 0.0, 0.0, 1.7075955342040627E9, 0.0, 2024-02-10 15:05:34.204
96.0, -345.8659479022026, -641.4676403999329, -2057.4835212230682, -229.54009968042374, -1.008000047877431, -1.008000047877431, 1.008000047877431, 0.0, 0.0, 0.0, 0.0, 0.0, 1.7075955342044797E9, 0.0, 2024-02-10 15:05:34.204
96.0, -321.21252739429474, -641.706993997097, -2087.4027208685875, -216.61500543355942, -1.008000047877431, -1.008000047877431, 1.008000047877431, 0.0, 0.0, 0.0, 0.0, 0.0, 1.7075955342044797E9, 0.0, 2024-02-10 15:05:34.204
97.0, -330.3079640865326, -609.1549047827721, -2033.787515103817, -214.93953025341034, -1.008000047877431, -1.008000047877431, 1.008000047877431, 0.0, 0.0, 0.0, 0.0, 0.0, 1.7075955342179763E9, 0.0, 2024-02-10 15:05:34.217
97.0, -346.8233622908592, -633.3296180963516, -2047.670023739338, -236.9600611925125, -1.008000047877431, -1.008000047877431, 1.008000047877431, 0.0, 0.0, 0.0, 0.0, 0.0, 1.7075955342179763E9, 0.0, 2024-02-10 15:05:34.217
98.0, -329.1111961007118, -639.5528116226196, -2091.9504392147064, -221.4020773768425, -1.008000047877431, -1.008000047877431, 1.008000047877431, 0.0, 0.0, 0.0, 0.0, 0.0, 1.7075955342329204E9, 0.0, 2024-02-10 15:05:34.232
98.0, -323.3667097687721, -620.4045238494873, -2047.4306701421738, -204.64732557535172, -1.008000047877431, -1.008000047877431, 1.008000047877431, 0.0, 0.0, 0.0, 0.0, 0.0, 1.7075955342329204E9, 0.0, 2024-02-10 15:05:34.232
0.0, -336.29180401563644, -646.4940659403801, -2080.222112953663, -230.49751406908035, -1.008000047877431, -1.008000047877431, 1.008000047877431, 0.0, 0.0, 0.0, 0.0, 0.0, 1.7075955342485929E9, 0.0, 2024-02-10 15:05:34.248
0.0, -314.0319194793701, -617.7716342806816, -2074.7169802188873, -211.82793349027634, -1.008000047877431, -1.008000047877431, 1.008000047877431, 0.0, 0.0, 0.0, 0.0, 0.0, 1.7075955342485929E9, 0.0, 2024-02-10 15:05:34.248
1.0, -348.25948387384415, -622.3193526268005, -2025.6494928002357, -224.27432054281235, -1.008000047877431, 0.0, 1.008000047877431, 0.0, 0.0, 0.0, 0.0, 0.0, 1.7075955342493389E9, 0.0, 2024-02-10 15:05:34.249
1.0, -353.52526301145554, -655.1107954382896, -2063.228007555008, -238.6355363726616, -1.008000047877431, 0.0, 1.008000047877431, 0.0, 0.0, 0.0, 0.0, 0.0, 1.7075955342493389E9, 0.0, 2024-02-10 15:05:34.249
2.0, -316.6648090481758, -635.7231540679932, -2090.5143176317215, -221.8807845711708, 0.04800000227987766, 0.0, 1.008000047877431, 0.0, 0.0, 0.0, 0.0, 0.0, 1.7075955342632544E9, 0.0, 2024-02-10 15:05:34.263
2.0, -329.1111961007118, -613.702623128891, -2033.787515103817, -216.85435903072357, 0.04800000227987766, 0.0, 1.008000047877431, 0.0, 0.0, 0.0, 0.0, 0.0, 1.7075955342632544E9, 0.0, 2024-02-10 15:05:34.263
3.0, -341.3182295560837, -629.4999605417252, -2044.3190733790398, -236.4813539981842, 0.04800000227987766, 0.0, 1.008000047877431, 0.0, 0.0, 0.0, 0.0, 0.0, 1.707595534278724E9, 0.0, 2024-02-10 15:05:34.278
3.0, -320.2551130056381, -635.9625076651573, -2093.3865607976913, -226.6678565144539, 0.04800000227987766, 0.0, 1.008000047877431, 0.0, 0.0, 0.0, 0.0, 0.0, 1.707595534278724E9, 0.0, 2024-02-10 15:05:34.278
4.0, -315.46804106235504, -605.8039544224739, -2055.329338848591, -222.35949176549911, 0.04800000227987766, 0.0, 1.008000047877431, 0.0, 0.0, 0.0, 0.0, 0.0, 1.70759553427933E9, 0.0, 2024-02-10 15:05:34.279
4.0, -337.4885720014572, -616.0961591005325, -2021.1017744541168, -232.8910500407219, 0.04800000227987766, 0.0, 1.008000047877431, 0.0, 0.0, 0.0, 0.0, 0.0, 1.70759553427933E9, 0.0, 2024-02-10 15:05:34.279
5.0, -319.7764058113098, -639.3134580254555, -2069.9299082756042, -220.44466298818588, 0.04800000227987766, 0.0, 1.008000047877431, 0.0, 0.0, 0.0, 0.0, 0.0, 1.7075955342929516E9, 0.0, 2024-02-10 15:05:34.292
5.0, -305.8938971757889, -615.1387447118759, -2064.903482735157, -204.88667917251587, 0.04800000227987766, 0.0, 1.008000047877431, 0.0, 0.0, 0.0, 0.0, 0.0, 1.7075955342929516E9, 0.0, 2024-02-10 15:05:34.292
6.0, -334.13762164115906, -597.9052857160568, -2018.9475920796394, -220.20530939102173, 0.04800000227987766, 0.0, 1.008000047877431, 0.0, 0.0, 0.0, 0.0, 0.0, 1.707595534308616E9, 0.0, 2024-02-10 15:05:34.308
6.0, -337.24921840429306, -633.0902644991875, -2060.116410791874, -239.35359716415405, 0.04800000227987766, 0.0, 1.008000047877431, 0.0, 0.0, 0.0, 0.0, 0.0, 1.707595534308616E9, 0.0, 2024-02-10 15:05:34.308
7.0, -314.98933386802673, -627.1064245700836, -2079.5040521621704, -211.34922629594803, 0.04800000227987766, 0.0, 1.008000047877431, 0.0, 0.0, 0.0, 0.0, 0.0, 1.707595534309332E9, 0.0, 2024-02-10 15:05:34.309
7.0, -324.5634777545929, -599.5807608962059, -2025.6494928002357, -211.10987269878387, 0.04800000227987766, 0.0, 1.008000047877431, 0.0, 0.0, 0.0, 0.0, 0.0, 1.707595534309332E9, 0.0, 2024-02-10 15:05:34.309
8.0, -339.6427543759346, -637.8773364424706, -2039.2926478385925, -238.39618277549744, 0.04800000227987766, 0.0, 1.008000047877431, 0.0, 0.0, 0.0, 0.0, 0.0, 1.7075955343233037E9, 0.0, 2024-02-10 15:05:34.323
8.0, -313.31385868787766, -626.3883637785912, -2087.6420744657516, -221.4020773768425, 0.04800000227987766, 0.0, 1.008000047877431, 0.0, 0.0, 0.0, 0.0, 0.0, 1.7075955343233037E9, 0.0, 2024-02-10 15:05:34.323
9.0, -323.6060633659363, -610.1123191714287, -2054.6112780570984, -213.50340867042542, 0.04800000227987766, 0.0, 1.008000047877431, 0.0, 0.0, 0.0, 0.0, 0.0, 1.7075955343388193E9, 0.0, 2024-02-10 15:05:34.338
9.0, -341.0788759589195, -612.0271479487419, -2020.6230672597885, -223.31690615415573, 0.04800000227987766, 0.0, 1.008000047877431, 0.0, 0.0, 0.0, 0.0, 0.0, 1.7075955343388193E9, 0.0, 2024-02-10 15:05:34.338
10.0, -324.0847705602646, -641.4676403999329, -2076.6318089962006, -226.90721011161804, 0.04800000227987766, 0.0, 1.008000047877431, 0.0, 0.0, 0.0, 0.0, 0.0, 1.7075955343393383E9, 0.0, 2024-02-10 15:05:34.339
10.0, -316.90416264533997, -628.7818997502327, -2072.802151441574, -208.71633672714233, 0.04800000227987766, 0.0, 1.008000047877431, 0.0, 0.0, 0.0, 0.0, 0.0, 1.7075955343393383E9, 0.0, 2024-02-10 15:05:34.339
11.0, -335.573743224144, -606.5220152139664, -2017.0327633023262, -220.44466298818588, 0.04800000227987766, 0.0, 1.008000047877431, 0.0, 0.0, 0.0, 0.0, 0.0, 1.7075955343533268E9, 0.0, 2024-02-10 15:05:34.353
11.0, -337.72792559862137, -632.372203707695, -2061.791885972023, -235.5239396095276, 0.04800000227987766, 0.0, 1.008000047877431, 0.0, 0.0, 0.0, 0.0, 0.0, 1.7075955343533268E9, 0.0, 2024-02-10 15:05:34.353
12.0, -312.1170907020569, -627.1064245700836, -2083.0943561196327, -209.9131047129631, 0.04800000227987766, 0.0, 1.008000047877431, 0.0, 0.0, 0.0, 0.0, 0.0, 1.7075955343688009E9, 0.0, 2024-02-10 15:05:34.368
12.0, -328.39313530921936, -605.0858936309814, -2040.4894158244133, -223.31690615415573, 0.04800000227987766, 0.0, 1.008000047877431, 0.0, 0.0, 0.0, 0.0, 0.0, 1.7075955343688009E9, 0.0, 2024-02-10 15:05:34.368
13.0, -339.88210797309875, -623.9948278069496, -2043.122305393219, -238.6355363726616, 0.04800000227987766, 0.0, 1.008000047877431, 0.0, 0.0, 0.0, 0.0, 0.0, 1.7075955343694637E9, 0.0, 2024-02-10 15:05:34.369
13.0, -320.73382019996643, -640.5102260112762, -2093.147207200527, -228.82203888893127, 0.04800000227987766, 0.0, 1.008000047877431, 0.0, 0.0, 0.0, 0.0, 0.0, 1.7075955343694637E9, 0.0, 2024-02-10 15:05:34.369
14.0, -325.5208921432495, -613.4632695317268, -2056.2867532372475, -210.63116550445557, 0.04800000227987766, 0.0, 1.008000047877431, 0.0, 0.0, 0.0, 0.0, 0.0, 1.7075955343831735E9, 0.0, 2024-02-10 15:05:34.383
14.0, -346.58400869369507, -623.7554742097855, -2029.4791503548622, -230.2581604719162, 0.04800000227987766, 0.0, 1.008000047877431, 0.0, 0.0, 0.0, 0.0, 0.0, 1.7075955343831735E9, 0.0, 2024-02-10 15:05:34.383
15.0, -326.238952934742, -639.7921652197838, -2084.769831299782, -229.7794532775879, 0.04800000227987766, 0.0, 1.008000047877431, 0.0, 0.0, 0.0, 0.0, 0.0, 1.7075955343986356E9, 0.0, 2024-02-10 15:05:34.398
15.0, -313.79256588220596, -609.8729655742645, -2073.7595658302307, -206.56215435266495, 0.04800000227987766, 0.0, 1.008000047877431, 0.0, 0.0, 0.0, 0.0, 0.0, 1.7075955343986356E9, 0.0, 2024-02-10 15:05:34.398
16.0, -329.350549697876, -597.6659321188927, -2008.1766802072525, -202.49314320087433, 0.04800000227987766, 0.0, 1.008000047877431, 0.0, 0.0, 0.0, 0.0, 0.0, 1.707595534399345E9, 0.0, 2024-02-10 15:05:34.399
16.0, -325.76024574041367, -624.4735350012779, -2046.9519629478455, -219.72660219669342, 0.04800000227987766, 0.0, 1.008000047877431, 0.0, 0.0, 0.0, 0.0, 0.0, 1.707595534399345E9, 0.0, 2024-02-10 15:05:34.399
17.0, -299.19199645519257, -614.8993911147118, -2071.8447370529175, -194.8338280916214, 0.04800000227987766, 0.0, 1.008000047877431, 0.0, 0.0, 0.0, 0.0, 0.0, 1.707595534413218E9, 0.0, 2024-02-10 15:05:34.413
17.0, -307.8087259531021, -582.586655497551, -2019.1869456768036, -192.2009385228157, 0.04800000227987766, 0.0, 1.008000047877431, 0.0, 0.0, 0.0, 0.0, 0.0, 1.707595534413218E9, 0.0, 2024-02-10 15:05:34.413
18.0, -332.9408536553383, -618.2503414750099, -2034.2662222981453, -222.35949176549911, 0.04800000227987766, 0.0, 1.008000047877431, 0.0, 0.0, 0.0, 0.0, 0.0, 1.707595534428928E9, 0.0, 2024-02-10 15:05:34.428
18.0, -317.8615770339966, -635.2444468736649, -2084.769831299782, -209.19504392147064, 0.04800000227987766, 0.0, 1.008000047877431, 0.0, 0.0, 0.0, 0.0, 0.0, 1.707595534428928E9, 0.0, 2024-02-10 15:05:34.428
19.0, -317.6222234368324, -598.3839929103851, -2048.6274381279945, -193.15835291147232, 0.04800000227987766, 0.0, 1.008000047877431, 0.0, 0.0, 0.0, 0.0, 0.0, 1.7075955344295688E9, 0.0, 2024-02-10 15:05:34.429
19.0, -339.88210797309875, -617.0535734891891, -2017.7508240938187, -217.57241982221603, 0.04800000227987766, 0.0, 1.008000047877431, 0.0, 0.0, 0.0, 0.0, 0.0, 1.7075955344295688E9, 0.0, 2024-02-10 15:05:34.429
20.0, -334.13762164115906, -647.2121267318726, -2078.546637773514, -223.31690615415573, 0.04800000227987766, 0.0, 1.008000047877431, 0.0, 0.0, 0.0, 0.0, 0.0, 1.7075955344431753E9, 0.0, 2024-02-10 15:05:34.443
20.0, -309.4842011332512, -608.1974903941154, -2065.3821899294853, -196.26994967460632, 0.04800000227987766, 0.0, 1.008000047877431, 0.0, 0.0, 0.0, 0.0, 0.0, 1.7075955344431753E9, 0.0, 2024-02-10 15:05:34.443
21.0, -332.46214646101, -604.8465400338173, -2027.3249679803848, -210.63116550445557, 0.04800000227987766, 0.0, 1.008000047877431, 0.0, 0.0, 0.0, 0.0, 0.0, 1.7075955344749591E9, 0.0, 2024-02-10 15:05:34.474
21.0, -347.78077667951584, -640.2708724141121, -2052.457095682621, -227.86462450027466, 0.04800000227987766, 0.0, 1.008000047877431, 0.0, 0.0, 0.0, 0.0, 0.0, 1.7075955344749591E9, 0.0, 2024-02-10 15:05:34.474
22.0, -321.69123458862305, -626.3883637785912, -2077.589223384857, -197.70607125759125, 0.04800000227987766, 0.0, 1.008000047877431, 0.0, 0.0, 0.0, 0.0, 0.0, 1.7075955344757092E9, 0.0, 2024-02-10 15:05:34.475
22.0, -327.6750745177269, -601.0168824791908, -2028.5217359662056, -202.97185039520264, 0.04800000227987766, 0.0, 1.008000047877431, 0.0, 0.0, 0.0, 0.0, 0.0, 1.7075955344757092E9, 0.0, 2024-02-10 15:05:34.475
23.0, -338.685339987278, -623.9948278069496, -2026.128199994564, -219.2478950023651, 0.04800000227987766, 0.0, 1.008000047877431, 0.0, 0.0, 0.0, 0.0, 0.0, 1.7075955344764647E9, 0.0, 2024-02-10 15:05:34.476
23.0, -313.79256588220596, -630.2180213332176, -2085.24853849411, -212.5459942817688, 0.04800000227987766, 0.0, 1.008000047877431, 0.0, 0.0, 0.0, 0.0, 0.0, 1.7075955344764647E9, 0.0, 2024-02-10 15:05:34.476
24.0, -308.2874331474304, -595.7511033415794, -2047.909377336502, -195.07318168878555, 0.04800000227987766, 0.0, 1.008000047877431, 0.0, 0.0, 0.0, 0.0, 0.0, 1.7075955344771876E9, 0.0, 2024-02-10 15:05:34.477
24.0, -346.3446550965309, -615.1387447118759, -2020.8624208569527, -217.57241982221603, 0.04800000227987766, 0.0, 1.008000047877431, 0.0, 0.0, 0.0, 0.0, 0.0, 1.7075955344771876E9, 0.0, 2024-02-10 15:05:34.477
25.0, -333.65891444683075, -639.7921652197838, -2084.2911241054535, -226.90721011161804, 0.04800000227987766, 0.0, 1.008000047877431, 0.0, 0.0, 0.0, 0.0, 0.0, 1.7075955344884553E9, 0.0, 2024-02-10 15:05:34.488
25.0, -320.9731737971306, -623.5161206126213, -2073.5202122330666, -207.75892233848572, 0.04800000227987766, 0.0, 1.008000047877431, 0.0, 0.0, 0.0, 0.0, 0.0, 1.7075955344884553E9, 0.0, 2024-02-10 15:05:34.488
26.0, -344.1904727220535, -610.591026365757, -2024.452724814415, -216.1362982392311, 0.04800000227987766, 0.0, 1.008000047877431, 0.0, 0.0, 0.0, 0.0, 0.0, 1.7075955345033872E9, 0.0, 2024-02-10 15:05:34.503
26.0, -339.88210797309875, -635.0050932765007, -2058.680289208889, -235.04523241519928, 0.04800000227987766, 0.0, 1.008000047877431, 0.0, 0.0, 0.0, 0.0, 0.0, 1.7075955345033872E9, 0.0, 2024-02-10 15:05:34.503
27.0, -323.3667097687721, -635.2444468736649, -2089.0781960487366, -215.6575910449028, 0.04800000227987766, 0.0, 1.008000047877431, 0.0, 0.0, 0.0, 0.0, 0.0, 1.7075955345187967E9, 0.0, 2024-02-10 15:05:34.518
27.0, -335.0950360298157, -601.9742968678474, -2034.9842830896378, -213.50340867042542, 0.04800000227987766, 0.0, 1.008000047877431, 0.0, 0.0, 0.0, 0.0, 0.0, 1.7075955345187967E9, 0.0, 2024-02-10 15:05:34.518
28.0, -349.4562518596649, -629.0212533473969, -2038.0958798527718, -230.2581604719162, 0.04800000227987766, 0.0, 1.008000047877431, 0.0, 0.0, 0.0, 0.0, 0.0, 1.7075955345196772E9, 0.0, 2024-02-10 15:05:34.519
28.0, -323.3667097687721, -637.3986292481422, -2086.924013674259, -210.63116550445557, 0.04800000227987766, 0.0, 1.008000047877431, 0.0, 0.0, 0.0, 0.0, 0.0, 1.7075955345196772E9, 0.0, 2024-02-10 15:05:34.519
29.0, -311.15967631340027, -603.6497720479965, -2049.8242061138153, -202.25378960371017, 0.04800000227987766, 0.0, 1.008000047877431, 0.0, 0.0, 0.0, 0.0, 0.0, 1.7075955345332687E9, 0.0, 2024-02-10 15:05:34.533
29.0, -342.2756439447403, -614.8993911147118, -2027.0856143832207, -224.9923813343048, 0.04800000227987766, 0.0, 1.008000047877431, 0.0, 0.0, 0.0, 0.0, 0.0, 1.7075955345332687E9, 0.0, 2024-02-10 15:05:34.533
30.0, -331.02602487802505, -635.2444468736649, -2073.998919427395, -222.83819895982742, 0.04800000227987766, 0.0, 1.008000047877431, 0.0, 0.0, 0.0, 0.0, 0.0, 1.707595534548722E9, 0.0, 2024-02-10 15:05:34.548
30.0, -319.7764058113098, -619.4471094608307, -2068.4937866926193, -207.04086154699326, 0.04800000227987766, 0.0, 1.008000047877431, 0.0, 0.0, 0.0, 0.0, 0.0, 1.707595534548722E9, 0.0, 2024-02-10 15:05:34.548
31.0, -345.3872407078743, -617.0535734891891, -2021.1017744541168, -220.44466298818588, 0.04800000227987766, 0.0, 1.008000047877431, 0.0, 0.0, 0.0, 0.0, 0.0, 1.7075955345493505E9, 0.0, 2024-02-10 15:05:34.549
31.0, -347.5414230823517, -642.9037619829178, -2062.7493003606796, -236.24200040102005, 0.04800000227987766, 0.0, 1.008000047877431, 0.0, 0.0, 0.0, 0.0, 0.0, 1.7075955345493505E9, 0.0, 2024-02-10 15:05:34.549
32.0, -317.3828698396683, -627.1064245700836, -2087.4027208685875, -214.93953025341034, 0.04800000227987766, 0.0, 1.008000047877431, 0.0, 0.0, 0.0, 0.0, 0.0, 1.707595534563144E9, 0.0, 2024-02-10 15:05:34.563
32.0, -336.77051120996475, -613.9419767260551, -2039.5320014357567, -211.58857989311218, 0.04800000227987766, 0.0, 1.008000047877431, 0.0, 0.0, 0.0, 0.0, 0.0, 1.707595534563144E9, 0.0, 2024-02-10 15:05:34.563
33.0, -351.6104342341423, -634.7657396793365, -2042.1648910045624, -236.0026468038559, 0.04800000227987766, 0.0, 1.008000047877431, 0.0, 0.0, 0.0, 0.0, 0.0, 1.7075955345788548E9, 0.0, 2024-02-10 15:05:34.578
33.0, -323.84541696310043, -637.8773364424706, -2098.4129863381386, -229.30074608325958, 0.04800000227987766, 0.0, 1.008000047877431, 0.0, 0.0, 0.0, 0.0, 0.0, 1.7075955345788548E9, 0.0, 2024-02-10 15:05:34.578
34.0, -317.6222234368324, -611.7877943515778, -2051.7390348911285, -202.73249679803848, 0.04800000227987766, 0.0, 1.008000047877431, 0.0, 0.0, 0.0, 0.0, 0.0, 1.7075955345795753E9, 0.0, 2024-02-10 15:05:34.579
34.0, -345.62659430503845, -623.7554742097855, -2025.6494928002357, -230.01880687475204, 0.04800000227987766, 0.0, 1.008000047877431, 0.0, 0.0, 0.0, 0.0, 0.0, 1.7075955345795753E9, 0.0, 2024-02-10 15:05:34.579
35.0, -328.87184250354767, -646.7334195375443, -2075.674394607544, -227.86462450027466, 0.04800000227987766, 0.0, 1.008000047877431, 0.0, 0.0, 0.0, 0.0, 0.0, 1.7075955345931587E9, 0.0, 2024-02-10 15:05:34.593
35.0, -308.04807955026627, -615.1387447118759, -2068.015079498291, -204.1686183810234, 0.04800000227987766, 0.0, 1.008000047877431, 0.0, 0.0, 0.0, 0.0, 0.0, 1.7075955345931587E9, 0.0, 2024-02-10 15:05:34.593
36.0, -341.55758315324783, -608.6761975884438, -2020.6230672597885, -220.20530939102173, 0.04800000227987766, 0.0, 1.008000047877431, 0.0, 0.0, 0.0, 0.0, 0.0, 1.707595534608658E9, 0.0, 2024-02-10 15:05:34.608
36.0, -339.40340077877045, -637.3986292481422, -2054.8506316542625, -236.4813539981842, 0.04800000227987766, 0.0, 1.008000047877431, 0.0, 0.0, 0.0, 0.0, 0.0, 1.707595534608658E9, 0.0, 2024-02-10 15:05:34.608
37.0, -319.2976986169815, -637.3986292481422, -2082.3762953281403, -208.71633672714233, 0.04800000227987766, 0.0, 1.008000047877431, 0.0, 0.0, 0.0, 0.0, 0.0, 1.7075955346094186E9, 0.0, 2024-02-10 15:05:34.609
37.0, -333.4195608496666, -618.9684022665024, -2036.4204046726227, -217.09371262788773, 0.04800000227987766, 0.0, 1.008000047877431, 0.0, 0.0, 0.0, 0.0, 0.0, 1.7075955346094186E9, 0.0, 2024-02-10 15:05:34.609
38.0, -350.1743126511574, -641.4676403999329, -2044.797780573368, -240.31101155281067, 0.04800000227987766, 0.0, 1.008000047877431, 0.0, 0.0, 0.0, 0.0, 0.0, 1.7075955346229844E9, 0.0, 2024-02-10 15:05:34.622
38.0, -327.1963673233986, -643.6218227744102, -2093.8652679920197, -221.16272377967834, 0.04800000227987766, 0.0, 1.008000047877431, 0.0, 0.0, 0.0, 0.0, 0.0, 1.7075955346229844E9, 0.0, 2024-02-10 15:05:34.622
39.0, -330.3079640865326, -609.8729655742645, -2059.87705719471, -211.82793349027634, 0.04800000227987766, 0.0, 1.008000047877431, 0.0, 0.0, 0.0, 0.0, 0.0, 1.7075955346386206E9, 0.0, 2024-02-10 15:05:34.638
39.0, -362.38134610652924, -640.7495796084404, -2035.7023438811302, -241.98648673295975, 0.04800000227987766, 0.0, 1.008000047877431, 0.0, 0.0, 0.0, 0.0, 0.0, 1.7075955346386206E9, 0.0, 2024-02-10 15:05:34.638
40.0, -337.72792559862137, -651.7598450779915, -2087.4027208685875, -241.98648673295975, 0.04800000227987766, 0.0, 1.008000047877431, 0.0, 0.0, 0.0, 0.0, 0.0, 1.7075955346393578E9, 0.0, 2024-02-10 15:05:34.639
40.0, -317.8615770339966, -625.9096565842628, -2072.323444247246, -211.58857989311218, 0.04800000227987766, 0.0, 1.008000047877431, 0.0, 0.0, 0.0, 0.0, 0.0, 1.7075955346393578E9, 0.0, 2024-02-10 15:05:34.639
41.0, -343.2330583333969, -622.7980598211288, -2024.6920784115791, -228.58268529176712, 0.04800000227987766, 0.0, 1.008000047877431, 0.0, 0.0, 0.0, 0.0, 0.0, 1.7075955346529887E9, 0.0, 2024-02-10 15:05:34.652
41.0, -346.8233622908592, -640.2708724141121, -2063.467361152172, -243.90131551027298, 0.04800000227987766, 0.0, 1.008000047877431, 0.0, 0.0, 0.0, 0.0, 0.0, 1.7075955346529887E9, 0.0, 2024-02-10 15:05:34.652
42.0, -321.9305881857872, -635.7231540679932, -2094.583328783512, -218.2904806137085, 0.04800000227987766, 0.0, 1.008000047877431, 0.0, 0.0, 0.0, 0.0, 0.0, 1.707595534668884E9, 0.0, 2024-02-10 15:05:34.668
42.0, -339.40340077877045, -620.6438774466515, -2037.8565262556076, -216.1362982392311, 0.04800000227987766, 0.0, 1.008000047877431, 0.0, 0.0, 0.0, 0.0, 0.0, 1.707595534668884E9, 0.0, 2024-02-10 15:05:34.668
43.0, -348.9775446653366, -636.6805684566498, -2044.3190733790398, -241.26842594146729, 0.04800000227987766, 0.0, 1.008000047877431, 0.0, 0.0, 0.0, 0.0, 0.0, 1.7075955346694212E9, 0.0, 2024-02-10 15:05:34.669
43.0, -325.9995993375778, -643.8611763715744, -2098.4129863381386, -234.80587881803513, 0.04800000227987766, 0.0, 1.008000047877431, 0.0, 0.0, 0.0, 0.0, 0.0, 1.7075955346694212E9, 0.0, 2024-02-10 15:05:34.669
44.0, -332.2227928638458, -624.2341814041138, -2062.988653957844, -217.8117734193802, 0.04800000227987766, 0.0, 1.008000047877431, 0.0, 0.0, 0.0, 0.0, 0.0, 1.7075955346832387E9, 0.0, 2024-02-10 15:05:34.683
44.0, -355.2007381916046, -627.3457781672478, -2035.7023438811302, -236.24200040102005, 0.04800000227987766, 0.0, 1.008000047877431, 0.0, 0.0, 0.0, 0.0, 0.0, 1.7075955346832387E9, 0.0, 2024-02-10 15:05:34.683
45.0, -344.908533513546, -652.9566130638123, -2084.769831299782, -237.19941478967667, 0.04800000227987766, 0.0, 1.008000047877431, 0.0, 0.0, 0.0, 0.0, 0.0, 1.7075955346988902E9, 0.0, 2024-02-10 15:05:34.698
45.0, -329.58990329504013, -640.0315188169479, -2079.9827593564987, -210.87051910161972, 0.04800000227987766, 0.0, 1.008000047877431, 0.0, 0.0, 0.0, 0.0, 0.0, 1.7075955346988902E9, 0.0, 2024-02-10 15:05:34.698
46.0, -351.6104342341423, -620.6438774466515, -2027.0856143832207, -224.9923813343048, 0.04800000227987766, 0.0, 1.008000047877431, 0.0, 0.0, 0.0, 0.0, 0.0, 1.707595534699406E9, 0.0, 2024-02-10 15:05:34.699
46.0, -347.0627158880234, -649.1269555091858, -2060.116410791874, -236.0026468038559, 0.04800000227987766, 0.0, 1.008000047877431, 0.0, 0.0, 0.0, 0.0, 0.0, 1.707595534699406E9, 0.0, 2024-02-10 15:05:34.699
47.0, -321.69123458862305, -635.483800470829, -2098.891693532467, -220.20530939102173, 0.04800000227987766, 0.0, 1.008000047877431, 0.0, 0.0, 0.0, 0.0, 0.0, 1.7075955347134404E9, 0.0, 2024-02-10 15:05:34.713
47.0, -329.350549697876, -609.1549047827721, -2029.7185039520264, -211.34922629594803, 0.04800000227987766, 0.0, 1.008000047877431, 0.0, 0.0, 0.0, 0.0, 0.0, 1.7075955347134404E9, 0.0, 2024-02-10 15:05:34.713
48.0, -346.3446550965309, -631.1754357218742, -2047.4306701421738, -236.4813539981842, 0.04800000227987766, 0.0, 1.008000047877431, 0.0, 0.0, 0.0, 0.0, 0.0, 1.7075955347288125E9, 0.0, 2024-02-10 15:05:34.728
48.0, -328.87184250354767, -641.2282868027687, -2100.567168712616, -232.8910500407219, 0.04800000227987766, 0.0, 1.008000047877431, 0.0, 0.0, 0.0, 0.0, 0.0, 1.7075955347288125E9, 0.0, 2024-02-10 15:05:34.728
49.0, -328.1537817120552, -622.5587062239647, -2062.7493003606796, -214.70017665624619, 0.04800000227987766, 0.0, 1.008000047877431, 0.0, 0.0, 0.0, 0.0, 0.0, 1.7075955347293797E9, 0.0, 2024-02-10 15:05:34.729
49.0, -348.4988374710083, -618.9684022665024, -2025.4101392030716, -232.65169644355774, 0.04800000227987766, 0.0, 1.008000047877431, 0.0, 0.0, 0.0, 0.0, 0.0, 1.7075955347293797E9, 0.0, 2024-02-10 15:05:34.729
50.0, -338.92469358444214, -649.36630910635, -2080.461466550827, -234.08781802654266, 0.04800000227987766, 0.0, 1.008000047877431, 0.0, 0.0, 0.0, 0.0, 0.0, 1.707595534743291E9, 0.0, 2024-02-10 15:05:34.743
50.0, -322.16994178295135, -629.260606944561, -2075.913748204708, -215.6575910449028, 0.04800000227987766, 0.0, 1.008000047877431, 0.0, 0.0, 0.0, 0.0, 0.0, 1.707595534743291E9, 0.0, 2024-02-10 15:05:34.743
51.0, -350.41366624832153, -612.7452087402344, -2022.5378960371017, -222.12013816833496, 0.04800000227987766, 0.0, 1.008000047877431, 0.0, 0.0, 0.0, 0.0, 0.0, 1.7075955347590797E9, 0.0, 2024-02-10 15:05:34.759
51.0, -343.47241193056107, -638.595397233963, -2061.3131787776947, -238.87488996982574, 0.04800000227987766, 0.0, 1.008000047877431, 0.0, 0.0, 0.0, 0.0, 0.0, 1.7075955347590797E9, 0.0, 2024-02-10 15:05:34.759
52.0, -314.0319194793701, -624.7128885984421, -2079.025344967842, -205.84409356117249, 0.04800000227987766, 0.0, 1.008000047877431, 0.0, 0.0, 0.0, 0.0, 0.0, 1.707595534759558E9, 0.0, 2024-02-10 15:05:34.759
52.0, -329.58990329504013, -605.5646008253098, -2032.112039923668, -210.3918119072914, 0.04800000227987766, 0.0, 1.008000047877431, 0.0, 0.0, 0.0, 0.0, 0.0, 1.707595534759558E9, 0.0, 2024-02-10 15:05:34.759
53.0, -349.4562518596649, -625.9096565842628, -2030.675918340683, -228.58268529176712, 0.04800000227987766, 0.0, 1.008000047877431, 0.0, 0.0, 0.0, 0.0, 0.0, 1.7075955347732944E9, 0.0, 2024-02-10 15:05:34.773
53.0, -332.70150005817413, -647.2121267318726, -2087.6420744657516, -226.90721011161804, 0.04800000227987766, 0.0, 1.008000047877431, 0.0, 0.0, 0.0, 0.0, 0.0, 1.7075955347732944E9, 0.0, 2024-02-10 15:05:34.773
54.0, -321.4518809914589, -614.8993911147118, -2049.8242061138153, -211.10987269878387, 0.04800000227987766, 0.0, 1.008000047877431, 0.0, 0.0, 0.0, 0.0, 0.0, 1.7075955347890887E9, 0.0, 2024-02-10 15:05:34.789
54.0, -349.9349590539932, -619.2077558636665, -2024.9314320087433, -232.65169644355774, 0.04800000227987766, 0.0, 1.008000047877431, 0.0, 0.0, 0.0, 0.0, 0.0, 1.7075955347890887E9, 0.0, 2024-02-10 15:05:34.789
55.0, -332.70150005817413, -642.9037619829178, -2079.9827593564987, -235.04523241519928, 0.04800000227987766, 0.0, 1.008000047877431, 0.0, 0.0, 0.0, 0.0, 0.0, 1.7075955347894952E9, 0.0, 2024-02-10 15:05:34.789
55.0, -325.28153854608536, -630.2180213332176, -2083.0943561196327, -219.72660219669342, 0.04800000227987766, 0.0, 1.008000047877431, 0.0, 0.0, 0.0, 0.0, 0.0, 1.7075955347894952E9, 0.0, 2024-02-10 15:05:34.789
56.0, -355.6794453859329, -622.5587062239647, -2048.6274381279945, -247.9703266620636, 0.04800000227987766, 0.0, 1.008000047877431, 0.0, 0.0, 0.0, 0.0, 0.0, 1.707595534803066E9, 0.0, 2024-02-10 15:05:34.803
56.0, -351.84978783130646, -653.4353202581406, -2066.8183115124702, -251.5606306195259, 0.04800000227987766, 0.0, 1.008000047877431, 0.0, 0.0, 0.0, 0.0, 0.0, 1.707595534803066E9, 0.0, 2024-02-10 15:05:34.803
57.0, -313.79256588220596, -628.3031925559044, -2078.785991370678, -205.60473996400833, 0.04800000227987766, 0.0, 1.008000047877431, 0.0, 0.0, 0.0, 0.0, 0.0, 1.7075955348186593E9, 0.0, 2024-02-10 15:05:34.818
57.0, -331.02602487802505, -607.479429602623, -2034.2662222981453, -213.50340867042542, 0.04800000227987766, 0.0, 1.008000047877431, 0.0, 0.0, 0.0, 0.0, 0.0, 1.7075955348186593E9, 0.0, 2024-02-10 15:05:34.818
58.0, -358.3123349547386, -637.3986292481422, -2036.6597582697868, -232.65169644355774, 0.04800000227987766, 0.0, 1.008000047877431, 0.0, 0.0, 0.0, 0.0, 0.0, 1.7075955348194685E9, 0.0, 2024-02-10 15:05:34.819
58.0, -338.2066327929497, -647.6908339262009, -2094.583328783512, -228.1039780974388, 0.04800000227987766, 0.0, 1.008000047877431, 0.0, 0.0, 0.0, 0.0, 0.0, 1.7075955348194685E9, 0.0, 2024-02-10 15:05:34.819
59.0, -335.81309682130814, -611.3090871572495, -2054.6112780570984, -208.23762953281403, 0.04800000227987766, 0.0, 1.008000047877431, 0.0, 0.0, 0.0, 0.0, 0.0, 1.7075955348329892E9, 0.0, 2024-02-10 15:05:34.832
59.0, -359.26974934339523, -622.5587062239647, -2026.6069071888924, -223.31690615415573, 0.04800000227987766, 0.0, 1.008000047877431, 0.0, 0.0, 0.0, 0.0, 0.0, 1.7075955348329892E9, 0.0, 2024-02-10 15:05:34.832
60.0, -348.9775446653366, -656.0682098269463, -2080.461466550827, -232.41234284639359, 0.04800000227987766, 0.0, 1.008000047877431, 0.0, 0.0, 0.0, 0.0, 0.0, 1.7075955348486578E9, 0.0, 2024-02-10 15:05:34.848
60.0, -329.8292568922043, -619.925816655159, -2070.887322664261, -204.88667917251587, 0.04800000227987766, 0.0, 1.008000047877431, 0.0, 0.0, 0.0, 0.0, 0.0, 1.7075955348486578E9, 0.0, 2024-02-10 15:05:34.848
61.0, -330.3079640865326, -590.485324203968, -2016.793409705162, -206.8015079498291, 0.04800000227987766, 0.0, 1.008000047877431, 0.0, 0.0, 0.0, 0.0, 0.0, 1.7075955348494332E9, 0.0, 2024-02-10 15:05:34.849
61.0, -350.1743126511574, -643.1431155800819, -2055.808046042919, -230.7368676662445, 0.04800000227987766, 0.0, 1.008000047877431, 0.0, 0.0, 0.0, 0.0, 0.0, 1.7075955348494332E9, 0.0, 2024-02-10 15:05:34.849
62.0, -330.06861048936844, -642.9037619829178, -2085.24853849411, -206.8015079498291, 0.04800000227987766, 0.0, 1.008000047877431, 0.0, 0.0, 0.0, 0.0, 0.0, 1.7075955348632934E9, 0.0, 2024-02-10 15:05:34.863
62.0, -333.8982680439949, -602.4530040621758, -2033.5481615066528, -210.63116550445557, 0.04800000227987766, 0.0, 1.008000047877431, 0.0, 0.0, 0.0, 0.0, 0.0, 1.7075955348632934E9, 0.0, 2024-02-10 15:05:34.863
63.0, -361.9026389122009, -639.5528116226196, -2044.558426976204, -238.87488996982574, 0.04800000227987766, 0.0, 1.008000047877431, 0.0, 0.0, 0.0, 0.0, 0.0, 1.7075955348786721E9, 0.0, 2024-02-10 15:05:34.878
63.0, -338.2066327929497, -650.3237234950066, -2091.9504392147064, -219.2478950023651, 0.04800000227987766, 0.0, 1.008000047877431, 0.0, 0.0, 0.0, 0.0, 0.0, 1.7075955348786721E9, 0.0, 2024-02-10 15:05:34.878
64.0, -333.65891444683075, -617.7716342806816, -2051.7390348911285, -205.36538636684418, 0.04800000227987766, 0.0, 1.008000047877431, 0.0, 0.0, 0.0, 0.0, 0.0, 1.7075955348794649E9, 0.0, 2024-02-10 15:05:34.879
64.0, -350.89237344264984, -614.4206839203835, -2029.7185039520264, -233.13040363788605, 0.04800000227987766, 0.0, 1.008000047877431, 0.0, 0.0, 0.0, 0.0, 0.0, 1.7075955348794649E9, 0.0, 2024-02-10 15:05:34.879
65.0, -345.14788711071014, -652.9566130638123, -2082.136941730976, -234.08781802654266, 0.04800000227987766, 0.0, 1.008000047877431, 0.0, 0.0, 0.0, 0.0, 0.0, 1.707595534892942E9, 0.0, 2024-02-10 15:05:34.892
65.0, -331.98343926668167, -637.3986292481422, -2073.998919427395, -211.82793349027634, 0.04800000227987766, 0.0, 1.008000047877431, 0.0, 0.0, 0.0, 0.0, 0.0, 1.707595534892942E9, 0.0, 2024-02-10 15:05:34.892
66.0, -352.5678486227989, -623.5161206126213, -2027.8036751747131, -225.94979572296143, 0.04800000227987766, 0.0, 1.008000047877431, 0.0, 0.0, 0.0, 0.0, 0.0, 1.7075955349086337E9, 0.0, 2024-02-10 15:05:34.908
66.0, -355.2007381916046, -644.818590760231, -2060.8344715833664, -238.39618277549744, 0.04800000227987766, 0.0, 1.008000047877431, 0.0, 0.0, 0.0, 0.0, 0.0, 1.7075955349086337E9, 0.0, 2024-02-10 15:05:34.908
67.0, -332.70150005817413, -640.7495796084404, -2090.2749640345573, -213.98211586475372, 0.04800000227987766, 0.0, 1.008000047877431, 0.0, 0.0, 0.0, 0.0, 0.0, 1.7075955349093204E9, 0.0, 2024-02-10 15:05:34.909
67.0, -331.02602487802505, -601.256236076355, -2039.7713550329208, -216.85435903072357, 0.04800000227987766, 0.0, 1.008000047877431, 0.0, 0.0, 0.0, 0.0, 0.0, 1.7075955349093204E9, 0.0, 2024-02-10 15:05:34.909
68.0, -354.243323802948, -632.1328501105309, -2035.9416974782944, -234.32717162370682, 0.04800000227987766, 0.0, 1.008000047877431, 0.0, 0.0, 0.0, 0.0, 0.0, 1.7075955349229405E9, 0.0, 2024-02-10 15:05:34.922
68.0, -338.685339987278, -646.9727731347084, -2089.3175496459007, -219.2478950023651, 0.04800000227987766, 0.0, 1.008000047877431, 0.0, 0.0, 0.0, 0.0, 0.0, 1.7075955349229405E9, 0.0, 2024-02-10 15:05:34.922
69.0, -326.4783065319061, -618.7290486693382, -2052.9358028769493, -202.97185039520264, 0.04800000227987766, 0.0, 1.008000047877431, 0.0, 0.0, 0.0, 0.0, 0.0, 1.7075955349549987E9, 0.0, 2024-02-10 15:05:34.954
69.0, -354.96138459444046, -625.1915957927704, -2026.3675535917282, -228.34333169460297, 0.04800000227987766, 0.0, 1.008000047877431, 0.0, 0.0, 0.0, 0.0, 0.0, 1.7075955349549987E9, 0.0, 2024-02-10 15:05:34.954
70.0, -344.908533513546, -650.5630770921707, -2082.3762953281403, -235.28458601236343, 0.04800000227987766, 0.0, 1.008000047877431, 0.0, 0.0, 0.0, 0.0, 0.0, 1.707595534955712E9, 0.0, 2024-02-10 15:05:34.955
70.0, -330.3079640865326, -630.2180213332176, -2077.589223384857, -212.78534787893295, 0.04800000227987766, 0.0, 1.008000047877431, 0.0, 0.0, 0.0, 0.0, 0.0, 1.707595534955712E9, 0.0, 2024-02-10 15:05:34.955
71.0, -357.354920566082, -623.037413418293, -2026.8462607860565, -229.7794532775879, 0.04800000227987766, 0.0, 1.008000047877431, 0.0, 0.0, 0.0, 0.0, 0.0, 1.7075955349564636E9, 0.0, 2024-02-10 15:05:34.956
71.0, -361.6632853150368, -652.9566130638123, -2072.323444247246, -249.40644824504852, 0.04800000227987766, 0.0, 1.008000047877431, 0.0, 0.0, 0.0, 0.0, 0.0, 1.7075955349564636E9, 0.0, 2024-02-10 15:05:34.956
72.0, -342.2756439447403, -649.6056627035141, -2094.8226823806763, -227.1465637087822, 0.04800000227987766, 0.0, 1.008000047877431, 0.0, 0.0, 0.0, 0.0, 0.0, 1.707595534957232E9, 0.0, 2024-02-10 15:05:34.957
72.0, -346.3446550965309, -621.8406454324722, -2046.9519629478455, -224.27432054281235, 0.04800000227987766, 0.0, 1.008000047877431, 0.0, 0.0, 0.0, 0.0, 0.0, 1.707595534957232E9, 0.0, 2024-02-10 15:05:34.957
73.0, -360.9452245235443, -637.3986292481422, -2045.5158413648605, -239.5929507613182, 0.04800000227987766, 0.0, 1.008000047877431, 0.0, 0.0, 0.0, 0.0, 0.0, 1.70759553496842E9, 0.0, 2024-02-10 15:05:34.968
73.0, -335.573743224144, -650.0843698978424, -2087.4027208685875, -221.64143097400665, 0.04800000227987766, 0.0, 1.008000047877431, 0.0, 0.0, 0.0, 0.0, 0.0, 1.70759553496842E9, 0.0, 2024-02-10 15:05:34.968
74.0, -326.95701372623444, -612.9845623373985, -2058.919642806053, -225.71044212579727, 0.04800000227987766, 0.0, 1.008000047877431, 0.0, 0.0, 0.0, 0.0, 0.0, 1.7075955349830468E9, 0.0, 2024-02-10 15:05:34.983
74.0, -353.7646166086197, -623.5161206126213, -2030.675918340683, -248.20968025922775, 0.04800000227987766, 0.0, 1.008000047877431, 0.0, 0.0, 0.0, 0.0, 0.0, 1.7075955349830468E9, 0.0, 2024-02-10 15:05:34.983
75.0, -334.8556824326515, -641.2282868027687, -2068.9724938869476, -210.87051910161972, 0.04800000227987766, 0.0, 1.008000047877431, 0.0, 0.0, 0.0, 0.0, 0.0, 1.707595534999071E9, 0.0, 2024-02-10 15:05:34.999
75.0, -326.7176601290703, -622.0799990296364, -2071.6053834557533, -192.44029211997986, 0.04800000227987766, 0.0, 1.008000047877431, 0.0, 0.0, 0.0, 0.0, 0.0, 1.707595534999071E9, 0.0, 2024-02-10 15:05:34.999
76.0, -347.30206948518753, -612.0271479487419, -2021.1017744541168, -210.3918119072914, 0.04800000227987766, 0.0, 1.008000047877431, 0.0, 0.0, 0.0, 0.0, 0.0, 1.7075955349994392E9, 0.0, 2024-02-10 15:05:34.999
76.0, -357.354920566082, -647.930187523365, -2054.6112780570984, -228.82203888893127, 0.04800000227987766, 0.0, 1.008000047877431, 0.0, 0.0, 0.0, 0.0, 0.0, 1.7075955349994392E9, 0.0, 2024-02-10 15:05:34.999
77.0, -327.6750745177269, -642.1857011914253, -2086.445306479931, -210.87051910161972, 0.04800000227987766, 0.0, 1.008000047877431, 0.0, 0.0, 0.0, 0.0, 0.0, 1.7075955350131528E9, 0.0, 2024-02-10 15:05:35.013
77.0, -345.3872407078743, -618.4896950721741, -2039.2926478385925, -208.9556903243065, 0.04800000227987766, 0.0, 1.008000047877431, 0.0, 0.0, 0.0, 0.0, 0.0, 1.7075955350131528E9, 0.0, 2024-02-10 15:05:35.013
78.0, -348.25948387384415, -625.1915957927704, -2034.9842830896378, -224.27432054281235, 0.04800000227987766, 0.0, 1.008000047877431, 0.0, 0.0, 0.0, 0.0, 0.0, 1.7075955350289032E9, 0.0, 2024-02-10 15:05:35.028
78.0, -336.29180401563644, -642.4250547885895, -2087.1633672714233, -221.8807845711708, 0.04800000227987766, 0.0, 1.008000047877431, 0.0, 0.0, 0.0, 0.0, 0.0, 1.7075955350289032E9, 0.0, 2024-02-10 15:05:35.028
79.0, -330.3079640865326, -620.8832310438156, -2053.893217265606, -202.25378960371017, 0.04800000227987766, 0.0, 1.008000047877431, 0.0, 0.0, 0.0, 0.0, 0.0, 1.7075955350297024E9, 0.0, 2024-02-10 15:05:35.029
79.0, -356.8762133717537, -628.0638389587402, -2027.3249679803848, -231.45492845773697, 0.04800000227987766, 0.0, 1.008000047877431, 0.0, 0.0, 0.0, 0.0, 0.0, 1.7075955350297024E9, 0.0, 2024-02-10 15:05:35.029
80.0, -365.01423567533493, -668.5145968794823, -2084.5304777026176, -240.07165795564651, 0.04800000227987766, 0.0, 1.008000047877431, 0.0, 0.0, 0.0, 0.0, 0.0, 1.707595535043026E9, 0.0, 2024-02-10 15:05:35.043
80.0, -322.64864897727966, -630.4573749303818, -2081.897588133812, -212.78534787893295, 0.04800000227987766, 0.0, 1.008000047877431, 0.0, 0.0, 0.0, 0.0, 0.0, 1.707595535043026E9, 0.0, 2024-02-10 15:05:35.043
81.0, -345.3872407078743, -617.5322806835175, -2033.0694543123245, -227.6252709031105, 0.04800000227987766, 0.0, 1.008000047877431, 0.0, 0.0, 0.0, 0.0, 0.0, 1.7075955350750403E9, 0.0, 2024-02-10 15:05:35.075
81.0, -354.48267740011215, -646.7334195375443, -2066.100250720978, -245.3374370932579, 0.04800000227987766, 0.0, 1.008000047877431, 0.0, 0.0, 0.0, 0.0, 0.0, 1.7075955350750403E9, 0.0, 2024-02-10 15:05:35.075
82.0, -330.7866712808609, -645.7760051488876, -2096.019450366497, -220.20530939102173, 0.04800000227987766, 0.0, 1.008000047877431, 0.0, 0.0, 0.0, 0.0, 0.0, 1.7075955350757632E9, 0.0, 2024-02-10 15:05:35.075
82.0, -336.29180401563644, -616.814219892025, -2044.797780573368, -224.75302773714066, 0.04800000227987766, 0.0, 1.008000047877431, 0.0, 0.0, 0.0, 0.0, 0.0, 1.7075955350757632E9, 0.0, 2024-02-10 15:05:35.075
83.0, -353.7646166086197, -637.6379828453064, -2044.3190733790398, -245.57679069042206, 0.04800000227987766, 0.0, 1.008000047877431, 0.0, 0.0, 0.0, 0.0, 0.0, 1.7075955350765967E9, 0.0, 2024-02-10 15:05:35.076
83.0, -336.29180401563644, -657.9830386042595, -2090.99302482605, -232.41234284639359, 0.04800000227987766, 0.0, 1.008000047877431, 0.0, 0.0, 0.0, 0.0, 0.0, 1.7075955350765967E9, 0.0, 2024-02-10 15:05:35.076
84.0, -337.24921840429306, -626.3883637785912, -2063.9460683465004, -220.68401658535004, 0.04800000227987766, 0.0, 1.008000047877431, 0.0, 0.0, 0.0, 0.0, 0.0, 1.707595535077289E9, 0.0, 2024-02-10 15:05:35.077
84.0, -359.5091029405594, -637.8773364424706, -2035.7023438811302, -245.8161442875862, 0.04800000227987766, 0.0, 1.008000047877431, 0.0, 0.0, 0.0, 0.0, 0.0, 1.707595535077289E9, 0.0, 2024-02-10 15:05:35.077
85.0, -348.73819106817245, -659.4191601872444, -2089.796256840229, -245.09808349609375, 0.04800000227987766, 0.0, 1.008000047877431, 0.0, 0.0, 0.0, 0.0, 0.0, 1.7075955350879977E9, 0.0, 2024-02-10 15:05:35.087
85.0, -325.5208921432495, -630.2180213332176, -2077.110516190529, -214.93953025341034, 0.04800000227987766, 0.0, 1.008000047877431, 0.0, 0.0, 0.0, 0.0, 0.0, 1.7075955350879977E9, 0.0, 2024-02-10 15:05:35.087
86.0, -340.6001687645912, -619.925816655159, -2033.3088079094887, -224.0349669456482, 0.04800000227987766, 0.0, 1.008000047877431, 0.0, 0.0, 0.0, 0.0, 0.0, 1.7075955351032636E9, 0.0, 2024-02-10 15:05:35.103
86.0, -337.0098648071289, -632.8509109020233, -2064.664129137993, -246.77355867624283, 0.04800000227987766, 0.0, 1.008000047877431, 0.0, 0.0, 0.0, 0.0, 0.0, 1.7075955351032636E9, 0.0, 2024-02-10 15:05:35.103
87.0, -328.1537817120552, -641.706993997097, -2100.327815115452, -226.90721011161804, 0.04800000227987766, 0.0, 1.008000047877431, 0.0, 0.0, 0.0, 0.0, 0.0, 1.7075955351186354E9, 0.0, 2024-02-10 15:05:35.118
87.0, -349.21689826250076, -639.0741044282913, -2047.1913165450096, -222.83819895982742, 0.04800000227987766, 0.0, 1.008000047877431, 0.0, 0.0, 0.0, 0.0, 0.0, 1.7075955351186354E9, 0.0, 2024-02-10 15:05:35.118
88.0, -362.86005330085754, -649.6056627035141, -2051.9783884882927, -245.09808349609375, 0.04800000227987766, 0.0, 1.008000047877431, 0.0, 0.0, 0.0, 0.0, 0.0, 1.7075955351193728E9, 0.0, 2024-02-10 15:05:35.119
88.0, -342.7543511390686, -658.4617457985878, -2100.0884615182877, -236.72070759534836, 0.04800000227987766, 0.0, 1.008000047877431, 0.0, 0.0, 0.0, 0.0, 0.0, 1.7075955351193728E9, 0.0, 2024-02-10 15:05:35.119
89.0, -327.43572092056274, -621.1225846409798, -2063.228007555008, -212.0672870874405, 0.04800000227987766, 0.0, 1.008000047877431, 0.0, 0.0, 0.0, 0.0, 0.0, 1.707595535132969E9, 0.0, 2024-02-10 15:05:35.132
89.0, -348.4988374710083, -623.9948278069496, -2034.7449294924736, -239.35359716415405, 0.04800000227987766, 0.0, 1.008000047877431, 0.0, 0.0, 0.0, 0.0, 0.0, 1.707595535132969E9, 0.0, 2024-02-10 15:05:35.132
90.0, -337.72792559862137, -647.6908339262009, -2086.924013674259, -241.26842594146729, 0.04800000227987766, 0.0, 1.008000047877431, 0.0, 0.0, 0.0, 0.0, 0.0, 1.7075955351486604E9, 0.0, 2024-02-10 15:05:35.148
90.0, -318.10093063116074, -634.2870324850082, -2085.7272456884384, -217.57241982221603, 0.04800000227987766, 0.0, 1.008000047877431, 0.0, 0.0, 0.0, 0.0, 0.0, 1.7075955351486604E9, 0.0, 2024-02-10 15:05:35.148
91.0, -352.32849502563477, -647.4514803290367, -2038.8139406442642, -236.0026468038559, 0.04800000227987766, 0.0, 1.008000047877431, 0.0, 0.0, 0.0, 0.0, 0.0, 1.7075955351493323E9, 0.0, 2024-02-10 15:05:35.149
91.0, -356.8762133717537, -677.370679974556, -2071.6053834557533, -254.91158097982407, 0.04800000227987766, 0.0, 1.008000047877431, 0.0, 0.0, 0.0, 0.0, 0.0, 1.7075955351493323E9, 0.0, 2024-02-10 15:05:35.149
92.0, -324.5634777545929, -667.7965360879898, -2108.226483821869, -231.93363565206528, 0.04800000227987766, 0.0, 1.008000047877431, 0.0, 0.0, 0.0, 0.0, 0.0, 1.7075955351633348E9, 0.0, 2024-02-10 15:05:35.163
92.0, -334.8556824326515, -636.9199220538139, -2053.4145100712776, -229.54009968042374, 0.04800000227987766, 0.0, 1.008000047877431, 0.0, 0.0, 0.0, 0.0, 0.0, 1.7075955351633348E9, 0.0, 2024-02-10 15:05:35.163
93.0, -355.9187989830971, -663.7275249361992, -2053.1751564741135, -251.0819234251976, 0.04800000227987766, 0.0, 1.008000047877431, 0.0, 0.0, 0.0, 0.0, 0.0, 1.707595535179004E9, 0.0, 2024-02-10 15:05:35.179
93.0, -335.3343896269798, -674.0197296142578, -2102.7213510870934, -245.09808349609375, 0.04800000227987766, 0.0, 1.008000047877431, 0.0, 0.0, 0.0, 0.0, 0.0, 1.707595535179004E9, 0.0, 2024-02-10 15:05:35.179
94.0, -324.0847705602646, -635.9625076651573, -2073.5202122330666, -220.68401658535004, 0.04800000227987766, 0.0, 1.008000047877431, 0.0, 0.0, 0.0, 0.0, 0.0, 1.7075955351795015E9, 0.0, 2024-02-10 15:05:35.179
94.0, -348.4988374710083, -634.0476788878441, -2038.5745870471, -243.90131551027298, 0.04800000227987766, 0.0, 1.008000047877431, 0.0, 0.0, 0.0, 0.0, 0.0, 1.7075955351795015E9, 0.0, 2024-02-10 15:05:35.179
95.0, -351.37108063697815, -679.046155154705, -2094.8226823806763, -251.0819234251976, 0.04800000227987766, 0.0, 1.008000047877431, 0.0, 0.0, 0.0, 0.0, 0.0, 1.707595535193295E9, 0.0, 2024-02-10 15:05:35.193
95.0, -339.40340077877045, -650.8024306893349, -2093.147207200527, -230.2581604719162, 0.04800000227987766, 0.0, 1.008000047877431, 0.0, 0.0, 0.0, 0.0, 0.0, 1.707595535193295E9, 0.0, 2024-02-10 15:05:35.193
96.0, -354.48267740011215, -636.6805684566498, -2036.1810510754585, -230.7368676662445, 0.04800000227987766, 0.0, 1.008000047877431, 0.0, 0.0, 0.0, 0.0, 0.0, 1.7075955352088468E9, 0.0, 2024-02-10 15:05:35.208
96.0, -358.07298135757446, -659.6585137844086, -2067.0576651096344, -247.25226587057114, 0.04800000227987766, 0.0, 1.008000047877431, 0.0, 0.0, 0.0, 0.0, 0.0, 1.7075955352088468E9, 0.0, 2024-02-10 15:05:35.208
97.0, -326.7176601290703, -660.1372209787369, -2097.216218352318, -221.16272377967834, 0.04800000227987766, 0.0, 1.008000047877431, 0.0, 0.0, 0.0, 0.0, 0.0, 1.707595535209474E9, 0.0, 2024-02-10 15:05:35.209
97.0, -326.95701372623444, -612.7452087402344, -2040.7287694215775, -214.70017665624619, 0.04800000227987766, 0.0, 1.008000047877431, 0.0, 0.0, 0.0, 0.0, 0.0, 1.707595535209474E9, 0.0, 2024-02-10 15:05:35.209
98.0, -350.41366624832153, -637.6379828453064, -2040.2500622272491, -236.0026468038559, 0.04800000227987766, 0.0, 1.008000047877431, 0.0, 0.0, 0.0, 0.0, 0.0, 1.7075955352229736E9, 0.0, 2024-02-10 15:05:35.222
98.0, -333.65891444683075, -656.5469170212746, -2091.471732020378, -229.30074608325958, 0.04800000227987766, 0.0, 1.008000047877431, 0.0, 0.0, 0.0, 0.0, 0.0, 1.7075955352229736E9, 0.0, 2024-02-10 15:05:35.222
99.0, -322.8880025744438, -613.9419767260551, -2055.568692445755, -204.88667917251587, 0.04800000227987766, 0.0, 1.008000047877431, 0.0, 0.0, 0.0, 0.0, 0.0, 1.7075955352379959E9, 0.0, 2024-02-10 15:05:35.237
99.0, -348.9775446653366, -620.4045238494873, -2029.7185039520264, -227.1465637087822, 0.04800000227987766, 0.0, 1.008000047877431, 0.0, 0.0, 0.0, 0.0, 0.0, 1.7075955352379959E9, 0.0, 2024-02-10 15:05:35.237
0.0, -329.58990329504013, -640.0315188169479, -2079.025344967842, -209.9131047129631, 0.04800000227987766, 0.0, 1.008000047877431, 0.0, 0.0, 0.0, 0.0, 0.0, 1.707595535253616E9, 0.0, 2024-02-10 15:05:35.253
0.0, -351.84978783130646, -623.2767670154572, -2028.0430287718773, -223.07755255699158, 0.04800000227987766, 0.0, 1.008000047877431, 0.0, 0.0, 0.0, 0.0, 0.0, 1.707595535253616E9, 0.0, 2024-02-10 15:05:35.253
1.0, -346.3446550965309, -644.5792371630669, -2054.3719244599342, -231.69428205490112, 0.04800000227987766, 0.0, 1.008000047877431, 0.0, 0.0, 0.0, 0.0, 0.0, 1.707595535254336E9, 0.0, 2024-02-10 15:05:35.254
1.0, -328.39313530921936, -639.5528116226196, -2091.232378423214, -218.2904806137085, 0.04800000227987766, 0.0, 1.008000047877431, 0.0, 0.0, 0.0, 0.0, 0.0, 1.707595535254336E9, 0.0, 2024-02-10 15:05:35.254
2.0, -332.70150005817413, -605.8039544224739, -2035.462990283966, -212.78534787893295, 0.04800000227987766, 0.0, 1.008000047877431, 0.0, 0.0, 0.0, 0.0, 0.0, 1.7075955352681167E9, 0.0, 2024-02-10 15:05:35.268
2.0, -343.7117655277252, -623.5161206126213, -2037.8565262556076, -231.69428205490112, 0.04800000227987766, 0.0, 1.008000047877431, 0.0, 0.0, 0.0, 0.0, 0.0, 1.7075955352681167E9, 0.0, 2024-02-10 15:05:35.268
3.0, -324.5634777545929, -645.7760051488876, -2099.6097543239594, -232.17298924922943, 0.04800000227987766, 0.0, 1.008000047877431, 0.0, 0.0, 0.0, 0.0, 0.0, 1.7075955352836738E9, 0.0, 2024-02-10 15:05:35.283
3.0, -353.0465558171272, -649.6056627035141, -2084.0517705082893, -235.5239396095276, 0.04800000227987766, 0.0, 1.008000047877431, 0.0, 0.0, 0.0, 0.0, 0.0, 1.7075955352836738E9, 0.0, 2024-02-10 15:05:35.283
4.0, -333.8982680439949, -611.0697335600853, -2011.5276305675507, -223.79561334848404, 0.04800000227987766, 0.0, 1.008000047877431, 0.0, 0.0, 0.0, 0.0, 0.0, 1.70759553528434E9, 0.0, 2024-02-10 15:05:35.284
4.0, -324.80283135175705, -620.6438774466515, -2054.3719244599342, -210.3918119072914, 0.04800000227987766, 0.0, 1.008000047877431, 0.0, 0.0, 0.0, 0.0, 0.0, 1.70759553528434E9, 0.0, 2024-02-10 15:05:35.284
5.0, -304.2184219956398, -597.9052857160568, -2051.9783884882927, -189.56804895401, 0.04800000227987766, 0.0, 1.008000047877431, 0.0, 0.0, 0.0, 0.0, 0.0, 1.7075955352982728E9, 0.0, 2024-02-10 15:05:35.298
5.0, -314.98933386802673, -569.4222076535225, -1983.7626132965088, -177.121661901474, 0.04800000227987766, 0.0, 1.008000047877431, 0.0, 0.0, 0.0, 0.0, 0.0, 1.7075955352982728E9, 0.0, 2024-02-10 15:05:35.298
6.0, -326.4783065319061, -608.4368439912796, -2028.0430287718773, -202.25378960371017, 0.04800000227987766, 0.0, 1.008000047877431, 0.0, 0.0, 0.0, 0.0, 0.0, 1.7075955353137584E9, 0.0, 2024-02-10 15:05:35.313
6.0, -279.56500148773193, -568.4647932648659, -2037.8565262556076, -161.32432448863983, 0.04800000227987766, 0.0, 1.008000047877431, 0.0, 0.0, 0.0, 0.0, 0.0, 1.7075955353137584E9, 0.0, 2024-02-10 15:05:35.313
7.0, -299.4313500523567, -562.7203069329262, -1997.1664147377014, -168.02622520923615, 0.04800000227987766, 0.0, 1.008000047877431, 0.0, 0.0, 0.0, 0.0, 0.0, 1.7075955353143804E9, 0.0, 2024-02-10 15:05:35.314
7.0, -324.80283135175705, -591.921445786953, -1992.8580499887466, -189.56804895401, 0.04800000227987766, 0.0, 1.008000047877431, 0.0, 0.0, 0.0, 0.0, 0.0, 1.7075955353143804E9, 0.0, 2024-02-10 15:05:35.314
8.0, -303.02165400981903, -604.8465400338173, -2045.7551949620247, -180.95131945610046, 0.04800000227987766, 0.0, 1.008000047877431, 0.0, 0.0, 0.0, 0.0, 0.0, 1.707595535327936E9, 0.0, 2024-02-10 15:05:35.327
8.0, -296.55910688638687, -578.038937151432, -2018.229531288147, -171.8558827638626, 0.04800000227987766, 0.0, 1.008000047877431, 0.0, 0.0, 0.0, 0.0, 0.0, 1.707595535327936E9, 0.0, 2024-02-10 15:05:35.327
9.0, -326.4783065319061, -583.3047162890434, -1990.464514017105, -188.13192737102509, 0.04800000227987766, 0.0, 1.008000047877431, 0.0, 0.0, 0.0, 0.0, 0.0, 1.7075955353436077E9, 0.0, 2024-02-10 15:05:35.343
9.0, -315.2286874651909, -607.7187831997871, -2048.3880845308304, -199.14219284057617, 0.04800000227987766, 0.0, 1.008000047877431, 0.0, 0.0, 0.0, 0.0, 0.0, 1.7075955353436077E9, 0.0, 2024-02-10 15:05:35.343
10.0, -301.34617882966995, -591.921445786953, -2056.0473996400833, -187.17451298236847, 0.04800000227987766, 0.0, 1.008000047877431, 0.0, 0.0, 0.0, 0.0, 0.0, 1.7075955353443434E9, 0.0, 2024-02-10 15:05:35.344
10.0, -321.4518809914589, -583.3047162890434, -2005.783144235611, -201.77508240938187, 0.04800000227987766, 0.0, 1.008000047877431, 0.0, 0.0, 0.0, 0.0, 0.0, 1.7075955353443434E9, 0.0, 2024-02-10 15:05:35.344
11.0, -336.0524504184723, -623.2767670154572, -2032.112039923668, -213.0247014760971, 0.04800000227987766, 0.0, 1.008000047877431, 0.0, 0.0, 0.0, 0.0, 0.0, 1.7075955353579333E9, 0.0, 2024-02-10 15:05:35.357
11.0, -310.4416155219078, -619.4471094608307, -2071.8447370529175, -196.03059607744217, 0.04800000227987766, 0.0, 1.008000047877431, 0.0, 0.0, 0.0, 0.0, 0.0, 1.7075955353579333E9, 0.0, 2024-02-10 15:05:35.357
12.0, -321.21252739429474, -588.809849023819, -2019.905006468296, -191.00417053699493, 0.04800000227987766, 0.0, 1.008000047877431, 0.0, 0.0, 0.0, 0.0, 0.0, 1.707595535374122E9, 0.0, 2024-02-10 15:05:35.374
12.0, -337.0098648071289, -606.0433080196381, -2017.0327633023262, -209.9131047129631, 0.04800000227987766, 0.0, 1.008000047877431, 0.0, 0.0, 0.0, 0.0, 0.0, 1.707595535374122E9, 0.0, 2024-02-10 15:05:35.374
13.0, -317.1435162425041, -618.7290486693382, -2068.4937866926193, -197.9454248547554, 0.04800000227987766, 0.0, 1.008000047877431, 0.0, 0.0, 0.0, 0.0, 0.0, 1.707595535374376E9, 0.0, 2024-02-10 15:05:35.374
13.0, -309.9629083275795, -589.0492026209831, -2048.3880845308304, -196.50930327177048, 0.04800000227987766, 0.0, 1.008000047877431, 0.0, 0.0, 0.0, 0.0, 0.0, 1.707595535374376E9, 0.0, 2024-02-10 15:05:35.374
14.0, -336.5311576128006, -601.256236076355, -2002.4321938753128, -208.47698312997818, 0.04800000227987766, 0.0, 1.008000047877431, 0.0, 0.0, 0.0, 0.0, 0.0, 1.7075955353882725E9, 0.0, 2024-02-10 15:05:35.388
14.0, -331.7440856695175, -627.1064245700836, -2056.5261068344116, -213.74276226758957, 0.04800000227987766, 0.0, 1.008000047877431, 0.0, 0.0, 0.0, 0.0, 0.0, 1.7075955353882725E9, 0.0, 2024-02-10 15:05:35.388
15.0, -317.6222234368324, -617.5322806835175, -2061.3131787776947, -196.74865686893463, 0.04800000227987766, 0.0, 1.008000047877431, 0.0, 0.0, 0.0, 0.0, 0.0, 1.707595535404084E9, 0.0, 2024-02-10 15:05:35.404
15.0, -333.4195608496666, -589.7672634124756, -2011.5276305675507, -206.56215435266495, 0.04800000227987766, 0.0, 1.008000047877431, 0.0, 0.0, 0.0, 0.0, 0.0, 1.707595535404084E9, 0.0, 2024-02-10 15:05:35.404
16.0, -330.06861048936844, -614.8993911147118, -2038.0958798527718, -221.4020773768425, 0.04800000227987766, 0.0, 1.008000047877431, 0.0, 0.0, 0.0, 0.0, 0.0, 1.70759553540454E9, 0.0, 2024-02-10 15:05:35.404
16.0, -309.0054939389229, -612.5058551430702, -2078.546637773514, -205.36538636684418, 0.04800000227987766, 0.0, 1.008000047877431, 0.0, 0.0, 0.0, 0.0, 0.0, 1.70759553540454E9, 0.0, 2024-02-10 15:05:35.404
17.0, -326.7176601290703, -596.4691641330719, -2029.7185039520264, -205.36538636684418, 0.04800000227987766, 0.0, 1.008000047877431, 0.0, 0.0, 0.0, 0.0, 0.0, 1.707595535418125E9, 0.0, 2024-02-10 15:05:35.418
17.0, -350.6530198454857, -623.2767670154572, -2023.9740176200867, -222.35949176549911, 0.04800000227987766, 0.0, 1.008000047877431, 0.0, 0.0, 0.0, 0.0, 0.0, 1.707595535418125E9, 0.0, 2024-02-10 15:05:35.418
18.0, -329.350549697876, -635.2444468736649, -2073.0415050387383, -208.9556903243065, 0.04800000227987766, 0.0, 1.008000047877431, 0.0, 0.0, 0.0, 0.0, 0.0, 1.707595535433844E9, 0.0, 2024-02-10 15:05:35.433
18.0, -317.8615770339966, -600.2988216876984, -2043.3616589903831, -193.39770650863647, 0.04800000227987766, 0.0, 1.008000047877431, 0.0, 0.0, 0.0, 0.0, 0.0, 1.707595535433844E9, 0.0, 2024-02-10 15:05:35.433
19.0, -333.65891444683075, -589.0492026209831, -2003.3896082639694, -210.15245831012726, 0.04800000227987766, 0.0, 1.008000047877431, 0.0, 0.0, 0.0, 0.0, 0.0, 1.7075955354346075E9, 0.0, 2024-02-10 15:05:35.434
19.0, -330.3079640865326, -626.8670709729195, -2050.5422669053078, -210.87051910161972, 0.04800000227987766, 0.0, 1.008000047877431, 0.0, 0.0, 0.0, 0.0, 0.0, 1.7075955354346075E9, 0.0, 2024-02-10 15:05:35.434
20.0, -316.42545545101166, -615.3780983090401, -2060.355764389038, -196.74865686893463, 0.04800000227987766, 0.0, 1.008000047877431, 0.0, 0.0, 0.0, 0.0, 0.0, 1.7075955354480982E9, 0.0, 2024-02-10 15:05:35.448
20.0, -341.0788759589195, -597.9052857160568, -2010.33086258173, -208.23762953281403, 0.04800000227987766, 0.0, 1.008000047877431, 0.0, 0.0, 0.0, 0.0, 0.0, 1.7075955354480982E9, 0.0, 2024-02-10 15:05:35.448
21.0, -336.0524504184723, -625.4309493899345, -2038.5745870471, -221.8807845711708, 0.04800000227987766, 0.0, 1.008000047877431, 0.0, 0.0, 0.0, 0.0, 0.0, 1.7075955354637997E9, 0.0, 2024-02-10 15:05:35.463
21.0, -323.84541696310043, -634.7657396793365, -2080.222112953663, -207.75892233848572, 0.04800000227987766, 0.0, 1.008000047877431, 0.0, 0.0, 0.0, 0.0, 0.0, 1.7075955354637997E9, 0.0, 2024-02-10 15:05:35.463
22.0, -324.80283135175705, -597.9052857160568, -2031.1546255350113, -205.36538636684418, 0.04800000227987766, 0.0, 1.008000047877431, 0.0, 0.0, 0.0, 0.0, 0.0, 1.7075955354644475E9, 0.0, 2024-02-10 15:05:35.464
22.0, -341.796936750412, -615.8568055033684, -2031.3939791321754, -232.65169644355774, 0.04800000227987766, 0.0, 1.008000047877431, 0.0, 0.0, 0.0, 0.0, 0.0, 1.7075955354644475E9, 0.0, 2024-02-10 15:05:35.464
23.0, -318.3402842283249, -629.4999605417252, -2079.2646985650063, -220.44466298818588, 0.04800000227987766, 0.0, 1.008000047877431, 0.0, 0.0, 0.0, 0.0, 0.0, 1.707595535477964E9, 0.0, 2024-02-10 15:05:35.477
23.0, -309.9629083275795, -596.9478713274002, -2051.4996812939644, -205.36538636684418, 0.04800000227987766, 0.0, 1.008000047877431, 0.0, 0.0, 0.0, 0.0, 0.0, 1.707595535477964E9, 0.0, 2024-02-10 15:05:35.477
24.0, -337.0098648071289, -615.1387447118759, -2022.777249634266, -230.01880687475204, 0.04800000227987766, 0.0, 1.008000047877431, 0.0, 0.0, 0.0, 0.0, 0.0, 1.7075955354936936E9, 0.0, 2024-02-10 15:05:35.493
24.0, -336.77051120996475, -635.9625076651573, -2062.7493003606796, -222.12013816833496, 0.04800000227987766, 0.0, 1.008000047877431, 0.0, 0.0, 0.0, 0.0, 0.0, 1.7075955354936936E9, 0.0, 2024-02-10 15:05:35.493
25.0, -313.5532122850418, -602.2136504650116, -2062.2705931663513, -200.5783144235611, 0.04800000227987766, 0.0, 1.008000047877431, 0.0, 0.0, 0.0, 0.0, 0.0, 1.7075955354944012E9, 0.0, 2024-02-10 15:05:35.494
25.0, -331.2653784751892, -598.6233465075493, -2009.3734481930733, -205.36538636684418, 0.04800000227987766, 0.0, 1.008000047877431, 0.0, 0.0, 0.0, 0.0, 0.0, 1.7075955354944012E9, 0.0, 2024-02-10 15:05:35.494
26.0, -341.55758315324783, -631.6541429162025, -2040.2500622272491, -227.1465637087822, 0.04800000227987766, 0.0, 1.008000047877431, 0.0, 0.0, 0.0, 0.0, 0.0, 1.707595535508219E9, 0.0, 2024-02-10 15:05:35.508
26.0, -311.87773710489273, -628.0638389587402, -2075.1956874132156, -205.60473996400833, 0.04800000227987766, 0.0, 1.008000047877431, 0.0, 0.0, 0.0, 0.0, 0.0, 1.707595535508219E9, 0.0, 2024-02-10 15:05:35.508
27.0, -321.69123458862305, -597.6659321188927, -2017.2721168994904, -196.03059607744217, 0.04800000227987766, 0.0, 1.008000047877431, 0.0, 0.0, 0.0, 0.0, 0.0, 1.7075955355238297E9, 0.0, 2024-02-10 15:05:35.523
27.0, -346.8233622908592, -616.0961591005325, -2020.8624208569527, -222.59884536266327, 0.04800000227987766, 0.0, 1.008000047877431, 0.0, 0.0, 0.0, 0.0, 0.0, 1.7075955355238297E9, 0.0, 2024-02-10 15:05:35.523
28.0, -311.87773710489273, -610.3516727685928, -2074.477626621723, -213.50340867042542, 0.04800000227987766, 0.0, 1.008000047877431, 0.0, 0.0, 0.0, 0.0, 0.0, 1.7075955355243907E9, 0.0, 2024-02-10 15:05:35.524
28.0, -309.4842011332512, -596.4691641330719, -2045.2764877676964, -199.38154643774033, 0.04800000227987766, 0.0, 1.008000047877431, 0.0, 0.0, 0.0, 0.0, 0.0, 1.7075955355243907E9, 0.0, 2024-02-10 15:05:35.524
29.0, -331.7440856695175, -601.9742968678474, -2001.7141330838203, -210.87051910161972, 0.04800000227987766, 0.0, 1.008000047877431, 0.0, 0.0, 0.0, 0.0, 0.0, 1.7075955355383022E9, 0.0, 2024-02-10 15:05:35.538
29.0, -332.2227928638458, -626.3883637785912, -2061.552532374859, -218.7691878080368, 0.04800000227987766, 0.0, 1.008000047877431, 0.0, 0.0, 0.0, 0.0, 0.0, 1.7075955355383022E9, 0.0, 2024-02-10 15:05:35.538
30.0, -318.10093063116074, -612.5058551430702, -2055.329338848591, -189.32869535684586, 0.04800000227987766, 0.0, 1.008000047877431, 0.0, 0.0, 0.0, 0.0, 0.0, 1.7075955355539517E9, 0.0, 2024-02-10 15:05:35.553
30.0, -328.1537817120552, -584.2621306777, -2011.0489233732224, -200.81766802072525, 0.04800000227987766, 0.0, 1.008000047877431, 0.0, 0.0, 0.0, 0.0, 0.0, 1.7075955355539517E9, 0.0, 2024-02-10 15:05:35.553
31.0, -323.3667097687721, -609.8729655742645, -2035.223636686802, -223.07755255699158, 0.04800000227987766, 0.0, 1.008000047877431, 0.0, 0.0, 0.0, 0.0, 0.0, 1.7075955355547674E9, 0.0, 2024-02-10 15:05:35.554
31.0, -301.5855324268341, -607.7187831997871, -2071.6053834557533, -196.74865686893463, 0.04800000227987766, 0.0, 1.008000047877431, 0.0, 0.0, 0.0, 0.0, 0.0, 1.7075955355547674E9, 0.0, 2024-02-10 15:05:35.554
32.0, -316.42545545101166, -585.2195450663567, -2012.7243985533714, -186.456452190876, 0.04800000227987766, 0.0, 1.008000047877431, 0.0, 0.0, 0.0, 0.0, 0.0, 1.7075955355683172E9, 0.0, 2024-02-10 15:05:35.568
32.0, -344.66917991638184, -614.1813303232193, -2014.8785809278488, -214.46082305908203, 0.04800000227987766, 0.0, 1.008000047877431, 0.0, 0.0, 0.0, 0.0, 0.0, 1.7075955355683172E9, 0.0, 2024-02-10 15:05:35.568
33.0, -323.84541696310043, -627.1064245700836, -2073.0415050387383, -215.6575910449028, 0.04800000227987766, 0.0, 1.008000047877431, 0.0, 0.0, 0.0, 0.0, 0.0, 1.7075955355837767E9, 0.0, 2024-02-10 15:05:35.583
33.0, -315.94674825668335, -597.4265785217285, -2045.9945485591888, -195.07318168878555, 0.04800000227987766, 0.0, 1.008000047877431, 0.0, 0.0, 0.0, 0.0, 0.0, 1.7075955355837767E9, 0.0, 2024-02-10 15:05:35.583
34.0, -337.72792559862137, -597.4265785217285, -2006.7405586242676, -220.68401658535004, 0.04800000227987766, 0.0, 1.008000047877431, 0.0, 0.0, 0.0, 0.0, 0.0, 1.7075955355845628E9, 0.0, 2024-02-10 15:05:35.584
34.0, -332.70150005817413, -629.0212533473969, -2059.1589964032173, -225.71044212579727, 0.04800000227987766, 0.0, 1.008000047877431, 0.0, 0.0, 0.0, 0.0, 0.0, 1.7075955355845628E9, 0.0, 2024-02-10 15:05:35.584
35.0, -320.73382019996643, -612.5058551430702, -2064.1854219436646, -202.49314320087433, 0.04800000227987766, 0.0, 1.008000047877431, 0.0, 0.0, 0.0, 0.0, 0.0, 1.7075955355979304E9, 0.0, 2024-02-10 15:05:35.597
35.0, -339.1640471816063, -600.7775288820267, -2015.117934525013, -217.57241982221603, 0.04800000227987766, 0.0, 1.008000047877431, 0.0, 0.0, 0.0, 0.0, 0.0, 1.7075955355979304E9, 0.0, 2024-02-10 15:05:35.597
36.0, -343.2330583333969, -628.0638389587402, -2038.8139406442642, -225.71044212579727, 0.04800000227987766, 0.0, 1.008000047877431, 0.0, 0.0, 0.0, 0.0, 0.0, 1.7075955356136513E9, 0.0, 2024-02-10 15:05:35.613
36.0, -317.1435162425041, -627.1064245700836, -2084.2911241054535, -209.67375111579895, 0.04800000227987766, 0.0, 1.008000047877431, 0.0, 0.0, 0.0, 0.0, 0.0, 1.7075955356136513E9, 0.0, 2024-02-10 15:05:35.613
37.0, -320.4944666028023, -597.1872249245644, -2026.3675535917282, -202.97185039520264, 0.04800000227987766, 0.0, 1.008000047877431, 0.0, 0.0, 0.0, 0.0, 0.0, 1.7075955356143606E9, 0.0, 2024-02-10 15:05:35.614
37.0, -343.2330583333969, -617.5322806835175, -2027.564321577549, -229.54009968042374, 0.04800000227987766, 0.0, 1.008000047877431, 0.0, 0.0, 0.0, 0.0, 0.0, 1.7075955356143606E9, 0.0, 2024-02-10 15:05:35.614
38.0, -332.2227928638458, -625.4309493899345, -2078.0679305791855, -220.68401658535004, 0.04800000227987766, 0.0, 1.008000047877431, 0.0, 0.0, 0.0, 0.0, 0.0, 1.7075955356279657E9, 0.0, 2024-02-10 15:05:35.627
38.0, -310.4416155219078, -586.6556666493416, -2042.6435981988907, -197.22736406326294, 0.04800000227987766, 0.0, 1.008000047877431, 0.0, 0.0, 0.0, 0.0, 0.0, 1.7075955356279657E9, 0.0, 2024-02-10 15:05:35.627
39.0, -341.3182295560837, -605.8039544224739, -2009.8521553874016, -220.44466298818588, 0.04800000227987766, 0.0, 1.008000047877431, 0.0, 0.0, 0.0, 0.0, 0.0, 1.7075955356436868E9, 0.0, 2024-02-10 15:05:35.643
39.0, -338.2066327929497, -639.0741044282913, -2063.9460683465004, -227.1465637087822, 0.04800000227987766, 0.0, 1.008000047877431, 0.0, 0.0, 0.0, 0.0, 0.0, 1.7075955356436868E9, 0.0, 2024-02-10 15:05:35.643
40.0, -311.87773710489273, -612.5058551430702, -2067.775725901127, -204.64732557535172, 0.04800000227987766, 0.0, 1.008000047877431, 0.0, 0.0, 0.0, 0.0, 0.0, 1.707595535644333E9, 0.0, 2024-02-10 15:05:35.644
40.0, -333.4195608496666, -593.596920967102, -2016.554056107998, -213.50340867042542, 0.04800000227987766, 0.0, 1.008000047877431, 0.0, 0.0, 0.0, 0.0, 0.0, 1.707595535644333E9, 0.0, 2024-02-10 15:05:35.644
41.0, -344.908533513546, -627.5851317644119, -2042.1648910045624, -226.18914932012558, 0.04800000227987766, 0.0, 1.008000047877431, 0.0, 0.0, 0.0, 0.0, 0.0, 1.7075955356580193E9, 0.0, 2024-02-10 15:05:35.658
41.0, -318.8189914226532, -623.7554742097855, -2087.1633672714233, -221.4020773768425, 0.04800000227987766, 0.0, 1.008000047877431, 0.0, 0.0, 0.0, 0.0, 0.0, 1.7075955356580193E9, 0.0, 2024-02-10 15:05:35.658
42.0, -319.7764058113098, -589.7672634124756, -2031.3939791321754, -210.3918119072914, 0.04800000227987766, 0.0, 1.008000047877431, 0.0, 0.0, 0.0, 0.0, 0.0, 1.7075955356737728E9, 0.0, 2024-02-10 15:05:35.673
42.0, -339.40340077877045, -605.0858936309814, -2027.8036751747131, -230.2581604719162, 0.04800000227987766, 0.0, 1.008000047877431, 0.0, 0.0, 0.0, 0.0, 0.0, 1.7075955356737728E9, 0.0, 2024-02-10 15:05:35.673
43.0, -320.4944666028023, -631.1754357218742, -2085.009184896946, -222.83819895982742, 0.04800000227987766, 0.0, 1.008000047877431, 0.0, 0.0, 0.0, 0.0, 0.0, 1.7075955356743712E9, 0.0, 2024-02-10 15:05:35.674
43.0, -322.8880025744438, -607.0007224082947, -2050.0635597109795, -207.04086154699326, 0.04800000227987766, 0.0, 1.008000047877431, 0.0, 0.0, 0.0, 0.0, 0.0, 1.7075955356743712E9, 0.0, 2024-02-10 15:05:35.674
44.0, -348.9775446653366, -613.702623128891, -2015.8359953165054, -231.69428205490112, 0.04800000227987766, 0.0, 1.008000047877431, 0.0, 0.0, 0.0, 0.0, 0.0, 1.7075955356879926E9, 0.0, 2024-02-10 15:05:35.687
44.0, -331.98343926668167, -639.7921652197838, -2068.7331402897835, -238.6355363726616, 0.04800000227987766, 0.0, 1.008000047877431, 0.0, 0.0, 0.0, 0.0, 0.0, 1.7075955356879926E9, 0.0, 2024-02-10 15:05:35.687
45.0, -307.56937235593796, -606.7613688111305, -2066.8183115124702, -207.99827593564987, 0.04800000227987766, 0.0, 1.008000047877431, 0.0, 0.0, 0.0, 0.0, 0.0, 1.7075955357036831E9, 0.0, 2024-02-10 15:05:35.703
45.0, -329.58990329504013, -595.7511033415794, -2019.905006468296, -221.64143097400665, 0.04800000227987766, 0.0, 1.008000047877431, 0.0, 0.0, 0.0, 0.0, 0.0, 1.7075955357036831E9, 0.0, 2024-02-10 15:05:35.703
46.0, -333.8982680439949, -629.7393141388893, -2043.8403661847115, -238.87488996982574, 0.04800000227987766, 0.0, 1.008000047877431, 0.0, 0.0, 0.0, 0.0, 0.0, 1.707595535704348E9, 0.0, 2024-02-10 15:05:35.704
46.0, -312.1170907020569, -623.037413418293, -2090.035610437393, -221.64143097400665, 0.04800000227987766, 0.0, 1.008000047877431, 0.0, 0.0, 0.0, 0.0, 0.0, 1.707595535704348E9, 0.0, 2024-02-10 15:05:35.704
47.0, -323.3667097687721, -599.1020537018776, -2035.9416974782944, -215.6575910449028, 0.04800000227987766, 0.0, 1.008000047877431, 0.0, 0.0, 0.0, 0.0, 0.0, 1.7075955357179873E9, 0.0, 2024-02-10 15:05:35.717
47.0, -346.3446550965309, -627.1064245700836, -2030.9152719378471, -234.56652522087097, 0.04800000227987766, 0.0, 1.008000047877431, 0.0, 0.0, 0.0, 0.0, 0.0, 1.7075955357179873E9, 0.0, 2024-02-10 15:05:35.717
48.0, -324.5634777545929, -635.483800470829, -2087.6420744657516, -230.2581604719162, 0.04800000227987766, 0.0, 1.008000047877431, 0.0, 0.0, 0.0, 0.0, 0.0, 1.7075955357337852E9, 0.0, 2024-02-10 15:05:35.733
48.0, -314.0319194793701, -608.4368439912796, -2057.7228748202324, -213.26405507326126, 0.04800000227987766, 0.0, 1.008000047877431, 0.0, 0.0, 0.0, 0.0, 0.0, 1.7075955357337852E9, 0.0, 2024-02-10 15:05:35.733
49.0, -342.99370473623276, -618.4896950721741, -2029.9578575491905, -240.78971874713898, 0.04800000227987766, 0.0, 1.008000047877431, 0.0, 0.0, 0.0, 0.0, 0.0, 1.7075955357343853E9, 0.0, 2024-02-10 15:05:35.734
49.0, -335.3343896269798, -637.6379828453064, -2078.3072841763496, -247.4916194677353, 0.04800000227987766, 0.0, 1.008000047877431, 0.0, 0.0, 0.0, 0.0, 0.0, 1.7075955357343853E9, 0.0, 2024-02-10 15:05:35.734
50.0, -309.9629083275795, -615.8568055033684, -2085.4878920912743, -225.23173493146896, 0.04800000227987766, 0.0, 1.008000047877431, 0.0, 0.0, 0.0, 0.0, 0.0, 1.7075955357482536E9, 0.0, 2024-02-10 15:05:35.748
50.0, -342.7543511390686, -611.5484407544136, -2036.899111866951, -235.76329320669174, 0.04800000227987766, 0.0, 1.008000047877431, 0.0, 0.0, 0.0, 0.0, 0.0, 1.7075955357482536E9, 0.0, 2024-02-10 15:05:35.748
51.0, -353.7646166086197, -646.4940659403801, -2059.87705719471, -252.51804500818253, 0.04800000227987766, 0.0, 1.008000047877431, 0.0, 0.0, 0.0, 0.0, 0.0, 1.7075955357641797E9, 0.0, 2024-02-10 15:05:35.764
51.0, -328.1537817120552, -642.4250547885895, -2096.4981575608253, -229.7794532775879, 0.04800000227987766, 0.0, 1.008000047877431, 0.0, 0.0, 0.0, 0.0, 0.0, 1.7075955357641797E9, 0.0, 2024-02-10 15:05:35.764
52.0, -342.51499754190445, -613.702623128891, -2047.4306701421738, -223.55625975131989, 0.04800000227987766, 0.0, 1.008000047877431, 0.0, 0.0, 0.0, 0.0, 0.0, 1.7075955357645524E9, 0.0, 2024-02-10 15:05:35.764
52.0, -360.70587092638016, -639.5528116226196, -2048.8667917251587, -247.25226587057114, 0.04800000227987766, 0.0, 1.008000047877431, 0.0, 0.0, 0.0, 0.0, 0.0, 1.7075955357645524E9, 0.0, 2024-02-10 15:05:35.764
53.0, -319.7764058113098, -636.4412148594856, -2085.9665992856026, -236.24200040102005, 0.04800000227987766, 0.0, 1.008000047877431, 0.0, 0.0, 0.0, 0.0, 0.0, 1.7075955357789123E9, 0.0, 2024-02-10 15:05:35.778
53.0, -318.57963782548904, -606.0433080196381, -2061.791885972023, -214.93953025341034, 0.04800000227987766, 0.0, 1.008000047877431, 0.0, 0.0, 0.0, 0.0, 0.0, 1.7075955357789123E9, 0.0, 2024-02-10 15:05:35.778
54.0, -333.65891444683075, -604.6071864366531, -2017.0327633023262, -228.34333169460297, 0.04800000227987766, 0.0, 1.008000047877431, 0.0, 0.0, 0.0, 0.0, 0.0, 1.7075955357939332E9, 0.0, 2024-02-10 15:05:35.793
54.0, -348.73819106817245, -657.264977812767, -2076.8711625933647, -245.3374370932579, 0.04800000227987766, 0.0, 1.008000047877431, 0.0, 0.0, 0.0, 0.0, 0.0, 1.7075955357939332E9, 0.0, 2024-02-10 15:05:35.793
55.0, -329.350549697876, -632.1328501105309, -2076.3924553990364, -222.59884536266327, 0.04800000227987766, 0.0, 1.008000047877431, 0.0, 0.0, 0.0, 0.0, 0.0, 1.7075955357945192E9, 0.0, 2024-02-10 15:05:35.794
55.0, -339.6427543759346, -612.5058551430702, -2028.7610895633698, -227.86462450027466, 0.04800000227987766, 0.0, 1.008000047877431, 0.0, 0.0, 0.0, 0.0, 0.0, 1.7075955357945192E9, 0.0, 2024-02-10 15:05:35.794
56.0, -343.9511191248894, -634.0476788878441, -2058.680289208889, -249.16709464788437, 0.04800000227987766, 0.0, 1.008000047877431, 0.0, 0.0, 0.0, 0.0, 0.0, 1.7075955358084395E9, 0.0, 2024-02-10 15:05:35.808
56.0, -315.2286874651909, -631.8934965133667, -2092.1897928118706, -221.4020773768425, 0.04800000227987766, 0.0, 1.008000047877431, 0.0, 0.0, 0.0, 0.0, 0.0, 1.7075955358084395E9, 0.0, 2024-02-10 15:05:35.808
57.0, -327.43572092056274, -603.8891256451607, -2049.8242061138153, -225.71044212579727, 0.04800000227987766, 0.0, 1.008000047877431, 0.0, 0.0, 0.0, 0.0, 0.0, 1.7075955358238454E9, 0.0, 2024-02-10 15:05:35.823
57.0, -350.1743126511574, -628.3031925559044, -2049.106145322323, -256.58705615997314, 0.04800000227987766, 0.0, 1.008000047877431, 0.0, 0.0, 0.0, 0.0, 0.0, 1.7075955358238454E9, 0.0, 2024-02-10 15:05:35.823
58.0, -333.18020725250244, -642.4250547885895, -2098.1736327409744, -244.8587298989296, 0.04800000227987766, 0.0, 1.008000047877431, 0.0, 0.0, 0.0, 0.0, 0.0, 1.7075955358246489E9, 0.0, 2024-02-10 15:05:35.824
58.0, -322.8880025744438, -622.0799990296364, -2067.5363723039627, -219.72660219669342, 0.04800000227987766, 0.0, 1.008000047877431, 0.0, 0.0, 0.0, 0.0, 0.0, 1.7075955358246489E9, 0.0, 2024-02-10 15:05:35.824
59.0, -348.73819106817245, -623.2767670154572, -2023.4953104257584, -237.43876838684082, 0.04800000227987766, 0.0, 1.008000047877431, 0.0, 0.0, 0.0, 0.0, 0.0, 1.7075955358381493E9, 0.0, 2024-02-10 15:05:35.838
59.0, -336.29180401563644, -648.1695411205292, -2073.5202122330666, -241.50777953863144, 0.04800000227987766, 0.0, 1.008000047877431, 0.0, 0.0, 0.0, 0.0, 0.0, 1.7075955358381493E9, 0.0, 2024-02-10 15:05:35.838
60.0, -321.21252739429474, -621.3619382381439, -2081.1795273423195, -219.2478950023651, 0.04800000227987766, 0.0, 1.008000047877431, 0.0, 0.0, 0.0, 0.0, 0.0, 1.707595535853662E9, 0.0, 2024-02-10 15:05:35.853
60.0, -335.573743224144, -604.8465400338173, -2022.2985424399376, -221.4020773768425, 0.04800000227987766, 0.0, 1.008000047877431, 0.0, 0.0, 0.0, 0.0, 0.0, 1.707595535853662E9, 0.0, 2024-02-10 15:05:35.853
61.0, -345.8659479022026, -631.6541429162025, -2050.3029133081436, -242.7045475244522, 0.04800000227987766, 0.0, 1.008000047877431, 0.0, 0.0, 0.0, 0.0, 0.0, 1.7075955358543963E9, 0.0, 2024-02-10 15:05:35.854
61.0, -320.01575940847397, -625.6703029870987, -2091.232378423214, -226.18914932012558, 0.04800000227987766, 0.0, 1.008000047877431, 0.0, 0.0, 0.0, 0.0, 0.0, 1.7075955358543963E9, 0.0, 2024-02-10 15:05:35.854
62.0, -318.8189914226532, -596.9478713274002, -2041.44683021307, -221.4020773768425, 0.04800000227987766, 0.0, 1.008000047877431, 0.0, 0.0, 0.0, 0.0, 0.0, 1.7075955358680086E9, 0.0, 2024-02-10 15:05:35.868
62.0, -349.4562518596649, -631.6541429162025, -2031.8726863265038, -239.5929507613182, 0.04800000227987766, 0.0, 1.008000047877431, 0.0, 0.0, 0.0, 0.0, 0.0, 1.7075955358680086E9, 0.0, 2024-02-10 15:05:35.868
63.0, -328.87184250354767, -645.2972979545593, -2089.556903243065, -235.5239396095276, 0.04800000227987766, 0.0, 1.008000047877431, 0.0, 0.0, 0.0, 0.0, 0.0, 1.7075955358836913E9, 0.0, 2024-02-10 15:05:35.883
63.0, -322.16994178295135, -616.0961591005325, -2061.791885972023, -219.00854140520096, 0.04800000227987766, 0.0, 1.008000047877431, 0.0, 0.0, 0.0, 0.0, 0.0, 1.7075955358836913E9, 0.0, 2024-02-10 15:05:35.883
64.0, -339.6427543759346, -604.1284792423248, -2017.7508240938187, -231.69428205490112, 0.04800000227987766, 0.0, 1.008000047877431, 0.0, 0.0, 0.0, 0.0, 0.0, 1.7075955358844843E9, 0.0, 2024-02-10 15:05:35.884
64.0, -322.64864897727966, -632.372203707695, -2067.0576651096344, -232.17298924922943, 0.04800000227987766, 0.0, 1.008000047877431, 0.0, 0.0, 0.0, 0.0, 0.0, 1.7075955358844843E9, 0.0, 2024-02-10 15:05:35.884
65.0, -312.83515149354935, -614.8993911147118, -2069.211847484112, -210.3918119072914, 0.04800000227987766, 0.0, 1.008000047877431, 0.0, 0.0, 0.0, 0.0, 0.0, 1.707595535898053E9, 0.0, 2024-02-10 15:05:35.898
65.0, -327.43572092056274, -598.144639313221, -2020.6230672597885, -219.2478950023651, 0.04800000227987766, 0.0, 1.008000047877431, 0.0, 0.0, 0.0, 0.0, 0.0, 1.707595535898053E9, 0.0, 2024-02-10 15:05:35.898
66.0, -337.4885720014572, -628.3031925559044, -2044.3190733790398, -233.8484644293785, 0.04800000227987766, 0.0, 1.008000047877431, 0.0, 0.0, 0.0, 0.0, 0.0, 1.7075955359140193E9, 0.0, 2024-02-10 15:05:35.914
66.0, -321.21252739429474, -638.1166900396347, -2086.684660077095, -218.05112701654434, 0.04800000227987766, 0.0, 1.008000047877431, 0.0, 0.0, 0.0, 0.0, 0.0, 1.7075955359140193E9, 0.0, 2024-02-10 15:05:35.914
67.0, -310.9203227162361, -596.4691641330719, -2031.3939791321754, -212.30664068460464, 0.04800000227987766, 0.0, 1.008000047877431, 0.0, 0.0, 0.0, 0.0, 0.0, 1.7075955359144967E9, 0.0, 2024-02-10 15:05:35.914
67.0, -324.5634777545929, -602.9317112565041, -2015.117934525013, -226.90721011161804, 0.04800000227987766, 0.0, 1.008000047877431, 0.0, 0.0, 0.0, 0.0, 0.0, 1.7075955359144967E9, 0.0, 2024-02-10 15:05:35.914
68.0, -311.87773710489273, -628.3031925559044, -2076.8711625933647, -227.38591730594635, 0.04800000227987766, 0.0, 1.008000047877431, 0.0, 0.0, 0.0, 0.0, 0.0, 1.7075955359282963E9, 0.0, 2024-02-10 15:05:35.928
68.0, -303.02165400981903, -598.8627001047134, -2048.3880845308304, -206.8015079498291, 0.04800000227987766, 0.0, 1.008000047877431, 0.0, 0.0, 0.0, 0.0, 0.0, 1.7075955359282963E9, 0.0, 2024-02-10 15:05:35.928
69.0, -337.72792559862137, -617.0535734891891, -2015.8359953165054, -233.3697572350502, 0.04800000227987766, 0.0, 1.008000047877431, 0.0, 0.0, 0.0, 0.0, 0.0, 1.707595535943966E9, 0.0, 2024-02-10 15:05:35.943
69.0, -319.7764058113098, -628.7818997502327, -2061.552532374859, -233.60911083221436, 0.04800000227987766, 0.0, 1.008000047877431, 0.0, 0.0, 0.0, 0.0, 0.0, 1.707595535943966E9, 0.0, 2024-02-10 15:05:35.943
70.0, -302.7823004126549, -613.702623128891, -2075.913748204708, -215.89694464206696, 0.04800000227987766, 0.0, 1.008000047877431, 0.0, 0.0, 0.0, 0.0, 0.0, 1.7075955359445205E9, 0.0, 2024-02-10 15:05:35.944
70.0, -325.9995993375778, -601.256236076355, -2027.564321577549, -230.2581604719162, 0.04800000227987766, 0.0, 1.008000047877431, 0.0, 0.0, 0.0, 0.0, 0.0, 1.7075955359445205E9, 0.0, 2024-02-10 15:05:35.944
71.0, -338.2066327929497, -637.1592756509781, -2052.9358028769493, -247.9703266620636, 0.04800000227987766, 0.0, 1.008000047877431, 0.0, 0.0, 0.0, 0.0, 0.0, 1.7075955359580972E9, 0.0, 2024-02-10 15:05:35.958
71.0, -328.6324889063835, -636.6805684566498, -2093.3865607976913, -234.08781802654266, 0.04800000227987766, 0.0, 1.008000047877431, 0.0, 0.0, 0.0, 0.0, 0.0, 1.7075955359580972E9, 0.0, 2024-02-10 15:05:35.958
72.0, -324.5634777545929, -605.3252472281456, -2049.584852516651, -224.9923813343048, 0.04800000227987766, 0.0, 1.008000047877431, 0.0, 0.0, 0.0, 0.0, 0.0, 1.7075955359736483E9, 0.0, 2024-02-10 15:05:35.973
72.0, -347.5414230823517, -626.8670709729195, -2045.0371341705322, -252.03933781385422, 0.04800000227987766, 0.0, 1.008000047877431, 0.0, 0.0, 0.0, 0.0, 0.0, 1.7075955359736483E9, 0.0, 2024-02-10 15:05:35.973
73.0, -328.39313530921936, -647.4514803290367, -2093.147207200527, -239.83230435848236, 0.04800000227987766, 0.0, 1.008000047877431, 0.0, 0.0, 0.0, 0.0, 0.0, 1.7075955359743347E9, 0.0, 2024-02-10 15:05:35.974
73.0, -318.8189914226532, -611.3090871572495, -2069.9299082756042, -222.83819895982742, 0.04800000227987766, 0.0, 1.008000047877431, 0.0, 0.0, 0.0, 0.0, 0.0, 1.7075955359743347E9, 0.0, 2024-02-10 15:05:35.974
74.0, -341.796936750412, -620.1651702523232, -2034.5055758953094, -240.31101155281067, 0.04800000227987766, 0.0, 1.008000047877431, 0.0, 0.0, 0.0, 0.0, 0.0, 1.707595535987959E9, 0.0, 2024-02-10 15:05:35.987
74.0, -338.685339987278, -652.9566130638123, -2079.7434057593346, -247.73097306489944, 0.04800000227987766, 0.0, 1.008000047877431, 0.0, 0.0, 0.0, 0.0, 0.0, 1.707595535987959E9, 0.0, 2024-02-10 15:05:35.987
75.0, -322.16994178295135, -627.3457781672478, -2090.035610437393, -228.58268529176712, 0.04800000227987766, 0.0, 1.008000047877431, 0.0, 0.0, 0.0, 0.0, 0.0, 1.7075955360041544E9, 0.0, 2024-02-10 15:05:36.004
75.0, -333.4195608496666, -600.0594680905342, -2038.0958798527718, -233.13040363788605, 0.04800000227987766, 0.0, 1.008000047877431, 0.0, 0.0, 0.0, 0.0, 0.0, 1.7075955360041544E9, 0.0, 2024-02-10 15:05:36.004
76.0, -346.8233622908592, -643.8611763715744, -2062.5099467635155, -251.32127702236176, 0.04800000227987766, 0.0, 1.008000047877431, 0.0, 0.0, 0.0, 0.0, 0.0, 1.7075955360044513E9, 0.0, 2024-02-10 15:05:36.004
76.0, -316.6648090481758, -637.1592756509781, -2104.3968262672424, -233.3697572350502, 0.04800000227987766, 0.0, 1.008000047877431, 0.0, 0.0, 0.0, 0.0, 0.0, 1.7075955360044513E9, 0.0, 2024-02-10 15:05:36.004
77.0, -329.350549697876, -612.2665015459061, -2055.0899852514267, -227.6252709031105, 0.04800000227987766, 0.0, 1.008000047877431, 0.0, 0.0, 0.0, 0.0, 0.0, 1.7075955360181775E9, 0.0, 2024-02-10 15:05:36.018
77.0, -346.3446550965309, -624.2341814041138, -2042.8829517960548, -248.92774105072021, 0.04800000227987766, 0.0, 1.008000047877431, 0.0, 0.0, 0.0, 0.0, 0.0, 1.7075955360181775E9, 0.0, 2024-02-10 15:05:36.018
78.0, -326.4783065319061, -643.8611763715744, -2090.5143176317215, -236.9600611925125, 0.04800000227987766, 0.0, 1.008000047877431, 0.0, 0.0, 0.0, 0.0, 0.0, 1.707595536033825E9, 0.0, 2024-02-10 15:05:36.033
78.0, -311.87773710489273, -600.0594680905342, -2064.4247755408287, -216.61500543355942, 0.04800000227987766, 0.0, 1.008000047877431, 0.0, 0.0, 0.0, 0.0, 0.0, 1.707595536033825E9, 0.0, 2024-02-10 15:05:36.033
