%OpenBCI Raw EXG Data
%Number of channels = 4
%Sample Rate = 200 Hz
%Board = OpenBCI_GUI$BoardGanglionBLE
Sample Index, EXG Channel 0, EXG Channel 1, EXG Channel 2, EXG Channel 3, Accel Channel 0, Accel Channel 1, Accel Channel 2, Other, Other, Other, Other, Other, Timestamp, Other, Timestamp (Formatted)
43.0, -420.54427021741867, -465.3033928871155, -401.87468963861465, -196.50930327177048, 0.0, 0.0, 0.0, 0.0, 0.0, 0.0, 0.0, 0.0, 1.7063889050567148E9, 0.0, 2024-01-27 15:55:05.056
43.0, 0.0, 0.0, 0.0, 0.0, 0.0, 0.0, 0.0, 0.0, 0.0, 0.0, 0.0, 0.0, 1.7063889050567148E9, 0.0, 2024-01-27 15:55:05.056
0.0, -531.364985704422, -439.45320439338684, -349.9349590539932, -264.7250784635544, 0.0, 0.0, 0.9920000471174717, 0.0, 0.0, 0.0, 0.0, 0.0, 1.7063889051199293E9, 0.0, 2024-01-27 15:55:05.119
0.0, -441.8467403650284, -455.01118820905685, -381.05092668533325, -236.9600611925125, 0.0, 0.0, 0.9920000471174717, 0.0, 0.0, 0.0, 0.0, 0.0, 1.7063889051199293E9, 0.0, 2024-01-27 15:55:05.119
1.0, -422.69845259189606, -479.6646087169647, -421.74103820323944, -191.2435241341591, 0.0, -0.9920000471174717, 0.9920000471174717, 0.0, 0.0, 0.0, 0.0, 0.0, 1.7063889051213815E9, 0.0, 2024-01-27 15:55:05.121
1.0, -533.7585216760635, -465.0640392899513, -380.3328658938408, -266.40055364370346, 0.0, -0.9920000471174717, 0.9920000471174717, 0.0, 0.0, 0.0, 0.0, 0.0, 1.7063889051213815E9, 0.0, 2024-01-27 15:55:05.121
2.0, -479.9039623141289, -452.85700583457947, -370.7587220072746, -274.5385759472847, -0.9920000471174717, -0.9920000471174717, 0.9920000471174717, 0.0, 0.0, 0.0, 0.0, 0.0, 1.706388905132168E9, 0.0, 2024-01-27 15:55:05.132
2.0, -379.3754515051842, -456.2079561948776, -410.9701263308525, -193.63706010580063, -0.9920000471174717, -0.9920000471174717, 0.9920000471174717, 0.0, 0.0, 0.0, 0.0, 0.0, 1.706388905132168E9, 0.0, 2024-01-27 15:55:05.132
3.0, -484.69103425741196, -464.34597849845886, -393.2579601407051, -232.17298924922943, -0.9920000471174717, -0.9920000471174717, 0.9920000471174717, 0.0, 0.0, 0.0, 0.0, 0.0, 1.7063889051480722E9, 0.0, 2024-01-27 15:55:05.148
3.0, -526.0992065668106, -451.89959144592285, -368.60453963279724, -296.55910688638687, -0.9920000471174717, -0.9920000471174717, 0.9920000471174717, 0.0, 0.0, 0.0, 0.0, 0.0, 1.7063889051480722E9, 0.0, 2024-01-27 15:55:05.148
4.0, -399.24180006980896, -458.12278497219086, -411.4488335251808, -221.4020773768425, -0.9920000471174717, -0.9920000471174717, 0.9920000471174717, 0.0, 0.0, 0.0, 0.0, 0.0, 1.7063889051488216E9, 0.0, 2024-01-27 15:55:05.148
4.0, -430.11841410398483, -452.6176522374153, -397.0876176953316, -197.9454248547554, -0.9920000471174717, -0.9920000471174717, 0.9920000471174717, 0.0, 0.0, 0.0, 0.0, 0.0, 1.7063889051488216E9, 0.0, 2024-01-27 15:55:05.148
5.0, -532.5617536902428, -443.52221554517746, -358.07298135757446, -279.8043550848961, -0.9920000471174717, -0.9920000471174717, 0.9920000471174717, 0.0, 0.0, 0.0, 0.0, 0.0, 1.706388905149582E9, 0.0, 2024-01-27 15:55:05.149
5.0, -430.8364748954773, -453.57506662607193, -387.75282740592957, -251.32127702236176, -0.9920000471174717, -0.9920000471174717, 0.9920000471174717, 0.0, 0.0, 0.0, 0.0, 0.0, 1.706388905149582E9, 0.0, 2024-01-27 15:55:05.149
6.0, -408.8159439563751, -472.72335439920425, -417.6720270514488, -194.8338280916214, -0.9920000471174717, -0.9920000471174717, 0.9920000471174717, 0.0, 0.0, 0.0, 0.0, 0.0, 1.706388905161333E9, 0.0, 2024-01-27 15:55:05.161
6.0, -530.8862785100937, -459.5589065551758, -374.34902596473694, -259.9380065202713, -0.9920000471174717, -0.9920000471174717, 0.9920000471174717, 0.0, 0.0, 0.0, 0.0, 0.0, 1.706388905161333E9, 0.0, 2024-01-27 15:55:05.161
7.0, -498.81289649009705, -459.0801993608475, -378.41803711652756, -272.3843935728073, -0.9920000471174717, -0.9920000471174717, 0.9920000471174717, 0.0, 0.0, 0.0, 0.0, 0.0, 1.706388905175979E9, 0.0, 2024-01-27 15:55:05.175
7.0, -392.53989934921265, -470.3298184275627, -422.4590989947319, -198.90283924341202, -0.9920000471174717, -0.9920000471174717, 0.9920000471174717, 0.0, 0.0, 0.0, 0.0, 0.0, 1.706388905175979E9, 0.0, 2024-01-27 15:55:05.175
8.0, -488.99939900636673, -467.2182216644287, -390.6250705718994, -232.17298924922943, -0.9920000471174717, -0.9920000471174717, 0.9920000471174717, 0.0, 0.0, 0.0, 0.0, 0.0, 1.7063889051917346E9, 0.0, 2024-01-27 15:55:05.191
8.0, -525.6204993724823, -459.79826015233994, -364.29617488384247, -286.9849629998207, -0.9920000471174717, -0.9920000471174717, 0.9920000471174717, 0.0, 0.0, 0.0, 0.0, 0.0, 1.7063889051917346E9, 0.0, 2024-01-27 15:55:05.191
9.0, -401.6353360414505, -461.9524425268173, -400.1992144584656, -212.5459942817688, -0.9920000471174717, -0.9920000471174717, 0.9920000471174717, 0.0, 0.0, 0.0, 0.0, 0.0, 1.7063889051924322E9, 0.0, 2024-01-27 15:55:05.192
9.0, -440.6499723792076, -467.9362824559212, -407.3798223733902, -204.64732557535172, -0.9920000471174717, -0.9920000471174717, 0.9920000471174717, 0.0, 0.0, 0.0, 0.0, 0.0, 1.7063889051924322E9, 0.0, 2024-01-27 15:55:05.192
10.0, -540.4604223966599, -453.57506662607193, -363.81746768951416, -290.8146205544472, -0.9920000471174717, -0.9920000471174717, 0.7520000357180834, 0.0, 0.0, 0.0, 0.0, 0.0, 1.7063889052064397E9, 0.0, 2024-01-27 15:55:05.206
10.0, -432.5119500756264, -456.9260169863701, -386.31670582294464, -245.57679069042206, -0.9920000471174717, -0.9920000471174717, 0.7520000357180834, 0.0, 0.0, 0.0, 0.0, 0.0, 1.7063889052064397E9, 0.0, 2024-01-27 15:55:05.206
11.0, -399.72050726413727, -469.3724040389061, -409.77335834503174, -186.456452190876, -0.9920000471174717, -0.7520000357180834, 0.7520000357180834, 0.0, 0.0, 0.0, 0.0, 0.0, 1.7063889052217872E9, 0.0, 2024-01-27 15:55:05.221
11.0, -523.4663169980049, -456.9260169863701, -369.3226004242897, -253.47545939683914, -0.9920000471174717, -0.7520000357180834, 0.7520000357180834, 0.0, 0.0, 0.0, 0.0, 0.0, 1.7063889052217872E9, 0.0, 2024-01-27 15:55:05.221
12.0, -479.1859015226364, -452.138945043087, -376.024501144886, -277.1714655160904, -0.7520000357180834, -0.7520000357180834, 0.7520000357180834, 0.0, 0.0, 0.0, 0.0, 0.0, 1.7063889052225316E9, 0.0, 2024-01-27 15:55:05.222
12.0, -373.3916115760803, -454.2931274175644, -404.2682256102562, -185.02033060789108, -0.7520000357180834, -0.7520000357180834, 0.7520000357180834, 0.0, 0.0, 0.0, 0.0, 0.0, 1.7063889052225316E9, 0.0, 2024-01-27 15:55:05.222
13.0, -461.473735332489, -448.0699338912964, -376.98191553354263, -217.57241982221603, -0.7520000357180834, -0.7520000357180834, 0.7520000357180834, 0.0, 0.0, 0.0, 0.0, 0.0, 1.7063889052361166E9, 0.0, 2024-01-27 15:55:05.236
13.0, -508.8657475709915, -448.5486410856247, -354.00397020578384, -282.1978910565376, -0.7520000357180834, -0.7520000357180834, 0.7520000357180834, 0.0, 0.0, 0.0, 0.0, 0.0, 1.7063889052361166E9, 0.0, 2024-01-27 15:55:05.236
14.0, -390.86442416906357, -453.0963594317436, -397.5663248896599, -217.57241982221603, -0.7520000357180834, -0.7520000357180834, 0.7520000357180834, 0.0, 0.0, 0.0, 0.0, 0.0, 1.7063889052518668E9, 0.0, 2024-01-27 15:55:05.251
14.0, -422.21974539756775, -455.7292490005493, -393.49731373786926, -199.62090003490448, -0.7520000357180834, -0.7520000357180834, 0.7520000357180834, 0.0, 0.0, 0.0, 0.0, 0.0, 1.7063889052518668E9, 0.0, 2024-01-27 15:55:05.251
15.0, -527.0566209554672, -440.6499723792076, -352.8072022199631, -280.2830622792244, -0.7520000357180834, -0.7520000357180834, 0.7520000357180834, 0.0, 0.0, 0.0, 0.0, 0.0, 1.7063889052525651E9, 0.0, 2024-01-27 15:55:05.252
15.0, -416.95396625995636, -448.0699338912964, -379.6148051023483, -240.78971874713898, -0.7520000357180834, -0.7520000357180834, 0.7520000357180834, 0.0, 0.0, 0.0, 0.0, 0.0, 1.7063889052525651E9, 0.0, 2024-01-27 15:55:05.252
16.0, -389.6676561832428, -462.43114972114563, -406.9011151790619, -187.65322017669678, -0.7520000357180834, -0.7520000357180834, 0.7520000357180834, 0.0, 0.0, 0.0, 0.0, 0.0, 1.7063889052660663E9, 0.0, 2024-01-27 15:55:05.266
16.0, -505.99350440502167, -444.4796299338341, -363.0994068980217, -259.69865292310715, -0.7520000357180834, -0.7520000357180834, 0.7520000357180834, 0.0, 0.0, 0.0, 0.0, 0.0, 1.7063889052660663E9, 0.0, 2024-01-27 15:55:05.266
17.0, -461.71308892965317, -436.82031482458115, -362.1419925093651, -270.70891839265823, -0.7520000357180834, -0.7520000357180834, 0.7520000357180834, 0.0, 0.0, 0.0, 0.0, 0.0, 1.7063889052817698E9, 0.0, 2024-01-27 15:55:05.281
17.0, -365.49294286966324, -450.2241162657738, -404.02887201309204, -183.8235626220703, -0.7520000357180834, -0.7520000357180834, 0.7520000357180834, 0.0, 0.0, 0.0, 0.0, 0.0, 1.7063889052817698E9, 0.0, 2024-01-27 15:55:05.281
18.0, -465.54274648427963, -453.57506662607193, -384.64123064279556, -229.54009968042374, -0.7520000357180834, -0.7520000357180834, 0.7520000357180834, 0.0, 0.0, 0.0, 0.0, 0.0, 1.7063889052824621E9, 0.0, 2024-01-27 15:55:05.282
18.0, -507.9083331823349, -445.4370443224907, -356.63685977458954, -288.1817309856415, -0.7520000357180834, -0.7520000357180834, 0.7520000357180834, 0.0, 0.0, 0.0, 0.0, 0.0, 1.7063889052824621E9, 0.0, 2024-01-27 15:55:05.282
19.0, -385.11993783712387, -463.38856410980225, -408.09788316488266, -224.0349669456482, -0.7520000357180834, -0.7520000357180834, 0.7520000357180834, 0.0, 0.0, 0.0, 0.0, 0.0, 1.7063889052961533E9, 0.0, 2024-01-27 15:55:05.296
19.0, -407.8585295677185, -445.915751516819, -384.4018770456314, -193.39770650863647, -0.7520000357180834, -0.7520000357180834, 0.7520000357180834, 0.0, 0.0, 0.0, 0.0, 0.0, 1.7063889052961533E9, 0.0, 2024-01-27 15:55:05.296
20.0, -511.73799073696136, -440.41061878204346, -347.30206948518753, -276.45340472459793, -0.7520000357180834, -0.7520000357180834, 0.8800000417977571, 0.0, 0.0, 0.0, 0.0, 0.0, 1.7063889053119311E9, 0.0, 2024-01-27 15:55:05.311
20.0, -407.61917597055435, -438.4957900047302, -379.3754515051842, -242.7045475244522, -0.7520000357180834, -0.7520000357180834, 0.8800000417977571, 0.0, 0.0, 0.0, 0.0, 0.0, 1.7063889053119311E9, 0.0, 2024-01-27 15:55:05.311
21.0, -376.98191553354263, -446.8731659054756, -400.6779216527939, -183.10550183057785, -0.7520000357180834, -0.8800000417977571, 0.8800000417977571, 0.0, 0.0, 0.0, 0.0, 0.0, 1.7063889053126194E9, 0.0, 2024-01-27 15:55:05.312
21.0, -492.58970296382904, -433.70871806144714, -360.9452245235443, -252.51804500818253, -0.7520000357180834, -0.8800000417977571, 0.8800000417977571, 0.0, 0.0, 0.0, 0.0, 0.0, 1.7063889053126194E9, 0.0, 2024-01-27 15:55:05.312
22.0, -459.79826015233994, -439.93191158771515, -355.9187989830971, -263.0496032834053, -0.8800000417977571, -0.8800000417977571, 0.8800000417977571, 0.0, 0.0, 0.0, 0.0, 0.0, 1.7063889053260236E9, 0.0, 2024-01-27 15:55:05.326
22.0, -374.1096723675728, -463.38856410980225, -405.46499359607697, -186.456452190876, -0.8800000417977571, -0.8800000417977571, 0.8800000417977571, 0.0, 0.0, 0.0, 0.0, 0.0, 1.7063889053260236E9, 0.0, 2024-01-27 15:55:05.326
23.0, -468.8936968445778, -450.94217705726624, -375.0670867562294, -215.1788838505745, -0.8800000417977571, -0.8800000417977571, 0.8800000417977571, 0.0, 0.0, 0.0, 0.0, 0.0, 1.7063889053417845E9, 0.0, 2024-01-27 15:55:05.341
23.0, -494.7438853383064, -432.9906572699547, -346.3446550965309, -269.99085760116577, -0.8800000417977571, -0.8800000417977571, 0.8800000417977571, 0.0, 0.0, 0.0, 0.0, 0.0, 1.7063889053417845E9, 0.0, 2024-01-27 15:55:05.341
24.0, -384.4018770456314, -453.8144202232361, -392.53989934921265, -208.47698312997818, -0.8800000417977571, -0.8800000417977571, 0.8800000417977571, 0.0, 0.0, 0.0, 0.0, 0.0, 1.7063889053424957E9, 0.0, 2024-01-27 15:55:05.342
24.0, -422.4590989947319, -451.42088425159454, -390.6250705718994, -191.7222313284874, -0.8800000417977571, -0.8800000417977571, 0.8800000417977571, 0.0, 0.0, 0.0, 0.0, 0.0, 1.7063889053424957E9, 0.0, 2024-01-27 15:55:05.342
25.0, -509.10510116815567, -428.2035853266716, -339.1640471816063, -261.13477450609207, -0.8800000417977571, -0.8800000417977571, 0.8800000417977571, 0.0, 0.0, 0.0, 0.0, 0.0, 1.7063889053563068E9, 0.0, 2024-01-27 15:55:05.356
25.0, -410.25206553936005, -435.3841932415962, -372.19484359025955, -226.6678565144539, -0.8800000417977571, -0.8800000417977571, 0.8800000417977571, 0.0, 0.0, 0.0, 0.0, 0.0, 1.7063889053563068E9, 0.0, 2024-01-27 15:55:05.356
26.0, -374.5883795619011, -443.2828619480133, -402.35339683294296, -177.83972269296646, -0.8800000417977571, -0.8800000417977571, 0.8800000417977571, 0.0, 0.0, 0.0, 0.0, 0.0, 1.7063889053717868E9, 0.0, 2024-01-27 15:55:05.371
26.0, -493.7864709496498, -441.6073867678642, -364.29617488384247, -254.43287378549576, -0.8800000417977571, -0.8800000417977571, 0.8800000417977571, 0.0, 0.0, 0.0, 0.0, 0.0, 1.7063889053717868E9, 0.0, 2024-01-27 15:55:05.371
27.0, -448.78799468278885, -427.48552453517914, -347.0627158880234, -255.15093457698822, -0.8800000417977571, -0.8800000417977571, 0.8800000417977571, 0.0, 0.0, 0.0, 0.0, 0.0, 1.7063889053724985E9, 0.0, 2024-01-27 15:55:05.372
27.0, -349.4562518596649, -444.71898353099823, -397.5663248896599, -182.3874410390854, -0.8800000417977571, -0.8800000417977571, 0.8800000417977571, 0.0, 0.0, 0.0, 0.0, 0.0, 1.7063889053724985E9, 0.0, 2024-01-27 15:55:05.372
28.0, -455.7292490005493, -447.11251950263977, -382.9657554626465, -225.47108852863312, -0.8800000417977571, -0.8800000417977571, 0.8800000417977571, 0.0, 0.0, 0.0, 0.0, 0.0, 1.7063889053860245E9, 0.0, 2024-01-27 15:55:05.386
28.0, -491.6322885751724, -428.44293892383575, -352.32849502563477, -281.47983026504517, -0.8800000417977571, -0.8800000417977571, 0.8800000417977571, 0.0, 0.0, 0.0, 0.0, 0.0, 1.7063889053860245E9, 0.0, 2024-01-27 15:55:05.386
29.0, -358.3123349547386, -432.03324288129807, -384.8805842399597, -199.86025363206863, -0.8800000417977571, -0.8800000417977571, 0.8800000417977571, 0.0, 0.0, 0.0, 0.0, 0.0, 1.7063889054025376E9, 0.0, 2024-01-27 15:55:05.402
29.0, -402.83210402727127, -439.2138507962227, -384.16252344846725, -187.41386657953262, -0.8800000417977571, -0.8800000417977571, 0.8800000417977571, 0.0, 0.0, 0.0, 0.0, 0.0, 1.7063889054025376E9, 0.0, 2024-01-27 15:55:05.402
30.0, -503.360614836216, -427.7248781323433, -342.7543511390686, -271.18762558698654, -0.8800000417977571, -0.8800000417977571, 0.9280000440776348, 0.0, 0.0, 0.0, 0.0, 0.0, 1.7063889054172497E9, 0.0, 2024-01-27 15:55:05.417
30.0, -396.8482640981674, -427.96423172950745, -368.8438932299614, -231.45492845773697, -0.8800000417977571, -0.8800000417977571, 0.9280000440776348, 0.0, 0.0, 0.0, 0.0, 0.0, 1.7063889054172497E9, 0.0, 2024-01-27 15:55:05.417
31.0, -366.92906445264816, -439.93191158771515, -403.0714576244354, -180.95131945610046, -0.8800000417977571, -0.9280000440776348, 0.9280000440776348, 0.0, 0.0, 0.0, 0.0, 0.0, 1.7063889054175875E9, 0.0, 2024-01-27 15:55:05.417
31.0, -482.05814468860626, -430.8364748954773, -355.2007381916046, -253.236105799675, -0.8800000417977571, -0.9280000440776348, 0.9280000440776348, 0.0, 0.0, 0.0, 0.0, 0.0, 1.7063889054175875E9, 0.0, 2024-01-27 15:55:05.417
32.0, -438.97449719905853, -421.26233100891113, -346.3446550965309, -256.347702562809, -0.9280000440776348, -0.9280000440776348, 0.9280000440776348, 0.0, 0.0, 0.0, 0.0, 0.0, 1.7063889054317665E9, 0.0, 2024-01-27 15:55:05.431
32.0, -346.58400869369507, -435.6235468387604, -396.3695569038391, -181.90873384475708, -0.9280000440776348, -0.9280000440776348, 0.9280000440776348, 0.0, 0.0, 0.0, 0.0, 0.0, 1.7063889054317665E9, 0.0, 2024-01-27 15:55:05.431
33.0, -452.138945043087, -441.1286795735359, -380.09351229667664, -227.38591730594635, -0.9280000440776348, -0.9280000440776348, 0.9280000440776348, 0.0, 0.0, 0.0, 0.0, 0.0, 1.7063889054324448E9, 0.0, 2024-01-27 15:55:05.432
33.0, -485.4090950489044, -427.96423172950745, -349.4562518596649, -282.4372446537018, -0.9280000440776348, -0.9280000440776348, 0.9280000440776348, 0.0, 0.0, 0.0, 0.0, 0.0, 1.7063889054324448E9, 0.0, 2024-01-27 15:55:05.432
34.0, -376.26385474205017, -444.9583371281624, -396.3695569038391, -214.22146946191788, -0.9280000440776348, -0.9280000440776348, 0.9280000440776348, 0.0, 0.0, 0.0, 0.0, 0.0, 1.7063889054462276E9, 0.0, 2024-01-27 15:55:05.446
34.0, -411.20947992801666, -448.5486410856247, -401.87468963861465, -204.88667917251587, -0.9280000440776348, -0.9280000440776348, 0.9280000440776348, 0.0, 0.0, 0.0, 0.0, 0.0, 1.7063889054462276E9, 0.0, 2024-01-27 15:55:05.446
35.0, -512.9347587227821, -446.63381230831146, -359.5091029405594, -289.85720616579056, -0.9280000440776348, -0.9280000440776348, 0.9280000440776348, 0.0, 0.0, 0.0, 0.0, 0.0, 1.706388905461816E9, 0.0, 2024-01-27 15:55:05.461
35.0, -418.8687950372696, -448.30928748846054, -376.7425619363785, -246.29485148191452, -0.9280000440776348, -0.9280000440776348, 0.9280000440776348, 0.0, 0.0, 0.0, 0.0, 0.0, 1.706388905461816E9, 0.0, 2024-01-27 15:55:05.461
36.0, -396.8482640981674, -467.45757526159286, -416.95396625995636, -197.22736406326294, -0.9280000440776348, -0.9280000440776348, 0.9280000440776348, 0.0, 0.0, 0.0, 0.0, 0.0, 1.7063889054625137E9, 0.0, 2024-01-27 15:55:05.462
36.0, -535.9127040505409, -480.3826695084572, -407.8585295677185, -295.60169249773026, -0.9280000440776348, -0.9280000440776348, 0.9280000440776348, 0.0, 0.0, 0.0, 0.0, 0.0, 1.7063889054625137E9, 0.0, 2024-01-27 15:55:05.462
37.0, -449.9847626686096, -439.93191158771515, -363.0994068980217, -273.5811615586281, -0.9280000440776348, -0.9280000440776348, 0.9280000440776348, 0.0, 0.0, 0.0, 0.0, 0.0, 1.7063889054761236E9, 0.0, 2024-01-27 15:55:05.476
37.0, -344.4298263192177, -438.25643640756607, -395.17278891801834, -185.73839139938354, -0.9280000440776348, -0.9280000440776348, 0.9280000440776348, 0.0, 0.0, 0.0, 0.0, 0.0, 1.7063889054761236E9, 0.0, 2024-01-27 15:55:05.476
38.0, -422.69845259189606, -422.21974539756775, -357.8336277604103, -216.1362982392311, -0.9280000440776348, -0.9280000440776348, 0.9280000440776348, 0.0, 0.0, 0.0, 0.0, 0.0, 1.7063889054915652E9, 0.0, 2024-01-27 15:55:05.491
38.0, -452.138945043087, -410.25206553936005, -328.1537817120552, -278.36823350191116, -0.9280000440776348, -0.9280000440776348, 0.9280000440776348, 0.0, 0.0, 0.0, 0.0, 0.0, 1.7063889054915652E9, 0.0, 2024-01-27 15:55:05.491
39.0, -320.9731737971306, -406.1830543875694, -370.04066121578217, -205.84409356117249, -0.9280000440776348, -0.9280000440776348, 0.9280000440776348, 0.0, 0.0, 0.0, 0.0, 0.0, 1.7063889055070748E9, 0.0, 2024-01-27 15:55:05.507
39.0, -361.18457812070847, -417.6720270514488, -375.30644035339355, -200.5783144235611, -0.9280000440776348, -0.9280000440776348, 0.9280000440776348, 0.0, 0.0, 0.0, 0.0, 0.0, 1.7063889055070748E9, 0.0, 2024-01-27 15:55:05.507
40.0, -457.16537058353424, -402.83210402727127, -326.95701372623444, -285.0701342225075, -0.9280000440776348, -0.9280000440776348, 0.9760000463575125, 0.0, 0.0, 0.0, 0.0, 0.0, 1.7063889055075555E9, 0.0, 2024-01-27 15:55:05.507
40.0, -324.5634777545929, -378.6573907136917, -331.7440856695175, -225.94979572296143, -0.9280000440776348, -0.9280000440776348, 0.9760000463575125, 0.0, 0.0, 0.0, 0.0, 0.0, 1.7063889055075555E9, 0.0, 2024-01-27 15:55:05.507
41.0, -291.2933277487755, -389.90700978040695, -362.38134610652924, -174.9674795269966, -0.9280000440776348, -0.9760000463575125, 0.9760000463575125, 0.0, 0.0, 0.0, 0.0, 0.0, 1.706388905521756E9, 0.0, 2024-01-27 15:55:05.521
41.0, -407.3798223733902, -379.13609790802, -317.3828698396683, -244.3800227046013, -0.9280000440776348, -0.9760000463575125, 0.9760000463575125, 0.0, 0.0, 0.0, 0.0, 0.0, 1.706388905521756E9, 0.0, 2024-01-27 15:55:05.521
42.0, -364.0568212866783, -366.45035725831985, -311.6383835077286, -256.10834896564484, -0.9760000463575125, -0.9760000463575125, 0.9760000463575125, 0.0, 0.0, 0.0, 0.0, 0.0, 1.7063889055224953E9, 0.0, 2024-01-27 15:55:05.522
42.0, -262.81024968624115, -379.6148051023483, -349.9349590539932, -170.65911477804184, -0.9760000463575125, -0.9760000463575125, 0.9760000463575125, 0.0, 0.0, 0.0, 0.0, 0.0, 1.7063889055224953E9, 0.0, 2024-01-27 15:55:05.522
43.0, -369.56195402145386, -385.11993783712387, -335.3343896269798, -216.1362982392311, -0.9760000463575125, -0.9760000463575125, 0.9760000463575125, 0.0, 0.0, 0.0, 0.0, 0.0, 1.7063889055361626E9, 0.0, 2024-01-27 15:55:05.536
43.0, -405.46499359607697, -378.41803711652756, -311.87773710489273, -275.017283141613, -0.9760000463575125, -0.9760000463575125, 0.9760000463575125, 0.0, 0.0, 0.0, 0.0, 0.0, 1.7063889055361626E9, 0.0, 2024-01-27 15:55:05.536
44.0, -287.9423773884773, -390.86442416906357, -355.2007381916046, -208.47698312997818, -0.9760000463575125, -0.9760000463575125, 0.9760000463575125, 0.0, 0.0, 0.0, 0.0, 0.0, 1.7063889055517955E9, 0.0, 2024-01-27 15:55:05.551
44.0, -326.95701372623444, -393.97602093219757, -358.07298135757446, -193.39770650863647, -0.9760000463575125, -0.9760000463575125, 0.9760000463575125, 0.0, 0.0, 0.0, 0.0, 0.0, 1.7063889055517955E9, 0.0, 2024-01-27 15:55:05.551
45.0, -433.469364464283, -384.64123064279556, -315.7073946595192, -276.2140511274338, -0.9760000463575125, -0.9760000463575125, 0.9760000463575125, 0.0, 0.0, 0.0, 0.0, 0.0, 1.7063889055524867E9, 0.0, 2024-01-27 15:55:05.552
45.0, -340.83952236175537, -397.80567848682404, -353.0465558171272, -246.53420507907867, -0.9760000463575125, -0.9760000463575125, 0.9760000463575125, 0.0, 0.0, 0.0, 0.0, 0.0, 1.7063889055524867E9, 0.0, 2024-01-27 15:55:05.552
46.0, -318.3402842283249, -416.47525906562805, -384.8805842399597, -197.4667176604271, -0.9760000463575125, -0.9760000463575125, 0.9760000463575125, 0.0, 0.0, 0.0, 0.0, 0.0, 1.706388905566077E9, 0.0, 2024-01-27 15:55:05.566
46.0, -429.6397069096565, -397.80567848682404, -338.44598639011383, -261.13477450609207, -0.9760000463575125, -0.9760000463575125, 0.9760000463575125, 0.0, 0.0, 0.0, 0.0, 0.0, 1.706388905566077E9, 0.0, 2024-01-27 15:55:05.566
47.0, -383.9231698513031, -383.4444626569748, -327.91442811489105, -265.682492852211, -0.9760000463575125, -0.9760000463575125, 0.9760000463575125, 0.0, 0.0, 0.0, 0.0, 0.0, 1.7063889055819173E9, 0.0, 2024-01-27 15:55:05.581
47.0, -284.352073431015, -399.4811536669731, -367.6471252441406, -182.3874410390854, -0.9760000463575125, -0.9760000463575125, 0.9760000463575125, 0.0, 0.0, 0.0, 0.0, 0.0, 1.7063889055819173E9, 0.0, 2024-01-27 15:55:05.581
48.0, -386.79541301727295, -397.0876176953316, -350.6530198454857, -220.20530939102173, -0.9760000463575125, -0.9760000463575125, 0.9760000463575125, 0.0, 0.0, 0.0, 0.0, 0.0, 1.7063889055824864E9, 0.0, 2024-01-27 15:55:05.582
48.0, -439.692557990551, -405.2256399989128, -330.54731768369675, -284.11271983385086, -0.9760000463575125, -0.9760000463575125, 0.9760000463575125, 0.0, 0.0, 0.0, 0.0, 0.0, 1.7063889055824864E9, 0.0, 2024-01-27 15:55:05.582
49.0, -330.3079640865326, -413.6030158996582, -369.801307618618, -216.37565183639526, -0.9760000463575125, -0.9760000463575125, 0.9760000463575125, 0.0, 0.0, 0.0, 0.0, 0.0, 1.7063889055962873E9, 0.0, 2024-01-27 15:55:05.596
49.0, -365.97165006399155, -413.36366230249405, -376.26385474205017, -203.6899111866951, -0.9760000463575125, -0.9760000463575125, 0.9760000463575125, 0.0, 0.0, 0.0, 0.0, 0.0, 1.7063889055962873E9, 0.0, 2024-01-27 15:55:05.596
50.0, -464.585332095623, -407.3798223733902, -330.3079640865326, -274.5385759472847, -0.9760000463575125, -0.9760000463575125, 0.9760000463575125, 0.0, 0.0, 0.0, 0.0, 0.0, 1.706388905611797E9, 0.0, 2024-01-27 15:55:05.611
50.0, -372.19484359025955, -417.6720270514488, -359.5091029405594, -248.4490338563919, -0.9760000463575125, -0.9760000463575125, 0.9760000463575125, 0.0, 0.0, 0.0, 0.0, 0.0, 1.706388905611797E9, 0.0, 2024-01-27 15:55:05.611
51.0, -338.44598639011383, -425.33134216070175, -393.01860654354095, -193.87641370296478, -0.9760000463575125, -0.9760000463575125, 0.9760000463575125, 0.0, 0.0, 0.0, 0.0, 0.0, 1.7063889056124933E9, 0.0, 2024-01-27 15:55:05.612
51.0, -457.64407777786255, -424.6132813692093, -356.3975061774254, -265.92184644937515, -0.9760000463575125, -0.9760000463575125, 0.9760000463575125, 0.0, 0.0, 0.0, 0.0, 0.0, 1.7063889056124933E9, 0.0, 2024-01-27 15:55:05.612
52.0, -425.33134216070175, -425.33134216070175, -350.1743126511574, -279.0862942934036, -0.9760000463575125, -0.9760000463575125, 0.9760000463575125, 0.0, 0.0, 0.0, 0.0, 0.0, 1.7063889056262057E9, 0.0, 2024-01-27 15:55:05.626
52.0, -329.8292568922043, -433.23001086711884, -392.06119215488434, -199.14219284057617, -0.9760000463575125, -0.9760000463575125, 0.9760000463575125, 0.0, 0.0, 0.0, 0.0, 0.0, 1.7063889056262057E9, 0.0, 2024-01-27 15:55:05.626
53.0, -427.246170938015, -435.6235468387604, -376.98191553354263, -243.18325471878052, -0.9760000463575125, -0.9760000463575125, 0.9760000463575125, 0.0, 0.0, 0.0, 0.0, 0.0, 1.7063889056417353E9, 0.0, 2024-01-27 15:55:05.641
53.0, -462.6705033183098, -426.28875654935837, -352.8072022199631, -301.82488602399826, -0.9760000463575125, -0.9760000463575125, 0.9760000463575125, 0.0, 0.0, 0.0, 0.0, 0.0, 1.7063889056417353E9, 0.0, 2024-01-27 15:55:05.641
54.0, -335.81309682130814, -426.5281101465225, -379.3754515051842, -215.6575910449028, -0.9760000463575125, -0.9760000463575125, 0.9760000463575125, 0.0, 0.0, 0.0, 0.0, 0.0, 1.706388905642468E9, 0.0, 2024-01-27 15:55:05.642
54.0, -364.7748820781708, -421.74103820323944, -377.2212691307068, -197.9454248547554, -0.9760000463575125, -0.9760000463575125, 0.9760000463575125, 0.0, 0.0, 0.0, 0.0, 0.0, 1.706388905642468E9, 0.0, 2024-01-27 15:55:05.642
55.0, -467.9362824559212, -409.5340047478676, -341.55758315324783, -278.128879904747, -0.9760000463575125, -0.9760000463575125, 0.9760000463575125, 0.0, 0.0, 0.0, 0.0, 0.0, 1.7063889056560605E9, 0.0, 2024-01-27 15:55:05.656
55.0, -377.46062272787094, -421.74103820323944, -364.5355284810066, -247.73097306489944, -0.9760000463575125, -0.9760000463575125, 0.9760000463575125, 0.0, 0.0, 0.0, 0.0, 0.0, 1.7063889056560605E9, 0.0, 2024-01-27 15:55:05.656
56.0, -345.3872407078743, -435.3841932415962, -395.65149611234665, -194.59447449445724, -0.9760000463575125, -0.9760000463575125, 0.9760000463575125, 0.0, 0.0, 0.0, 0.0, 0.0, 1.7063889056717896E9, 0.0, 2024-01-27 15:55:05.671
56.0, -463.38856410980225, -425.0919885635376, -356.3975061774254, -265.2037856578827, -0.9760000463575125, -0.9760000463575125, 0.9760000463575125, 0.0, 0.0, 0.0, 0.0, 0.0, 1.7063889056717896E9, 0.0, 2024-01-27 15:55:05.671
57.0, -429.1609997153282, -425.0919885635376, -359.9878101348877, -282.67659825086594, -0.9760000463575125, -0.9760000463575125, 0.9760000463575125, 0.0, 0.0, 0.0, 0.0, 0.0, 1.70638890567246E9, 0.0, 2024-01-27 15:55:05.672
57.0, -332.9408536553383, -432.9906572699547, -394.2153745293617, -195.3125352859497, -0.9760000463575125, -0.9760000463575125, 0.9760000463575125, 0.0, 0.0, 0.0, 0.0, 0.0, 1.70638890567246E9, 0.0, 2024-01-27 15:55:05.672
58.0, -430.59712129831314, -432.7513036727905, -370.04066121578217, -228.1039780974388, -0.9760000463575125, -0.9760000463575125, 0.9760000463575125, 0.0, 0.0, 0.0, 0.0, 0.0, 1.7063889056860979E9, 0.0, 2024-01-27 15:55:05.686
58.0, -470.808525621891, -430.59712129831314, -352.5678486227989, -300.86747163534164, -0.9760000463575125, -0.9760000463575125, 0.9760000463575125, 0.0, 0.0, 0.0, 0.0, 0.0, 1.7063889056860979E9, 0.0, 2024-01-27 15:55:05.686
59.0, -350.6530198454857, -434.66613245010376, -387.9921810030937, -226.90721011161804, -0.9760000463575125, -0.9760000463575125, 0.9760000463575125, 0.0, 0.0, 0.0, 0.0, 0.0, 1.706388905702159E9, 0.0, 2024-01-27 15:55:05.702
59.0, -391.58248496055603, -442.08609396219254, -390.6250705718994, -211.34922629594803, -0.9760000463575125, -0.9760000463575125, 0.9760000463575125, 0.0, 0.0, 0.0, 0.0, 0.0, 1.706388905702159E9, 0.0, 2024-01-27 15:55:05.702
60.0, -485.4090950489044, -424.6132813692093, -343.47241193056107, -286.9849629998207, -0.9760000463575125, -0.9760000463575125, 0.9920000471174717, 0.0, 0.0, 0.0, 0.0, 0.0, 1.7063889057168076E9, 0.0, 2024-01-27 15:55:05.716
60.0, -384.8805842399597, -433.469364464283, -367.8864788413048, -250.6032162308693, -0.9760000463575125, -0.9760000463575125, 0.9920000471174717, 0.0, 0.0, 0.0, 0.0, 0.0, 1.7063889057168076E9, 0.0, 2024-01-27 15:55:05.716
61.0, -363.57811409235, -446.8731659054756, -406.4224079847336, -200.81766802072525, -0.9760000463575125, -0.9920000471174717, 0.9920000471174717, 0.0, 0.0, 0.0, 0.0, 0.0, 1.7063889057174385E9, 0.0, 2024-01-27 15:55:05.717
61.0, -473.4414151906967, -431.3151820898056, -359.9878101348877, -267.8366752266884, -0.9760000463575125, -0.9920000471174717, 0.9920000471174717, 0.0, 0.0, 0.0, 0.0, 0.0, 1.7063889057174385E9, 0.0, 2024-01-27 15:55:05.717
62.0, -424.134574174881, -416.7146126627922, -345.14788711071014, -270.4695647954941, -0.9920000471174717, -0.9920000471174717, 0.9920000471174717, 0.0, 0.0, 0.0, 0.0, 0.0, 1.7063889057317672E9, 0.0, 2024-01-27 15:55:05.731
62.0, -337.0098648071289, -434.66613245010376, -388.470888197422, -195.55188888311386, -0.9920000471174717, -0.9920000471174717, 0.9920000471174717, 0.0, 0.0, 0.0, 0.0, 0.0, 1.7063889057317672E9, 0.0, 2024-01-27 15:55:05.731
63.0, -441.8467403650284, -438.0170828104019, -375.78514754772186, -242.94390112161636, -0.9920000471174717, -0.9920000471174717, 0.9920000471174717, 0.0, 0.0, 0.0, 0.0, 0.0, 1.7063889057324665E9, 0.0, 2024-01-27 15:55:05.732
63.0, -462.1917961239815, -418.3900878429413, -341.796936750412, -287.9423773884773, -0.9920000471174717, -0.9920000471174717, 0.9920000471174717, 0.0, 0.0, 0.0, 0.0, 0.0, 1.7063889057324665E9, 0.0, 2024-01-27 15:55:05.732
64.0, -340.6001687645912, -417.911380648613, -368.8438932299614, -211.82793349027634, -0.9920000471174717, -0.9920000471174717, 0.9920000471174717, 0.0, 0.0, 0.0, 0.0, 0.0, 1.706388905762692E9, 0.0, 2024-01-27 15:55:05.762
64.0, -378.41803711652756, -425.81004935503006, -381.2902802824974, -209.19504392147064, -0.9920000471174717, -0.9920000471174717, 0.9920000471174717, 0.0, 0.0, 0.0, 0.0, 0.0, 1.706388905762692E9, 0.0, 2024-01-27 15:55:05.762
65.0, -479.9039623141289, -419.10814863443375, -347.78077667951584, -291.2933277487755, -0.9920000471174717, -0.9920000471174717, 0.9920000471174717, 0.0, 0.0, 0.0, 0.0, 0.0, 1.7063889057631865E9, 0.0, 2024-01-27 15:55:05.763
65.0, -388.2315346002579, -423.6558669805527, -366.92906445264816, -249.16709464788437, -0.9920000471174717, -0.9920000471174717, 0.9920000471174717, 0.0, 0.0, 0.0, 0.0, 0.0, 1.7063889057631865E9, 0.0, 2024-01-27 15:55:05.763
66.0, -345.62659430503845, -425.5706957578659, -393.49731373786926, -195.3125352859497, -0.9920000471174717, -0.9920000471174717, 0.9920000471174717, 0.0, 0.0, 0.0, 0.0, 0.0, 1.7063889057640004E9, 0.0, 2024-01-27 15:55:05.764
66.0, -450.4634698629379, -417.43267345428467, -350.1743126511574, -253.47545939683914, -0.9920000471174717, -0.9920000471174717, 0.9920000471174717, 0.0, 0.0, 0.0, 0.0, 0.0, 1.7063889057640004E9, 0.0, 2024-01-27 15:55:05.764
67.0, -434.4267788529396, -421.26233100891113, -349.21689826250076, -276.6927583217621, -0.9920000471174717, -0.9920000471174717, 0.9920000471174717, 0.0, 0.0, 0.0, 0.0, 0.0, 1.7063889057761393E9, 0.0, 2024-01-27 15:55:05.776
67.0, -344.908533513546, -437.5383756160736, -392.7792529463768, -200.0996072292328, -0.9920000471174717, -0.9920000471174717, 0.9920000471174717, 0.0, 0.0, 0.0, 0.0, 0.0, 1.7063889057761393E9, 0.0, 2024-01-27 15:55:05.776
68.0, -436.34160763025284, -437.29902201890945, -382.9657554626465, -236.4813539981842, -0.9920000471174717, -0.9920000471174717, 0.9920000471174717, 0.0, 0.0, 0.0, 0.0, 0.0, 1.7063889057919686E9, 0.0, 2024-01-27 15:55:05.791
68.0, -470.56917202472687, -428.44293892383575, -349.69560545682907, -292.2507421374321, -0.9920000471174717, -0.9920000471174717, 0.9920000471174717, 0.0, 0.0, 0.0, 0.0, 0.0, 1.7063889057919686E9, 0.0, 2024-01-27 15:55:05.791
69.0, -357.59427416324615, -432.9906572699547, -387.9921810030937, -226.6678565144539, -0.9920000471174717, -0.9920000471174717, 0.9920000471174717, 0.0, 0.0, 0.0, 0.0, 0.0, 1.7063889057924523E9, 0.0, 2024-01-27 15:55:05.792
69.0, -400.91727524995804, -450.2241162657738, -399.4811536669731, -217.57241982221603, -0.9920000471174717, -0.9920000471174717, 0.9920000471174717, 0.0, 0.0, 0.0, 0.0, 0.0, 1.7063889057924523E9, 0.0, 2024-01-27 15:55:05.792
70.0, -503.1212612390518, -442.08609396219254, -354.96138459444046, -286.26690220832825, -0.9920000471174717, -0.9920000471174717, 1.008000047877431, 0.0, 0.0, 0.0, 0.0, 0.0, 1.7063889058224092E9, 0.0, 2024-01-27 15:55:05.822
70.0, -410.9701263308525, -445.67639791965485, -378.1786835193634, -257.7838241457939, -0.9920000471174717, -0.9920000471174717, 1.008000047877431, 0.0, 0.0, 0.0, 0.0, 0.0, 1.7063889058224092E9, 0.0, 2024-01-27 15:55:05.822
71.0, -374.5883795619011, -452.37829864025116, -410.9701263308525, -207.04086154699326, -0.9920000471174717, -1.008000047877431, 1.008000047877431, 0.0, 0.0, 0.0, 0.0, 0.0, 1.7063889058231726E9, 0.0, 2024-01-27 15:55:05.823
71.0, -482.53685188293457, -438.4957900047302, -369.08324682712555, -266.1612000465393, -0.9920000471174717, -1.008000047877431, 1.008000047877431, 0.0, 0.0, 0.0, 0.0, 0.0, 1.7063889058231726E9, 0.0, 2024-01-27 15:55:05.823
72.0, -444.4796299338341, -430.357767701149, -352.5678486227989, -277.88952630758286, -1.008000047877431, -1.008000047877431, 1.008000047877431, 0.0, 0.0, 0.0, 0.0, 0.0, 1.7063889058239255E9, 0.0, 2024-01-27 15:55:05.823
72.0, -353.2859094142914, -438.97449719905853, -397.80567848682404, -201.0570216178894, -1.008000047877431, -1.008000047877431, 1.008000047877431, 0.0, 0.0, 0.0, 0.0, 0.0, 1.7063889058239255E9, 0.0, 2024-01-27 15:55:05.823
73.0, -444.2402763366699, -442.08609396219254, -388.7102417945862, -238.6355363726616, -1.008000047877431, -1.008000047877431, 1.008000047877431, 0.0, 0.0, 0.0, 0.0, 0.0, 1.706388905836324E9, 0.0, 2024-01-27 15:55:05.836
73.0, -488.28133821487427, -440.88932597637177, -359.26974934339523, -293.686863720417, -1.008000047877431, -1.008000047877431, 1.008000047877431, 0.0, 0.0, 0.0, 0.0, 0.0, 1.706388905836324E9, 0.0, 2024-01-27 15:55:05.836
74.0, -367.40777164697647, -437.0596684217453, -379.3754515051842, -223.55625975131989, -1.008000047877431, -1.008000047877431, 1.008000047877431, 0.0, 0.0, 0.0, 0.0, 0.0, 1.7063889058520553E9, 0.0, 2024-01-27 15:55:05.852
74.0, -391.8218385577202, -435.86290043592453, -382.4870482683182, -203.92926478385925, -1.008000047877431, -1.008000047877431, 1.008000047877431, 0.0, 0.0, 0.0, 0.0, 0.0, 1.7063889058520553E9, 0.0, 2024-01-27 15:55:05.852
75.0, -486.6058630347252, -422.4590989947319, -346.3446550965309, -276.93211191892624, -1.008000047877431, -1.008000047877431, 1.008000047877431, 0.0, 0.0, 0.0, 0.0, 0.0, 1.706388905852548E9, 0.0, 2024-01-27 15:55:05.852
75.0, -390.86442416906357, -420.7836238145828, -360.70587092638016, -243.18325471878052, -1.008000047877431, -1.008000047877431, 1.008000047877431, 0.0, 0.0, 0.0, 0.0, 0.0, 1.706388905852548E9, 0.0, 2024-01-27 15:55:05.852
76.0, -362.1419925093651, -437.5383756160736, -391.1037777662277, -190.28610974550247, -1.008000047877431, -1.008000047877431, 1.008000047877431, 0.0, 0.0, 0.0, 0.0, 0.0, 1.7063889058661976E9, 0.0, 2024-01-27 15:55:05.866
76.0, -458.362138569355, -419.10814863443375, -343.47241193056107, -244.8587298989296, -1.008000047877431, -1.008000047877431, 1.008000047877431, 0.0, 0.0, 0.0, 0.0, 0.0, 1.7063889058661976E9, 0.0, 2024-01-27 15:55:05.866
77.0, -436.580961227417, -417.43267345428467, -343.2330583333969, -264.7250784635544, -1.008000047877431, -1.008000047877431, 1.008000047877431, 0.0, 0.0, 0.0, 0.0, 0.0, 1.7063889058817048E9, 0.0, 2024-01-27 15:55:05.881
77.0, -344.66917991638184, -430.8364748954773, -381.05092668533325, -190.28610974550247, -1.008000047877431, -1.008000047877431, 1.008000047877431, 0.0, 0.0, 0.0, 0.0, 0.0, 1.7063889058817048E9, 0.0, 2024-01-27 15:55:05.881
78.0, -440.6499723792076, -433.9480716586113, -370.5193684101105, -225.47108852863312, -1.008000047877431, -1.008000047877431, 1.008000047877431, 0.0, 0.0, 0.0, 0.0, 0.0, 1.7063889058824162E9, 0.0, 2024-01-27 15:55:05.882
78.0, -484.69103425741196, -432.7513036727905, -350.41366624832153, -290.8146205544472, -1.008000047877431, -1.008000047877431, 1.008000047877431, 0.0, 0.0, 0.0, 0.0, 0.0, 1.7063889058824162E9, 0.0, 2024-01-27 15:55:05.882
79.0, -386.0773522257805, -454.2931274175644, -406.1830543875694, -239.35359716415405, -1.008000047877431, -1.008000047877431, 1.008000047877431, 0.0, 0.0, 0.0, 0.0, 0.0, 1.7063889058965013E9, 0.0, 2024-01-27 15:55:05.896
79.0, -397.0876176953316, -444.2402763366699, -398.5237392783165, -217.33306622505188, -1.008000047877431, -1.008000047877431, 1.008000047877431, 0.0, 0.0, 0.0, 0.0, 0.0, 1.7063889058965013E9, 0.0, 2024-01-27 15:55:05.896
80.0, -510.30186915397644, -449.027348279953, -365.49294286966324, -295.3623389005661, -1.008000047877431, -1.008000047877431, 1.008000047877431, 0.0, 0.0, 0.0, 0.0, 0.0, 1.7063889059119952E9, 0.0, 2024-01-27 15:55:05.911
80.0, -421.5016846060753, -447.11251950263977, -378.41803711652756, -255.86899536848068, -1.008000047877431, -1.008000047877431, 1.008000047877431, 0.0, 0.0, 0.0, 0.0, 0.0, 1.7063889059119952E9, 0.0, 2024-01-27 15:55:05.911
81.0, -388.7102417945862, -459.79826015233994, -410.0127119421959, -205.12603276968002, -1.008000047877431, -1.008000047877431, 1.008000047877431, 0.0, 0.0, 0.0, 0.0, 0.0, 1.706388905912512E9, 0.0, 2024-01-27 15:55:05.912
81.0, -493.06841015815735, -448.5486410856247, -373.3916115760803, -264.7250784635544, -1.008000047877431, -1.008000047877431, 1.008000047877431, 0.0, 0.0, 0.0, 0.0, 0.0, 1.706388905912512E9, 0.0, 2024-01-27 15:55:05.912
82.0, -480.8613767027855, -463.38856410980225, -376.26385474205017, -289.85720616579056, -1.008000047877431, -1.008000047877431, 1.008000047877431, 0.0, 0.0, 0.0, 0.0, 0.0, 1.70638890592621E9, 0.0, 2024-01-27 15:55:05.926
82.0, -372.19484359025955, -457.16537058353424, -410.4914191365242, -207.99827593564987, -1.008000047877431, -1.008000047877431, 1.008000047877431, 0.0, 0.0, 0.0, 0.0, 0.0, 1.70638890592621E9, 0.0, 2024-01-27 15:55:05.926
83.0, -468.65434324741364, -470.808525621891, -400.91727524995804, -249.40644824504852, -1.008000047877431, -1.008000047877431, 1.008000047877431, 0.0, 0.0, 0.0, 0.0, 0.0, 1.7063889059421127E9, 0.0, 2024-01-27 15:55:05.942
83.0, -500.4883716702461, -451.89959144592285, -369.08324682712555, -298.4739356637001, -1.008000047877431, -1.008000047877431, 1.008000047877431, 0.0, 0.0, 0.0, 0.0, 0.0, 1.7063889059421127E9, 0.0, 2024-01-27 15:55:05.942
84.0, -394.9334353208542, -467.696928858757, -404.50757920742035, -237.67812198400497, -1.008000047877431, -1.008000047877431, 1.008000047877431, 0.0, 0.0, 0.0, 0.0, 0.0, 1.7063889059570684E9, 0.0, 2024-01-27 15:55:05.957
84.0, -420.54427021741867, -466.02145367860794, -416.47525906562805, -227.1465637087822, -1.008000047877431, -1.008000047877431, 1.008000047877431, 0.0, 0.0, 0.0, 0.0, 0.0, 1.7063889059570684E9, 0.0, 2024-01-27 15:55:05.957
85.0, -520.1153666377068, -463.6279177069664, -377.46062272787094, -305.8938971757889, -1.008000047877431, -1.008000047877431, 1.008000047877431, 0.0, 0.0, 0.0, 0.0, 0.0, 1.7063889059574783E9, 0.0, 2024-01-27 15:55:05.957
85.0, -445.19769072532654, -473.68076878786087, -398.0450320839882, -271.4269791841507, -1.008000047877431, -1.008000047877431, 1.008000047877431, 0.0, 0.0, 0.0, 0.0, 0.0, 1.7063889059574783E9, 0.0, 2024-01-27 15:55:05.957
86.0, -399.0024464726448, -475.35624396800995, -421.26233100891113, -213.50340867042542, -1.008000047877431, -1.008000047877431, 1.008000047877431, 0.0, 0.0, 0.0, 0.0, 0.0, 1.7063889059719107E9, 0.0, 2024-01-27 15:55:05.971
86.0, -496.8980677127838, -457.4047241806984, -376.98191553354263, -269.51215040683746, -1.008000047877431, -1.008000047877431, 1.008000047877431, 0.0, 0.0, 0.0, 0.0, 0.0, 1.7063889059719107E9, 0.0, 2024-01-27 15:55:05.971
87.0, -463.86727130413055, -452.6176522374153, -370.9980756044388, -281.240476667881, -1.008000047877431, -1.008000047877431, 1.008000047877431, 0.0, 0.0, 0.0, 0.0, 0.0, 1.7063889059725192E9, 0.0, 2024-01-27 15:55:05.972
87.0, -359.74845653772354, -451.42088425159454, -403.0714576244354, -199.14219284057617, -1.008000047877431, -1.008000047877431, 1.008000047877431, 0.0, 0.0, 0.0, 0.0, 0.0, 1.7063889059725192E9, 0.0, 2024-01-27 15:55:05.972
88.0, -446.63381230831146, -448.0699338912964, -378.6573907136917, -227.6252709031105, -1.008000047877431, -1.008000047877431, 1.008000047877431, 0.0, 0.0, 0.0, 0.0, 0.0, 1.7063889059860451E9, 0.0, 2024-01-27 15:55:05.986
88.0, -490.43552058935165, -444.00092273950577, -355.2007381916046, -292.49009573459625, -1.008000047877431, -1.008000047877431, 1.008000047877431, 0.0, 0.0, 0.0, 0.0, 0.0, 1.7063889059860451E9, 0.0, 2024-01-27 15:55:05.986
89.0, -383.4444626569748, -453.57506662607193, -391.3431313633919, -226.6678565144539, -1.008000047877431, -1.008000047877431, 1.008000047877431, 0.0, 0.0, 0.0, 0.0, 0.0, 1.7063889060019152E9, 0.0, 2024-01-27 15:55:06.001
89.0, -420.06556302309036, -463.6279177069664, -407.61917597055435, -220.20530939102173, -1.008000047877431, -1.008000047877431, 1.008000047877431, 0.0, 0.0, 0.0, 0.0, 0.0, 1.7063889060019152E9, 0.0, 2024-01-27 15:55:06.001
90.0, -515.807001888752, -451.89959144592285, -362.38134610652924, -289.85720616579056, -1.008000047877431, -1.008000047877431, 1.008000047877431, 0.0, 0.0, 0.0, 0.0, 0.0, 1.706388906002632E9, 0.0, 2024-01-27 15:55:06.002
90.0, -420.06556302309036, -449.74540907144547, -385.5986450314522, -260.8954209089279, -1.008000047877431, -1.008000047877431, 1.008000047877431, 0.0, 0.0, 0.0, 0.0, 0.0, 1.706388906002632E9, 0.0, 2024-01-27 15:55:06.002
91.0, -376.26385474205017, -449.74540907144547, -404.2682256102562, -200.81766802072525, -1.008000047877431, -1.008000047877431, 1.008000047877431, 0.0, 0.0, 0.0, 0.0, 0.0, 1.7063889060161164E9, 0.0, 2024-01-27 15:55:06.016
91.0, -488.5206918120384, -441.8467403650284, -368.3651860356331, -261.6134817004204, -1.008000047877431, -1.008000047877431, 1.008000047877431, 0.0, 0.0, 0.0, 0.0, 0.0, 1.7063889060161164E9, 0.0, 2024-01-27 15:55:06.016
92.0, -449.5060554742813, -436.34160763025284, -362.86005330085754, -277.41081911325455, -1.008000047877431, -1.008000047877431, 1.008000047877431, 0.0, 0.0, 0.0, 0.0, 0.0, 1.7063889060317178E9, 0.0, 2024-01-27 15:55:06.031
92.0, -361.18457812070847, -455.7292490005493, -405.7043471932411, -204.64732557535172, -1.008000047877431, -1.008000047877431, 1.008000047877431, 0.0, 0.0, 0.0, 0.0, 0.0, 1.7063889060317178E9, 0.0, 2024-01-27 15:55:06.031
93.0, -456.2079561948776, -455.01118820905685, -391.1037777662277, -235.28458601236343, -1.008000047877431, -1.008000047877431, 1.008000047877431, 0.0, 0.0, 0.0, 0.0, 0.0, 1.7063889060324552E9, 0.0, 2024-01-27 15:55:06.032
93.0, -486.84521663188934, -441.8467403650284, -357.59427416324615, -293.9262173175812, -1.008000047877431, -1.008000047877431, 1.008000047877431, 0.0, 0.0, 0.0, 0.0, 0.0, 1.7063889060324552E9, 0.0, 2024-01-27 15:55:06.032
94.0, -386.5560594201088, -458.362138569355, -398.76309287548065, -227.1465637087822, -1.008000047877431, -1.008000047877431, 1.008000047877431, 0.0, 0.0, 0.0, 0.0, 0.0, 1.7063889060628808E9, 0.0, 2024-01-27 15:55:06.062
94.0, -416.2359054684639, -455.7292490005493, -404.02887201309204, -214.22146946191788, -1.008000047877431, -1.008000047877431, 1.008000047877431, 0.0, 0.0, 0.0, 0.0, 0.0, 1.7063889060628808E9, 0.0, 2024-01-27 15:55:06.062
95.0, -517.9611842632294, -451.89959144592285, -363.33876049518585, -295.60169249773026, -1.008000047877431, -1.008000047877431, 1.008000047877431, 0.0, 0.0, 0.0, 0.0, 0.0, 1.7063889060633228E9, 0.0, 2024-01-27 15:55:06.063
95.0, -419.58685582876205, -450.2241162657738, -383.20510905981064, -259.69865292310715, -1.008000047877431, -1.008000047877431, 1.008000047877431, 0.0, 0.0, 0.0, 0.0, 0.0, 1.7063889060633228E9, 0.0, 2024-01-27 15:55:06.063
96.0, -387.27412021160126, -462.90985691547394, -415.7571982741356, -205.60473996400833, -1.008000047877431, -1.008000047877431, 1.008000047877431, 0.0, 0.0, 0.0, 0.0, 0.0, 1.7063889060639503E9, 0.0, 2024-01-27 15:55:06.063
96.0, -488.0419846177101, -445.67639791965485, -366.45035725831985, -258.02317774295807, -1.008000047877431, -1.008000047877431, 1.008000047877431, 0.0, 0.0, 0.0, 0.0, 0.0, 1.7063889060639503E9, 0.0, 2024-01-27 15:55:06.063
97.0, -463.1492105126381, -449.027348279953, -370.9980756044388, -283.15530544519424, -1.008000047877431, -1.008000047877431, 1.008000047877431, 0.0, 0.0, 0.0, 0.0, 0.0, 1.7063889060762205E9, 0.0, 2024-01-27 15:55:06.076
97.0, -382.00834107398987, -468.65434324741364, -419.10814863443375, -215.41823744773865, -1.008000047877431, -1.008000047877431, 1.008000047877431, 0.0, 0.0, 0.0, 0.0, 0.0, 1.7063889060762205E9, 0.0, 2024-01-27 15:55:06.076
98.0, -472.72335439920425, -469.8511112332344, -406.66176158189774, -252.51804500818253, -1.008000047877431, -1.008000047877431, 1.008000047877431, 0.0, 0.0, 0.0, 0.0, 0.0, 1.7063889061076665E9, 0.0, 2024-01-27 15:55:06.107
98.0, -499.0522500872612, -447.3518730998039, -364.7748820781708, -298.9526428580284, -1.008000047877431, -1.008000047877431, 1.008000047877431, 0.0, 0.0, 0.0, 0.0, 0.0, 1.7063889061076665E9, 0.0, 2024-01-27 15:55:06.107
0.0, -414.0817230939865, -455.7292490005493, -400.1992144584656, -208.9556903243065, -1.008000047877431, -1.008000047877431, 1.008000047877431, 0.0, 0.0, 0.0, 0.0, 0.0, 1.706388906108122E9, 0.0, 2024-01-27 15:55:06.108
0.0, -513.4134659171104, -448.0699338912964, -365.2535892724991, -293.9262173175812, -1.008000047877431, -1.008000047877431, 1.008000047877431, 0.0, 0.0, 0.0, 0.0, 0.0, 1.706388906108122E9, 0.0, 2024-01-27 15:55:06.108
1.0, -421.5016846060753, -449.9847626686096, -391.8218385577202, -269.03344321250916, -1.008000047877431, -0.04800000227987766, 1.008000047877431, 0.0, 0.0, 0.0, 0.0, 0.0, 1.7063889061089551E9, 0.0, 2024-01-27 15:55:06.108
1.0, -385.83799862861633, -460.9950281381607, -414.799783885479, -207.04086154699326, -1.008000047877431, -0.04800000227987766, 1.008000047877431, 0.0, 0.0, 0.0, 0.0, 0.0, 1.7063889061089551E9, 0.0, 2024-01-27 15:55:06.108
2.0, -502.1638468503952, -456.2079561948776, -373.87031877040863, -268.3153824210167, 0.09600000455975533, -0.04800000227987766, 1.008000047877431, 0.0, 0.0, 0.0, 0.0, 0.0, 1.7063889061210527E9, 0.0, 2024-01-27 15:55:06.121
2.0, -454.2931274175644, -440.41061878204346, -364.5355284810066, -280.2830622792244, 0.09600000455975533, -0.04800000227987766, 1.008000047877431, 0.0, 0.0, 0.0, 0.0, 0.0, 1.7063889061210527E9, 0.0, 2024-01-27 15:55:06.121
3.0, -358.07298135757446, -450.4634698629379, -401.39598244428635, -202.97185039520264, 0.09600000455975533, -0.04800000227987766, 1.008000047877431, 0.0, 0.0, 0.0, 0.0, 0.0, 1.706388906136757E9, 0.0, 2024-01-27 15:55:06.136
3.0, -454.05377382040024, -453.57506662607193, -388.7102417945862, -240.07165795564651, 0.09600000455975533, -0.04800000227987766, 1.008000047877431, 0.0, 0.0, 0.0, 0.0, 0.0, 1.706388906136757E9, 0.0, 2024-01-27 15:55:06.136
4.0, -492.8290565609932, -441.3680331707001, -356.63685977458954, -291.53268134593964, 0.09600000455975533, -0.04800000227987766, 1.008000047877431, 0.0, 0.0, 0.0, 0.0, 0.0, 1.7063889061374967E9, 0.0, 2024-01-27 15:55:06.137
4.0, -371.71613639593124, -444.4796299338341, -390.6250705718994, -227.6252709031105, 0.09600000455975533, -0.04800000227987766, 1.008000047877431, 0.0, 0.0, 0.0, 0.0, 0.0, 1.7063889061374967E9, 0.0, 2024-01-27 15:55:06.137
5.0, -398.5237392783165, -444.71898353099823, -393.97602093219757, -207.75892233848572, 0.09600000455975533, -0.04800000227987766, 1.008000047877431, 0.0, 0.0, 0.0, 0.0, 0.0, 1.7063889061511998E9, 0.0, 2024-01-27 15:55:06.151
5.0, -499.0522500872612, -438.0170828104019, -359.74845653772354, -288.6604381799698, 0.09600000455975533, -0.04800000227987766, 1.008000047877431, 0.0, 0.0, 0.0, 0.0, 0.0, 1.7063889061511998E9, 0.0, 2024-01-27 15:55:06.151
6.0, -422.69845259189606, -458.362138569355, -385.5986450314522, -258.9805921316147, 0.09600000455975533, -0.04800000227987766, 1.008000047877431, 0.0, 0.0, 0.0, 0.0, 0.0, 1.7063889061668348E9, 0.0, 2024-01-27 15:55:06.166
6.0, -403.0714576244354, -476.31365835666656, -425.5706957578659, -218.7691878080368, 0.09600000455975533, -0.04800000227987766, 1.008000047877431, 0.0, 0.0, 0.0, 0.0, 0.0, 1.7063889061668348E9, 0.0, 2024-01-27 15:55:06.166
7.0, -494.5045317411423, -445.915751516819, -371.4767827987671, -272.8631007671356, 0.09600000455975533, -0.04800000227987766, 1.008000047877431, 0.0, 0.0, 0.0, 0.0, 0.0, 1.706388906167626E9, 0.0, 2024-01-27 15:55:06.167
7.0, -444.9583371281624, -430.59712129831314, -354.96138459444046, -273.5811615586281, 0.09600000455975533, -0.04800000227987766, 1.008000047877431, 0.0, 0.0, 0.0, 0.0, 0.0, 1.706388906167626E9, 0.0, 2024-01-27 15:55:06.167
8.0, -358.3123349547386, -448.78799468278885, -407.3798223733902, -206.8015079498291, 0.09600000455975533, -0.04800000227987766, 1.008000047877431, 0.0, 0.0, 0.0, 0.0, 0.0, 1.706388906181158E9, 0.0, 2024-01-27 15:55:06.181
8.0, -428.92164611816406, -429.8790605068207, -372.19484359025955, -226.42850291728973, 0.09600000455975533, -0.04800000227987766, 1.008000047877431, 0.0, 0.0, 0.0, 0.0, 0.0, 1.706388906181158E9, 0.0, 2024-01-27 15:55:06.181
9.0, -481.8187910914421, -437.77772921323776, -353.2859094142914, -294.4049245119095, 0.09600000455975533, -0.04800000227987766, 1.008000047877431, 0.0, 0.0, 0.0, 0.0, 0.0, 1.7063889061971197E9, 0.0, 2024-01-27 15:55:06.197
9.0, -361.6632853150368, -435.6235468387604, -386.5560594201088, -219.96595579385757, 0.09600000455975533, -0.04800000227987766, 1.008000047877431, 0.0, 0.0, 0.0, 0.0, 0.0, 1.7063889061971197E9, 0.0, 2024-01-27 15:55:06.197
10.0, -402.35339683294296, -442.804154753685, -389.90700978040695, -206.8015079498291, 0.09600000455975533, -0.04800000227987766, 1.008000047877431, 0.0, 0.0, 0.0, 0.0, 0.0, 1.7063889061975453E9, 0.0, 2024-01-27 15:55:06.197
10.0, -506.2328580021858, -435.86290043592453, -359.5091029405594, -296.55910688638687, 0.09600000455975533, -0.04800000227987766, 1.008000047877431, 0.0, 0.0, 0.0, 0.0, 0.0, 1.7063889061975453E9, 0.0, 2024-01-27 15:55:06.197
11.0, -408.8159439563751, -444.2402763366699, -376.98191553354263, -262.0921888947487, 0.09600000455975533, -0.04800000227987766, 1.008000047877431, 0.0, 0.0, 0.0, 0.0, 0.0, 1.7063889062110937E9, 0.0, 2024-01-27 15:55:06.211
11.0, -372.4341971874237, -451.1815306544304, -405.2256399989128, -205.84409356117249, 0.09600000455975533, -0.04800000227987766, 1.008000047877431, 0.0, 0.0, 0.0, 0.0, 0.0, 1.7063889062110937E9, 0.0, 2024-01-27 15:55:06.211
12.0, -478.46784073114395, -438.97449719905853, -369.3226004242897, -264.2463712692261, 0.09600000455975533, -0.04800000227987766, 1.008000047877431, 0.0, 0.0, 0.0, 0.0, 0.0, 1.7063889062436826E9, 0.0, 2024-01-27 15:55:06.243
12.0, -434.18742525577545, -420.06556302309036, -349.9349590539932, -272.62374716997147, 0.09600000455975533, -0.04800000227987766, 1.008000047877431, 0.0, 0.0, 0.0, 0.0, 0.0, 1.7063889062436826E9, 0.0, 2024-01-27 15:55:06.243
13.0, -342.2756439447403, -436.580961227417, -392.7792529463768, -193.63706010580063, 0.09600000455975533, -0.04800000227987766, 1.008000047877431, 0.0, 0.0, 0.0, 0.0, 0.0, 1.706388906244307E9, 0.0, 2024-01-27 15:55:06.244
13.0, -441.8467403650284, -438.0170828104019, -380.3328658938408, -236.0026468038559, 0.09600000455975533, -0.04800000227987766, 1.008000047877431, 0.0, 0.0, 0.0, 0.0, 0.0, 1.706388906244307E9, 0.0, 2024-01-27 15:55:06.244
14.0, -477.51042634248734, -428.2035853266716, -352.32849502563477, -293.9262173175812, 0.09600000455975533, -0.04800000227987766, 1.008000047877431, 0.0, 0.0, 0.0, 0.0, 0.0, 1.7063889062451105E9, 0.0, 2024-01-27 15:55:06.245
14.0, -364.29617488384247, -438.4957900047302, -392.53989934921265, -224.9923813343048, 0.09600000455975533, -0.04800000227987766, 1.008000047877431, 0.0, 0.0, 0.0, 0.0, 0.0, 1.7063889062451105E9, 0.0, 2024-01-27 15:55:06.245
15.0, -396.60891050100327, -444.4796299338341, -397.80567848682404, -211.34922629594803, 0.09600000455975533, -0.04800000227987766, 1.008000047877431, 0.0, 0.0, 0.0, 0.0, 0.0, 1.706388906258145E9, 0.0, 2024-01-27 15:55:06.258
15.0, -487.80263102054596, -427.246170938015, -342.2756439447403, -278.36823350191116, 0.09600000455975533, -0.04800000227987766, 1.008000047877431, 0.0, 0.0, 0.0, 0.0, 0.0, 1.706388906258145E9, 0.0, 2024-01-27 15:55:06.258
16.0, -389.6676561832428, -427.48552453517914, -370.9980756044388, -252.75739860534668, 0.09600000455975533, -0.04800000227987766, 1.008000047877431, 0.0, 0.0, 0.0, 0.0, 0.0, 1.7063889062719092E9, 0.0, 2024-01-27 15:55:06.271
16.0, -366.92906445264816, -445.915751516819, -395.65149611234665, -198.18477845191956, 0.09600000455975533, -0.04800000227987766, 1.008000047877431, 0.0, 0.0, 0.0, 0.0, 0.0, 1.7063889062719092E9, 0.0, 2024-01-27 15:55:06.271
17.0, -480.62202310562134, -436.1022540330887, -363.81746768951416, -256.58705615997314, 0.09600000455975533, -0.04800000227987766, 1.008000047877431, 0.0, 0.0, 0.0, 0.0, 0.0, 1.7063889062724893E9, 0.0, 2024-01-27 15:55:06.272
17.0, -436.34160763025284, -421.5016846060753, -352.0891414284706, -268.07602882385254, 0.09600000455975533, -0.04800000227987766, 1.008000047877431, 0.0, 0.0, 0.0, 0.0, 0.0, 1.7063889062724893E9, 0.0, 2024-01-27 15:55:06.272
18.0, -346.58400869369507, -438.0170828104019, -397.80567848682404, -200.5783144235611, 0.09600000455975533, -0.04800000227987766, 1.008000047877431, 0.0, 0.0, 0.0, 0.0, 0.0, 1.70638890628719E9, 0.0, 2024-01-27 15:55:06.287
18.0, -432.2725964784622, -431.3151820898056, -376.024501144886, -228.34333169460297, 0.09600000455975533, -0.04800000227987766, 1.008000047877431, 0.0, 0.0, 0.0, 0.0, 0.0, 1.70638890628719E9, 0.0, 2024-01-27 15:55:06.287
19.0, -472.72335439920425, -428.44293892383575, -346.10530149936676, -280.7617694735527, 0.09600000455975533, -0.04800000227987766, 1.008000047877431, 0.0, 0.0, 0.0, 0.0, 0.0, 1.7063889063017876E9, 0.0, 2024-01-27 15:55:06.301
19.0, -361.4239317178726, -441.1286795735359, -378.1786835193634, -211.82793349027634, 0.09600000455975533, -0.04800000227987766, 1.008000047877431, 0.0, 0.0, 0.0, 0.0, 0.0, 1.7063889063017876E9, 0.0, 2024-01-27 15:55:06.301
20.0, -408.3372367620468, -449.5060554742813, -392.06119215488434, -208.71633672714233, 0.09600000455975533, -0.04800000227987766, 0.9920000471174717, 0.0, 0.0, 0.0, 0.0, 0.0, 1.7063889063024578E9, 0.0, 2024-01-27 15:55:06.302
20.0, -502.1638468503952, -435.3841932415962, -352.8072022199631, -288.89979177713394, 0.09600000455975533, -0.04800000227987766, 0.9920000471174717, 0.0, 0.0, 0.0, 0.0, 0.0, 1.7063889063024578E9, 0.0, 2024-01-27 15:55:06.302
21.0, -403.55016481876373, -434.18742525577545, -376.26385474205017, -250.12450903654099, 0.09600000455975533, -0.03200000151991844, 0.9920000471174717, 0.0, 0.0, 0.0, 0.0, 0.0, 1.7063889063168068E9, 0.0, 2024-01-27 15:55:06.316
21.0, -373.87031877040863, -442.08609396219254, -405.46499359607697, -201.29637521505356, 0.09600000455975533, -0.03200000151991844, 0.9920000471174717, 0.0, 0.0, 0.0, 0.0, 0.0, 1.7063889063168068E9, 0.0, 2024-01-27 15:55:06.316
22.0, -481.57943749427795, -434.18742525577545, -362.86005330085754, -266.1612000465393, 0.09600000455975533, -0.03200000151991844, 0.9920000471174717, 0.0, 0.0, 0.0, 0.0, 0.0, 1.7063889063174267E9, 0.0, 2024-01-27 15:55:06.317
22.0, -443.7615691423416, -433.9480716586113, -354.243323802948, -274.29922235012054, 0.09600000455975533, -0.03200000151991844, 0.9920000471174717, 0.0, 0.0, 0.0, 0.0, 0.0, 1.7063889063174267E9, 0.0, 2024-01-27 15:55:06.317
23.0, -342.51499754190445, -436.82031482458115, -389.6676561832428, -188.84998816251755, 0.09600000455975533, -0.03200000151991844, 0.9920000471174717, 0.0, 0.0, 0.0, 0.0, 0.0, 1.7063889063313653E9, 0.0, 2024-01-27 15:55:06.331
23.0, -434.66613245010376, -422.4590989947319, -365.97165006399155, -219.48724859952927, 0.09600000455975533, -0.03200000151991844, 0.9920000471174717, 0.0, 0.0, 0.0, 0.0, 0.0, 1.7063889063313653E9, 0.0, 2024-01-27 15:55:06.331
24.0, -468.4149896502495, -418.15073424577713, -331.02602487802505, -269.2727968096733, 0.09600000455975533, -0.03200000151991844, 0.9920000471174717, 0.0, 0.0, 0.0, 0.0, 0.0, 1.7063889063475492E9, 0.0, 2024-01-27 15:55:06.347
24.0, -354.96138459444046, -427.96423172950745, -372.4341971874237, -208.23762953281403, 0.09600000455975533, -0.03200000151991844, 0.9920000471174717, 0.0, 0.0, 0.0, 0.0, 0.0, 1.7063889063475492E9, 0.0, 2024-01-27 15:55:06.347
25.0, -396.8482640981674, -436.580961227417, -383.68381625413895, -202.73249679803848, 0.09600000455975533, -0.03200000151991844, 0.9920000471174717, 0.0, 0.0, 0.0, 0.0, 0.0, 1.7063889063637524E9, 0.0, 2024-01-27 15:55:06.363
25.0, -497.13742130994797, -431.55453568696976, -350.1743126511574, -286.74560940265656, 0.09600000455975533, -0.03200000151991844, 0.9920000471174717, 0.0, 0.0, 0.0, 0.0, 0.0, 1.7063889063637524E9, 0.0, 2024-01-27 15:55:06.363
26.0, -396.13020330667496, -438.97449719905853, -370.2800148129463, -251.79998421669006, 0.09600000455975533, -0.03200000151991844, 0.9920000471174717, 0.0, 0.0, 0.0, 0.0, 0.0, 1.7063889063642943E9, 0.0, 2024-01-27 15:55:06.364
26.0, -373.87031877040863, -448.5486410856247, -399.4811536669731, -198.4241320490837, 0.09600000455975533, -0.03200000151991844, 0.9920000471174717, 0.0, 0.0, 0.0, 0.0, 0.0, 1.7063889063642943E9, 0.0, 2024-01-27 15:55:06.364
27.0, -494.02582454681396, -442.3254475593567, -366.2110036611557, -269.2727968096733, 0.09600000455975533, -0.03200000151991844, 0.9920000471174717, 0.0, 0.0, 0.0, 0.0, 0.0, 1.7063889063767085E9, 0.0, 2024-01-27 15:55:06.376
27.0, -455.96860259771347, -440.6499723792076, -366.45035725831985, -276.93211191892624, 0.09600000455975533, -0.03200000151991844, 0.9920000471174717, 0.0, 0.0, 0.0, 0.0, 0.0, 1.7063889063767085E9, 0.0, 2024-01-27 15:55:06.376
28.0, -354.96138459444046, -449.5060554742813, -399.24180006980896, -198.66348564624786, 0.09600000455975533, -0.03200000151991844, 0.9920000471174717, 0.0, 0.0, 0.0, 0.0, 0.0, 1.7063889063773975E9, 0.0, 2024-01-27 15:55:06.377
28.0, -451.1815306544304, -448.0699338912964, -371.9554899930954, -233.13040363788605, 0.09600000455975533, -0.03200000151991844, 0.9920000471174717, 0.0, 0.0, 0.0, 0.0, 0.0, 1.7063889063773975E9, 0.0, 2024-01-27 15:55:06.377
29.0, -480.8613767027855, -434.4267788529396, -351.37108063697815, -291.0539741516113, 0.09600000455975533, -0.03200000151991844, 0.9920000471174717, 0.0, 0.0, 0.0, 0.0, 0.0, 1.7063889063910153E9, 0.0, 2024-01-27 15:55:06.391
29.0, -357.59427416324615, -435.6235468387604, -378.89674431085587, -209.67375111579895, 0.09600000455975533, -0.03200000151991844, 0.9920000471174717, 0.0, 0.0, 0.0, 0.0, 0.0, 1.7063889063910153E9, 0.0, 2024-01-27 15:55:06.391
30.0, -393.97602093219757, -434.9054860472679, -380.3328658938408, -195.07318168878555, 0.09600000455975533, -0.03200000151991844, 1.008000047877431, 0.0, 0.0, 0.0, 0.0, 0.0, 1.706388906406842E9, 0.0, 2024-01-27 15:55:06.406
30.0, -495.70129972696304, -427.96423172950745, -346.58400869369507, -275.4959903359413, 0.09600000455975533, -0.03200000151991844, 1.008000047877431, 0.0, 0.0, 0.0, 0.0, 0.0, 1.706388906406842E9, 0.0, 2024-01-27 15:55:06.406
31.0, -391.3431313633919, -427.7248781323433, -362.1419925093651, -235.04523241519928, 0.09600000455975533, -0.04800000227987766, 1.008000047877431, 0.0, 0.0, 0.0, 0.0, 0.0, 1.7063889064074185E9, 0.0, 2024-01-27 15:55:06.407
31.0, -367.8864788413048, -448.30928748846054, -394.9334353208542, -185.25968420505524, 0.09600000455975533, -0.04800000227987766, 1.008000047877431, 0.0, 0.0, 0.0, 0.0, 0.0, 1.7063889064074185E9, 0.0, 2024-01-27 15:55:06.407
32.0, -485.4090950489044, -435.14483964443207, -348.9775446653366, -255.62964177131653, 0.09600000455975533, -0.04800000227987766, 1.008000047877431, 0.0, 0.0, 0.0, 0.0, 0.0, 1.70638890642112E9, 0.0, 2024-01-27 15:55:06.421
32.0, -444.4796299338341, -428.44293892383575, -347.30206948518753, -264.7250784635544, 0.09600000455975533, -0.04800000227987766, 1.008000047877431, 0.0, 0.0, 0.0, 0.0, 0.0, 1.70638890642112E9, 0.0, 2024-01-27 15:55:06.421
33.0, -349.9349590539932, -444.00092273950577, -390.86442416906357, -191.48287773132324, 0.09600000455975533, -0.04800000227987766, 1.008000047877431, 0.0, 0.0, 0.0, 0.0, 0.0, 1.7063889064367619E9, 0.0, 2024-01-27 15:55:06.436
33.0, -456.2079561948776, -444.2402763366699, -379.13609790802, -236.9600611925125, 0.09600000455975533, -0.04800000227987766, 1.008000047877431, 0.0, 0.0, 0.0, 0.0, 0.0, 1.7063889064367619E9, 0.0, 2024-01-27 15:55:06.436
34.0, -488.5206918120384, -438.0170828104019, -350.41366624832153, -295.8410460948944, 0.09600000455975533, -0.04800000227987766, 1.008000047877431, 0.0, 0.0, 0.0, 0.0, 0.0, 1.7063889064374747E9, 0.0, 2024-01-27 15:55:06.437
34.0, -377.93932992219925, -453.0963594317436, -394.9334353208542, -226.90721011161804, 0.09600000455975533, -0.04800000227987766, 1.008000047877431, 0.0, 0.0, 0.0, 0.0, 0.0, 1.7063889064374747E9, 0.0, 2024-01-27 15:55:06.437
35.0, -410.4914191365242, -453.0963594317436, -396.8482640981674, -210.15245831012726, 0.09600000455975533, -0.04800000227987766, 1.008000047877431, 0.0, 0.0, 0.0, 0.0, 0.0, 1.7063889064510996E9, 0.0, 2024-01-27 15:55:06.451
35.0, -484.21232706308365, -424.85263496637344, -345.14788711071014, -278.84694069623947, 0.09600000455975533, -0.04800000227987766, 1.008000047877431, 0.0, 0.0, 0.0, 0.0, 0.0, 1.7063889064510996E9, 0.0, 2024-01-27 15:55:06.451
36.0, -382.72640186548233, -420.3049166202545, -358.55168855190277, -232.17298924922943, 0.09600000455975533, -0.04800000227987766, 1.008000047877431, 0.0, 0.0, 0.0, 0.0, 0.0, 1.7063889064668033E9, 0.0, 2024-01-27 15:55:06.466
36.0, -359.0303957462311, -432.7513036727905, -383.9231698513031, -185.25968420505524, 0.09600000455975533, -0.04800000227987766, 1.008000047877431, 0.0, 0.0, 0.0, 0.0, 0.0, 1.7063889064668033E9, 0.0, 2024-01-27 15:55:06.466
37.0, -487.32392382621765, -439.2138507962227, -358.07298135757446, -261.13477450609207, 0.09600000455975533, -0.04800000227987766, 1.008000047877431, 0.0, 0.0, 0.0, 0.0, 0.0, 1.7063889064674597E9, 0.0, 2024-01-27 15:55:06.467
37.0, -449.26670187711716, -438.0170828104019, -361.18457812070847, -275.9746975302696, 0.09600000455975533, -0.04800000227987766, 1.008000047877431, 0.0, 0.0, 0.0, 0.0, 0.0, 1.7063889064674597E9, 0.0, 2024-01-27 15:55:06.467
38.0, -353.7646166086197, -449.027348279953, -399.24180006980896, -196.98801046609879, 0.09600000455975533, -0.04800000227987766, 1.008000047877431, 0.0, 0.0, 0.0, 0.0, 0.0, 1.706388906481497E9, 0.0, 2024-01-27 15:55:06.481
38.0, -442.56480115652084, -431.55453568696976, -367.8864788413048, -224.5136741399765, 0.09600000455975533, -0.04800000227987766, 1.008000047877431, 0.0, 0.0, 0.0, 0.0, 0.0, 1.706388906481497E9, 0.0, 2024-01-27 15:55:06.481
39.0, -481.10073029994965, -430.11841410398483, -345.14788711071014, -285.78819501399994, 0.09600000455975533, -0.04800000227987766, 1.008000047877431, 0.0, 0.0, 0.0, 0.0, 0.0, 1.7063889064978034E9, 0.0, 2024-01-27 15:55:06.497
39.0, -369.56195402145386, -443.7615691423416, -397.3269712924957, -227.86462450027466, 0.09600000455975533, -0.04800000227987766, 1.008000047877431, 0.0, 0.0, 0.0, 0.0, 0.0, 1.7063889064978034E9, 0.0, 2024-01-27 15:55:06.497
40.0, -422.4590989947319, -463.86727130413055, -405.2256399989128, -215.89694464206696, 0.09600000455975533, -0.04800000227987766, 1.008000047877431, 0.0, 0.0, 0.0, 0.0, 0.0, 1.706388906498329E9, 0.0, 2024-01-27 15:55:06.498
40.0, -523.2269634008408, -451.42088425159454, -361.9026389122009, -294.16557091474533, 0.09600000455975533, -0.04800000227987766, 1.008000047877431, 0.0, 0.0, 0.0, 0.0, 0.0, 1.706388906498329E9, 0.0, 2024-01-27 15:55:06.498
41.0, -407.14046877622604, -448.30928748846054, -383.9231698513031, -253.7148129940033, 0.09600000455975533, -0.04800000227987766, 1.008000047877431, 0.0, 0.0, 0.0, 0.0, 0.0, 1.7063889065114553E9, 0.0, 2024-01-27 15:55:06.511
41.0, -364.5355284810066, -441.6073867678642, -394.2153745293617, -190.04675614833832, 0.09600000455975533, -0.04800000227987766, 1.008000047877431, 0.0, 0.0, 0.0, 0.0, 0.0, 1.7063889065114553E9, 0.0, 2024-01-27 15:55:06.511
42.0, -473.20206159353256, -421.74103820323944, -349.69560545682907, -259.9380065202713, 0.09600000455975533, -0.04800000227987766, 1.008000047877431, 0.0, 0.0, 0.0, 0.0, 0.0, 1.7063889065267513E9, 0.0, 2024-01-27 15:55:06.526
42.0, -442.56480115652084, -428.44293892383575, -355.44009178876877, -271.18762558698654, 0.09600000455975533, -0.04800000227987766, 1.008000047877431, 0.0, 0.0, 0.0, 0.0, 0.0, 1.7063889065267513E9, 0.0, 2024-01-27 15:55:06.526
43.0, -364.0568212866783, -445.67639791965485, -397.0876176953316, -189.80740255117416, 0.09600000455975533, -0.04800000227987766, 1.008000047877431, 0.0, 0.0, 0.0, 0.0, 0.0, 1.7063889065274525E9, 0.0, 2024-01-27 15:55:06.527
43.0, -454.2931274175644, -442.3254475593567, -378.1786835193634, -228.1039780974388, 0.09600000455975533, -0.04800000227987766, 1.008000047877431, 0.0, 0.0, 0.0, 0.0, 0.0, 1.7063889065274525E9, 0.0, 2024-01-27 15:55:06.527
44.0, -488.28133821487427, -439.45320439338684, -354.00397020578384, -281.47983026504517, 0.09600000455975533, -0.04800000227987766, 1.008000047877431, 0.0, 0.0, 0.0, 0.0, 0.0, 1.706388906541047E9, 0.0, 2024-01-27 15:55:06.541
44.0, -376.26385474205017, -451.42088425159454, -394.9334353208542, -222.12013816833496, 0.09600000455975533, -0.04800000227987766, 1.008000047877431, 0.0, 0.0, 0.0, 0.0, 0.0, 1.706388906541047E9, 0.0, 2024-01-27 15:55:06.541
45.0, -415.51784467697144, -449.74540907144547, -392.06119215488434, -207.51956874132156, 0.09600000455975533, -0.04800000227987766, 1.008000047877431, 0.0, 0.0, 0.0, 0.0, 0.0, 1.7063889065567474E9, 0.0, 2024-01-27 15:55:06.556
45.0, -509.3444547653198, -441.8467403650284, -350.1743126511574, -281.00112307071686, 0.09600000455975533, -0.04800000227987766, 1.008000047877431, 0.0, 0.0, 0.0, 0.0, 0.0, 1.7063889065567474E9, 0.0, 2024-01-27 15:55:06.556
46.0, -399.9598608613014, -434.4267788529396, -364.5355284810066, -239.83230435848236, 0.09600000455975533, -0.04800000227987766, 1.008000047877431, 0.0, 0.0, 0.0, 0.0, 0.0, 1.7063889065574708E9, 0.0, 2024-01-27 15:55:06.557
46.0, -376.98191553354263, -450.7028234601021, -406.4224079847336, -195.55188888311386, 0.09600000455975533, -0.04800000227987766, 1.008000047877431, 0.0, 0.0, 0.0, 0.0, 0.0, 1.7063889065574708E9, 0.0, 2024-01-27 15:55:06.557
47.0, -479.1859015226364, -430.8364748954773, -349.9349590539932, -247.73097306489944, 0.09600000455975533, -0.04800000227987766, 1.008000047877431, 0.0, 0.0, 0.0, 0.0, 0.0, 1.7063889065710497E9, 0.0, 2024-01-27 15:55:06.571
47.0, -446.3944587111473, -426.5281101465225, -351.6104342341423, -263.0496032834053, 0.09600000455975533, -0.04800000227987766, 1.008000047877431, 0.0, 0.0, 0.0, 0.0, 0.0, 1.7063889065710497E9, 0.0, 2024-01-27 15:55:06.571
48.0, -354.96138459444046, -444.4796299338341, -399.9598608613014, -190.76481693983078, 0.09600000455975533, -0.04800000227987766, 1.008000047877431, 0.0, 0.0, 0.0, 0.0, 0.0, 1.7063889065867906E9, 0.0, 2024-01-27 15:55:06.586
48.0, -457.8834313750267, -445.19769072532654, -377.6999763250351, -235.04523241519928, 0.09600000455975533, -0.04800000227987766, 1.008000047877431, 0.0, 0.0, 0.0, 0.0, 0.0, 1.7063889065867906E9, 0.0, 2024-01-27 15:55:06.586
49.0, -488.0419846177101, -433.9480716586113, -348.02013027668, -286.0275486111641, 0.09600000455975533, -0.04800000227987766, 1.008000047877431, 0.0, 0.0, 0.0, 0.0, 0.0, 1.7063889065874095E9, 0.0, 2024-01-27 15:55:06.587
49.0, -361.9026389122009, -438.0170828104019, -380.3328658938408, -213.0247014760971, 0.09600000455975533, -0.04800000227987766, 1.008000047877431, 0.0, 0.0, 0.0, 0.0, 0.0, 1.7063889065874095E9, 0.0, 2024-01-27 15:55:06.587
50.0, -410.73077273368835, -448.30928748846054, -387.75282740592957, -209.4343975186348, 0.09600000455975533, -0.04800000227987766, 1.008000047877431, 0.0, 0.0, 0.0, 0.0, 0.0, 1.7063889066012776E9, 0.0, 2024-01-27 15:55:06.601
50.0, -506.9509187936783, -436.580961227417, -352.5678486227989, -285.5488414168358, 0.09600000455975533, -0.04800000227987766, 1.008000047877431, 0.0, 0.0, 0.0, 0.0, 0.0, 1.7063889066012776E9, 0.0, 2024-01-27 15:55:06.601
51.0, -402.83210402727127, -439.45320439338684, -373.6309651732445, -253.95416659116745, 0.09600000455975533, -0.03200000151991844, 1.008000047877431, 0.0, 0.0, 0.0, 0.0, 0.0, 1.7063889066167855E9, 0.0, 2024-01-27 15:55:06.616
51.0, -376.024501144886, -448.30928748846054, -399.4811536669731, -191.96158492565155, 0.09600000455975533, -0.03200000151991844, 1.008000047877431, 0.0, 0.0, 0.0, 0.0, 0.0, 1.7063889066167855E9, 0.0, 2024-01-27 15:55:06.616
52.0, -486.1271558403969, -439.692557990551, -361.4239317178726, -258.74123853445053, 0.11200000531971455, -0.03200000151991844, 1.008000047877431, 0.0, 0.0, 0.0, 0.0, 0.0, 1.7063889066175003E9, 0.0, 2024-01-27 15:55:06.617
52.0, -448.30928748846054, -434.66613245010376, -351.6104342341423, -261.85283529758453, 0.11200000531971455, -0.03200000151991844, 1.008000047877431, 0.0, 0.0, 0.0, 0.0, 0.0, 1.7063889066175003E9, 0.0, 2024-01-27 15:55:06.617
53.0, -349.69560545682907, -443.52221554517746, -393.97602093219757, -186.21709859371185, 0.11200000531971455, -0.03200000151991844, 1.008000047877431, 0.0, 0.0, 0.0, 0.0, 0.0, 1.7063889066310449E9, 0.0, 2024-01-27 15:55:06.631
53.0, -447.11251950263977, -439.45320439338684, -364.5355284810066, -222.12013816833496, 0.11200000531971455, -0.03200000151991844, 1.008000047877431, 0.0, 0.0, 0.0, 0.0, 0.0, 1.7063889066310449E9, 0.0, 2024-01-27 15:55:06.631
54.0, -473.920122385025, -424.85263496637344, -334.61632883548737, -272.3843935728073, 0.11200000531971455, -0.03200000151991844, 1.008000047877431, 0.0, 0.0, 0.0, 0.0, 0.0, 1.7063889066472096E9, 0.0, 2024-01-27 15:55:06.647
54.0, -359.74845653772354, -431.07582849264145, -378.6573907136917, -205.84409356117249, 0.11200000531971455, -0.03200000151991844, 1.008000047877431, 0.0, 0.0, 0.0, 0.0, 0.0, 1.7063889066472096E9, 0.0, 2024-01-27 15:55:06.647
55.0, -402.35339683294296, -438.97449719905853, -384.64123064279556, -200.0996072292328, 0.11200000531971455, -0.03200000151991844, 1.008000047877431, 0.0, 0.0, 0.0, 0.0, 0.0, 1.7063889066476068E9, 0.0, 2024-01-27 15:55:06.647
55.0, -499.77031087875366, -434.18742525577545, -343.47241193056107, -279.3256478905678, 0.11200000531971455, -0.03200000151991844, 1.008000047877431, 0.0, 0.0, 0.0, 0.0, 0.0, 1.7063889066476068E9, 0.0, 2024-01-27 15:55:06.647
56.0, -391.58248496055603, -435.3841932415962, -365.2535892724991, -235.5239396095276, 0.11200000531971455, -0.03200000151991844, 1.008000047877431, 0.0, 0.0, 0.0, 0.0, 0.0, 1.7063889066612272E9, 0.0, 2024-01-27 15:55:06.661
56.0, -378.1786835193634, -450.7028234601021, -400.91727524995804, -192.91899931430817, 0.11200000531971455, -0.03200000151991844, 1.008000047877431, 0.0, 0.0, 0.0, 0.0, 0.0, 1.7063889066612272E9, 0.0, 2024-01-27 15:55:06.661
57.0, -501.2064324617386, -445.4370443224907, -360.466517329216, -257.7838241457939, 0.11200000531971455, -0.03200000151991844, 1.008000047877431, 0.0, 0.0, 0.0, 0.0, 0.0, 1.7063889066767824E9, 0.0, 2024-01-27 15:55:06.676
57.0, -457.4047241806984, -444.2402763366699, -360.22716373205185, -271.4269791841507, 0.11200000531971455, -0.03200000151991844, 1.008000047877431, 0.0, 0.0, 0.0, 0.0, 0.0, 1.7063889066767824E9, 0.0, 2024-01-27 15:55:06.676
58.0, -357.354920566082, -450.2241162657738, -396.13020330667496, -192.44029211997986, 0.11200000531971455, -0.03200000151991844, 1.008000047877431, 0.0, 0.0, 0.0, 0.0, 0.0, 1.706388906677789E9, 0.0, 2024-01-27 15:55:06.677
58.0, -456.2079561948776, -449.26670187711716, -380.8115730881691, -236.72070759534836, 0.11200000531971455, -0.03200000151991844, 1.008000047877431, 0.0, 0.0, 0.0, 0.0, 0.0, 1.706388906677789E9, 0.0, 2024-01-27 15:55:06.677
59.0, -481.8187910914421, -432.5119500756264, -348.9775446653366, -293.2081565260887, 0.11200000531971455, -0.03200000151991844, 1.008000047877431, 0.0, 0.0, 0.0, 0.0, 0.0, 1.706388906691053E9, 0.0, 2024-01-27 15:55:06.691
59.0, -348.9775446653366, -430.8364748954773, -375.5457939505577, -204.1686183810234, 0.11200000531971455, -0.03200000151991844, 1.008000047877431, 0.0, 0.0, 0.0, 0.0, 0.0, 1.706388906691053E9, 0.0, 2024-01-27 15:55:06.691
60.0, -399.72050726413727, -433.70871806144714, -384.8805842399597, -201.77508240938187, 0.11200000531971455, -0.03200000151991844, 1.008000047877431, 0.0, 0.0, 0.0, 0.0, 0.0, 1.7063889067070065E9, 0.0, 2024-01-27 15:55:06.707
60.0, -500.0096644759178, -431.7938892841339, -345.62659430503845, -281.240476667881, 0.11200000531971455, -0.03200000151991844, 1.008000047877431, 0.0, 0.0, 0.0, 0.0, 0.0, 1.7063889067070065E9, 0.0, 2024-01-27 15:55:06.707
61.0, -399.24180006980896, -434.66613245010376, -370.04066121578217, -241.02907234430313, 0.11200000531971455, -0.04800000227987766, 1.008000047877431, 0.0, 0.0, 0.0, 0.0, 0.0, 1.7063889067075193E9, 0.0, 2024-01-27 15:55:06.707
61.0, -370.2800148129463, -441.3680331707001, -393.97602093219757, -190.76481693983078, 0.11200000531971455, -0.04800000227987766, 1.008000047877431, 0.0, 0.0, 0.0, 0.0, 0.0, 1.7063889067075193E9, 0.0, 2024-01-27 15:55:06.707
62.0, -490.91422778367996, -436.1022540330887, -357.59427416324615, -260.8954209089279, 0.11200000531971455, -0.04800000227987766, 1.008000047877431, 0.0, 0.0, 0.0, 0.0, 0.0, 1.7063889067210572E9, 0.0, 2024-01-27 15:55:06.721
62.0, -440.6499723792076, -431.3151820898056, -348.73819106817245, -267.3579680323601, 0.11200000531971455, -0.04800000227987766, 1.008000047877431, 0.0, 0.0, 0.0, 0.0, 0.0, 1.7063889067210572E9, 0.0, 2024-01-27 15:55:06.721
63.0, -350.41366624832153, -444.2402763366699, -398.5237392783165, -196.03059607744217, 0.11200000531971455, -0.04800000227987766, 1.008000047877431, 0.0, 0.0, 0.0, 0.0, 0.0, 1.7063889067368908E9, 0.0, 2024-01-27 15:55:06.736
63.0, -449.26670187711716, -441.1286795735359, -368.12583243846893, -230.01880687475204, 0.11200000531971455, -0.04800000227987766, 1.008000047877431, 0.0, 0.0, 0.0, 0.0, 0.0, 1.7063889067368908E9, 0.0, 2024-01-27 15:55:06.736
64.0, -486.6058630347252, -433.9480716586113, -346.8233622908592, -285.5488414168358, 0.11200000531971455, -0.04800000227987766, 1.008000047877431, 0.0, 0.0, 0.0, 0.0, 0.0, 1.7063889067375145E9, 0.0, 2024-01-27 15:55:06.737
64.0, -370.5193684101105, -444.00092273950577, -395.65149611234665, -219.72660219669342, 0.11200000531971455, -0.04800000227987766, 1.008000047877431, 0.0, 0.0, 0.0, 0.0, 0.0, 1.7063889067375145E9, 0.0, 2024-01-27 15:55:06.737
65.0, -403.7895184159279, -437.77772921323776, -391.58248496055603, -202.97185039520264, 0.11200000531971455, -0.04800000227987766, 1.008000047877431, 0.0, 0.0, 0.0, 0.0, 0.0, 1.706388906751022E9, 0.0, 2024-01-27 15:55:06.751
65.0, -487.0845702290535, -416.2359054684639, -340.36081516742706, -278.84694069623947, 0.11200000531971455, -0.04800000227987766, 1.008000047877431, 0.0, 0.0, 0.0, 0.0, 0.0, 1.706388906751022E9, 0.0, 2024-01-27 15:55:06.751
66.0, -393.49731373786926, -428.92164611816406, -370.2800148129463, -241.7471331357956, 0.11200000531971455, -0.04800000227987766, 1.008000047877431, 0.0, 0.0, 0.0, 0.0, 0.0, 1.7063889067667608E9, 0.0, 2024-01-27 15:55:06.766
66.0, -376.26385474205017, -442.3254475593567, -396.3695569038391, -186.21709859371185, 0.11200000531971455, -0.04800000227987766, 1.008000047877431, 0.0, 0.0, 0.0, 0.0, 0.0, 1.7063889067667608E9, 0.0, 2024-01-27 15:55:06.766
67.0, -487.5632774233818, -434.18742525577545, -359.0303957462311, -261.3741281032562, 0.11200000531971455, -0.04800000227987766, 1.008000047877431, 0.0, 0.0, 0.0, 0.0, 0.0, 1.7063889067674987E9, 0.0, 2024-01-27 15:55:06.767
67.0, -438.4957900047302, -425.81004935503006, -350.6530198454857, -260.17736011743546, 0.11200000531971455, -0.04800000227987766, 1.008000047877431, 0.0, 0.0, 0.0, 0.0, 0.0, 1.7063889067674987E9, 0.0, 2024-01-27 15:55:06.767
68.0, -354.243323802948, -443.2828619480133, -398.0450320839882, -186.93515938520432, 0.11200000531971455, -0.04800000227987766, 1.008000047877431, 0.0, 0.0, 0.0, 0.0, 0.0, 1.7063889067813866E9, 0.0, 2024-01-27 15:55:06.781
68.0, -471.0478792190552, -451.42088425159454, -381.52963387966156, -238.39618277549744, 0.11200000531971455, -0.04800000227987766, 1.008000047877431, 0.0, 0.0, 0.0, 0.0, 0.0, 1.7063889067813866E9, 0.0, 2024-01-27 15:55:06.781
69.0, -496.8980677127838, -445.67639791965485, -366.689710855484, -298.4739356637001, 0.11200000531971455, -0.04800000227987766, 1.008000047877431, 0.0, 0.0, 0.0, 0.0, 0.0, 1.7063889067971115E9, 0.0, 2024-01-27 15:55:06.797
69.0, -373.6309651732445, -444.00092273950577, -391.1037777662277, -218.7691878080368, 0.11200000531971455, -0.04800000227987766, 1.008000047877431, 0.0, 0.0, 0.0, 0.0, 0.0, 1.7063889067971115E9, 0.0, 2024-01-27 15:55:06.797
70.0, -414.799783885479, -447.11251950263977, -390.6250705718994, -204.88667917251587, 0.11200000531971455, -0.04800000227987766, 0.9920000471174717, 0.0, 0.0, 0.0, 0.0, 0.0, 1.7063889067975264E9, 0.0, 2024-01-27 15:55:06.797
70.0, -514.1315267086029, -439.692557990551, -347.5414230823517, -284.352073431015, 0.11200000531971455, -0.04800000227987766, 0.9920000471174717, 0.0, 0.0, 0.0, 0.0, 0.0, 1.7063889067975264E9, 0.0, 2024-01-27 15:55:06.797
71.0, -413.6030158996582, -448.0699338912964, -379.3754515051842, -249.64580184221268, 0.11200000531971455, -0.03200000151991844, 0.9920000471174717, 0.0, 0.0, 0.0, 0.0, 0.0, 1.7063889068274703E9, 0.0, 2024-01-27 15:55:06.827
71.0, -385.359291434288, -458.8408457636833, -415.99655187129974, -201.77508240938187, 0.11200000531971455, -0.03200000151991844, 0.9920000471174717, 0.0, 0.0, 0.0, 0.0, 0.0, 1.7063889068274703E9, 0.0, 2024-01-27 15:55:06.827
72.0, -501.44578605890274, -451.1815306544304, -371.23742920160294, -277.1714655160904, 0.09600000455975533, -0.03200000151991844, 0.9920000471174717, 0.0, 0.0, 0.0, 0.0, 0.0, 1.7063889068281517E9, 0.0, 2024-01-27 15:55:06.828
72.0, -451.89959144592285, -432.03324288129807, -351.131727039814, -264.4857248663902, 0.09600000455975533, -0.03200000151991844, 0.9920000471174717, 0.0, 0.0, 0.0, 0.0, 0.0, 1.7063889068281517E9, 0.0, 2024-01-27 15:55:06.828
73.0, -349.21689826250076, -436.34160763025284, -396.13020330667496, -188.13192737102509, 0.09600000455975533, -0.03200000151991844, 0.9920000471174717, 0.0, 0.0, 0.0, 0.0, 0.0, 1.7063889068289506E9, 0.0, 2024-01-27 15:55:06.828
73.0, -454.7718346118927, -441.8467403650284, -382.00834107398987, -237.91747558116913, 0.09600000455975533, -0.03200000151991844, 0.9920000471174717, 0.0, 0.0, 0.0, 0.0, 0.0, 1.7063889068289506E9, 0.0, 2024-01-27 15:55:06.828
74.0, -493.3077637553215, -442.804154753685, -356.3975061774254, -288.1817309856415, 0.09600000455975533, -0.03200000151991844, 0.9920000471174717, 0.0, 0.0, 0.0, 0.0, 0.0, 1.7063889068414438E9, 0.0, 2024-01-27 15:55:06.841
74.0, -388.2315346002579, -463.6279177069664, -404.7469328045845, -221.4020773768425, 0.09600000455975533, -0.03200000151991844, 0.9920000471174717, 0.0, 0.0, 0.0, 0.0, 0.0, 1.7063889068414438E9, 0.0, 2024-01-27 15:55:06.841
75.0, -427.48552453517914, -455.01118820905685, -402.5927504301071, -217.57241982221603, 0.09600000455975533, -0.03200000151991844, 0.9920000471174717, 0.0, 0.0, 0.0, 0.0, 0.0, 1.7063889068572087E9, 0.0, 2024-01-27 15:55:06.857
75.0, -500.7277252674103, -428.44293892383575, -344.66917991638184, -277.1714655160904, 0.09600000455975533, -0.03200000151991844, 0.9920000471174717, 0.0, 0.0, 0.0, 0.0, 0.0, 1.7063889068572087E9, 0.0, 2024-01-27 15:55:06.857
76.0, -387.0347666144371, -420.06556302309036, -363.57811409235, -227.86462450027466, 0.09600000455975533, -0.03200000151991844, 0.9920000471174717, 0.0, 0.0, 0.0, 0.0, 0.0, 1.7063889068575723E9, 0.0, 2024-01-27 15:55:06.857
76.0, -386.5560594201088, -453.8144202232361, -400.43856805562973, -197.70607125759125, 0.09600000455975533, -0.03200000151991844, 0.9920000471174717, 0.0, 0.0, 0.0, 0.0, 0.0, 1.7063889068575723E9, 0.0, 2024-01-27 15:55:06.857
77.0, -500.96707886457443, -444.00092273950577, -365.2535892724991, -268.55473601818085, 0.09600000455975533, -0.03200000151991844, 0.9920000471174717, 0.0, 0.0, 0.0, 0.0, 0.0, 1.7063889068713245E9, 0.0, 2024-01-27 15:55:06.871
77.0, -446.8731659054756, -437.0596684217453, -356.8762133717537, -266.40055364370346, 0.09600000455975533, -0.03200000151991844, 0.9920000471174717, 0.0, 0.0, 0.0, 0.0, 0.0, 1.7063889068713245E9, 0.0, 2024-01-27 15:55:06.871
78.0, -362.86005330085754, -452.6176522374153, -396.13020330667496, -195.79124248027802, 0.09600000455975533, -0.03200000151991844, 0.9920000471174717, 0.0, 0.0, 0.0, 0.0, 0.0, 1.7063889068867576E9, 0.0, 2024-01-27 15:55:06.886
78.0, -461.71308892965317, -444.9583371281624, -375.0670867562294, -236.24200040102005, 0.09600000455975533, -0.03200000151991844, 0.9920000471174717, 0.0, 0.0, 0.0, 0.0, 0.0, 1.7063889068867576E9, 0.0, 2024-01-27 15:55:06.886
79.0, -488.0419846177101, -433.9480716586113, -351.37108063697815, -282.4372446537018, 0.09600000455975533, -0.03200000151991844, 0.9920000471174717, 0.0, 0.0, 0.0, 0.0, 0.0, 1.706388906887494E9, 0.0, 2024-01-27 15:55:06.887
79.0, -374.34902596473694, -447.11251950263977, -398.28438568115234, -219.00854140520096, 0.09600000455975533, -0.03200000151991844, 0.9920000471174717, 0.0, 0.0, 0.0, 0.0, 0.0, 1.706388906887494E9, 0.0, 2024-01-27 15:55:06.887
80.0, -420.3049166202545, -452.6176522374153, -403.0714576244354, -228.58268529176712, 0.09600000455975533, -0.03200000151991844, 0.9920000471174717, 0.0, 0.0, 0.0, 0.0, 0.0, 1.706388906901145E9, 0.0, 2024-01-27 15:55:06.901
80.0, -521.7908418178558, -450.4634698629379, -362.6206997036934, -289.6178525686264, 0.09600000455975533, -0.03200000151991844, 0.9920000471174717, 0.0, 0.0, 0.0, 0.0, 0.0, 1.706388906901145E9, 0.0, 2024-01-27 15:55:06.901
81.0, -401.87468963861465, -440.1712651848793, -370.5193684101105, -234.08781802654266, 0.09600000455975533, -0.03200000151991844, 0.9920000471174717, 0.0, 0.0, 0.0, 0.0, 0.0, 1.706388906917001E9, 0.0, 2024-01-27 15:55:06.917
81.0, -394.69408172369003, -463.86727130413055, -416.47525906562805, -200.5783144235611, 0.09600000455975533, -0.03200000151991844, 0.9920000471174717, 0.0, 0.0, 0.0, 0.0, 0.0, 1.706388906917001E9, 0.0, 2024-01-27 15:55:06.917
82.0, -504.55738282203674, -451.6602378487587, -373.3916115760803, -274.29922235012054, 0.09600000455975533, -0.03200000151991844, 0.9920000471174717, 0.0, 0.0, 0.0, 0.0, 0.0, 1.70638890691749E9, 0.0, 2024-01-27 15:55:06.917
82.0, -461.71308892965317, -454.2931274175644, -375.5457939505577, -292.49009573459625, 0.09600000455975533, -0.03200000151991844, 0.9920000471174717, 0.0, 0.0, 0.0, 0.0, 0.0, 1.70638890691749E9, 0.0, 2024-01-27 15:55:06.917
83.0, -366.689710855484, -462.90985691547394, -411.4488335251808, -207.2802151441574, 0.09600000455975533, -0.03200000151991844, 0.9920000471174717, 0.0, 0.0, 0.0, 0.0, 0.0, 1.7063889069313474E9, 0.0, 2024-01-27 15:55:06.931
83.0, -458.362138569355, -447.83058029413223, -371.71613639593124, -232.41234284639359, 0.09600000455975533, -0.03200000151991844, 0.9920000471174717, 0.0, 0.0, 0.0, 0.0, 0.0, 1.7063889069313474E9, 0.0, 2024-01-27 15:55:06.931
84.0, -480.3826695084572, -434.4267788529396, -346.10530149936676, -282.4372446537018, 0.09600000455975533, -0.03200000151991844, 0.9920000471174717, 0.0, 0.0, 0.0, 0.0, 0.0, 1.7063889069472115E9, 0.0, 2024-01-27 15:55:06.947
84.0, -371.4767827987671, -449.26670187711716, -399.72050726413727, -224.0349669456482, 0.09600000455975533, -0.03200000151991844, 0.9920000471174717, 0.0, 0.0, 0.0, 0.0, 0.0, 1.7063889069472115E9, 0.0, 2024-01-27 15:55:06.947
85.0, -412.40624791383743, -450.94217705726624, -396.13020330667496, -208.71633672714233, 0.09600000455975533, -0.03200000151991844, 0.9920000471174717, 0.0, 0.0, 0.0, 0.0, 0.0, 1.7063889069475913E9, 0.0, 2024-01-27 15:55:06.947
85.0, -499.5309572815895, -428.2035853266716, -345.62659430503845, -279.56500148773193, 0.09600000455975533, -0.03200000151991844, 0.9920000471174717, 0.0, 0.0, 0.0, 0.0, 0.0, 1.7063889069475913E9, 0.0, 2024-01-27 15:55:06.947
86.0, -380.8115730881691, -418.3900878429413, -359.9878101348877, -230.97622126340866, 0.09600000455975533, -0.03200000151991844, 0.9920000471174717, 0.0, 0.0, 0.0, 0.0, 0.0, 1.706388906961203E9, 0.0, 2024-01-27 15:55:06.961
86.0, -367.40777164697647, -439.93191158771515, -390.86442416906357, -190.52546334266663, 0.09600000455975533, -0.03200000151991844, 0.9920000471174717, 0.0, 0.0, 0.0, 0.0, 0.0, 1.706388906961203E9, 0.0, 2024-01-27 15:55:06.961
87.0, -490.1961669921875, -432.7513036727905, -358.55168855190277, -256.58705615997314, 0.09600000455975533, -0.03200000151991844, 0.9920000471174717, 0.0, 0.0, 0.0, 0.0, 0.0, 1.7063889069779427E9, 0.0, 2024-01-27 15:55:06.977
87.0, -439.2138507962227, -424.85263496637344, -352.5678486227989, -259.459299325943, 0.09600000455975533, -0.03200000151991844, 0.9920000471174717, 0.0, 0.0, 0.0, 0.0, 0.0, 1.7063889069779427E9, 0.0, 2024-01-27 15:55:06.977
88.0, -348.4988374710083, -438.25643640756607, -390.1463633775711, -183.10550183057785, 0.09600000455975533, -0.03200000151991844, 0.9920000471174717, 0.0, 0.0, 0.0, 0.0, 0.0, 1.7063889069917693E9, 0.0, 2024-01-27 15:55:06.991
88.0, -462.90985691547394, -446.3944587111473, -373.3916115760803, -230.7368676662445, 0.09600000455975533, -0.03200000151991844, 0.9920000471174717, 0.0, 0.0, 0.0, 0.0, 0.0, 1.7063889069917693E9, 0.0, 2024-01-27 15:55:06.991
89.0, -491.8716421723366, -432.2725964784622, -348.9775446653366, -281.9585374593735, 0.09600000455975533, -0.03200000151991844, 0.9920000471174717, 0.0, 0.0, 0.0, 0.0, 0.0, 1.7063889069924912E9, 0.0, 2024-01-27 15:55:06.992
89.0, -364.5355284810066, -436.580961227417, -382.00834107398987, -209.4343975186348, 0.09600000455975533, -0.03200000151991844, 0.9920000471174717, 0.0, 0.0, 0.0, 0.0, 0.0, 1.7063889069924912E9, 0.0, 2024-01-27 15:55:06.992
90.0, -398.76309287548065, -431.7938892841339, -375.30644035339355, -191.00417053699493, 0.09600000455975533, -0.03200000151991844, 1.008000047877431, 0.0, 0.0, 0.0, 0.0, 0.0, 1.7063889070067601E9, 0.0, 2024-01-27 15:55:07.006
90.0, -492.58970296382904, -424.6132813692093, -337.24921840429306, -274.77792954444885, 0.09600000455975533, -0.03200000151991844, 1.008000047877431, 0.0, 0.0, 0.0, 0.0, 0.0, 1.7063889070067601E9, 0.0, 2024-01-27 15:55:07.006
91.0, -403.0714576244354, -432.7513036727905, -373.6309651732445, -243.66196191310883, 0.09600000455975533, -0.03200000151991844, 1.008000047877431, 0.0, 0.0, 0.0, 0.0, 0.0, 1.7063889070075223E9, 0.0, 2024-01-27 15:55:07.007
91.0, -385.83799862861633, -450.94217705726624, -396.60891050100327, -190.52546334266663, 0.09600000455975533, -0.03200000151991844, 1.008000047877431, 0.0, 0.0, 0.0, 0.0, 0.0, 1.7063889070075223E9, 0.0, 2024-01-27 15:55:07.007
92.0, -507.66897958517075, -448.0699338912964, -363.57811409235, -265.2037856578827, 0.09600000455975533, -0.03200000151991844, 1.008000047877431, 0.0, 0.0, 0.0, 0.0, 0.0, 1.7063889070211012E9, 0.0, 2024-01-27 15:55:07.021
92.0, -452.138945043087, -442.08609396219254, -358.7910421490669, -265.682492852211, 0.09600000455975533, -0.03200000151991844, 1.008000047877431, 0.0, 0.0, 0.0, 0.0, 0.0, 1.7063889070211012E9, 0.0, 2024-01-27 15:55:07.021
93.0, -356.15815258026123, -448.30928748846054, -400.91727524995804, -191.00417053699493, 0.09600000455975533, -0.03200000151991844, 1.008000047877431, 0.0, 0.0, 0.0, 0.0, 0.0, 1.7063889070369053E9, 0.0, 2024-01-27 15:55:07.036
93.0, -459.5589065551758, -447.5912266969681, -382.4870482683182, -232.17298924922943, 0.09600000455975533, -0.03200000151991844, 1.008000047877431, 0.0, 0.0, 0.0, 0.0, 0.0, 1.7063889070369053E9, 0.0, 2024-01-27 15:55:07.036
94.0, -480.8613767027855, -432.7513036727905, -343.9511191248894, -281.00112307071686, 0.09600000455975533, -0.03200000151991844, 1.008000047877431, 0.0, 0.0, 0.0, 0.0, 0.0, 1.7063889070682034E9, 0.0, 2024-01-27 15:55:07.068
94.0, -351.84978783130646, -428.44293892383575, -375.0670867562294, -197.22736406326294, 0.09600000455975533, -0.03200000151991844, 1.008000047877431, 0.0, 0.0, 0.0, 0.0, 0.0, 1.7063889070682034E9, 0.0, 2024-01-27 15:55:07.068
95.0, -396.8482640981674, -433.469364464283, -385.359291434288, -194.11576730012894, 0.09600000455975533, -0.03200000151991844, 1.008000047877431, 0.0, 0.0, 0.0, 0.0, 0.0, 1.7063889070689652E9, 0.0, 2024-01-27 15:55:07.068
95.0, -488.99939900636673, -420.3049166202545, -337.9672791957855, -275.9746975302696, 0.09600000455975533, -0.03200000151991844, 1.008000047877431, 0.0, 0.0, 0.0, 0.0, 0.0, 1.7063889070689652E9, 0.0, 2024-01-27 15:55:07.068
96.0, -395.17278891801834, -434.66613245010376, -366.689710855484, -233.8484644293785, 0.09600000455975533, -0.03200000151991844, 1.008000047877431, 0.0, 0.0, 0.0, 0.0, 0.0, 1.7063889070696678E9, 0.0, 2024-01-27 15:55:07.069
96.0, -371.4767827987671, -442.08609396219254, -392.7792529463768, -187.17451298236847, 0.09600000455975533, -0.03200000151991844, 1.008000047877431, 0.0, 0.0, 0.0, 0.0, 0.0, 1.7063889070696678E9, 0.0, 2024-01-27 15:55:07.069
97.0, -484.4516806602478, -432.7513036727905, -354.00397020578384, -251.32127702236176, 0.09600000455975533, -0.03200000151991844, 1.008000047877431, 0.0, 0.0, 0.0, 0.0, 0.0, 1.7063889070709364E9, 0.0, 2024-01-27 15:55:07.070
97.0, -431.55453568696976, -421.74103820323944, -349.69560545682907, -255.15093457698822, 0.09600000455975533, -0.03200000151991844, 1.008000047877431, 0.0, 0.0, 0.0, 0.0, 0.0, 1.7063889070709364E9, 0.0, 2024-01-27 15:55:07.070
98.0, -353.0465558171272, -442.3254475593567, -391.8218385577202, -185.02033060789108, 0.09600000455975533, -0.03200000151991844, 1.008000047877431, 0.0, 0.0, 0.0, 0.0, 0.0, 1.7063889070810723E9, 0.0, 2024-01-27 15:55:07.081
98.0, -452.37829864025116, -437.29902201890945, -366.689710855484, -222.12013816833496, 0.09600000455975533, -0.03200000151991844, 1.008000047877431, 0.0, 0.0, 0.0, 0.0, 0.0, 1.7063889070810723E9, 0.0, 2024-01-27 15:55:07.081
99.0, -478.46784073114395, -428.6822925209999, -344.4298263192177, -276.6927583217621, 0.09600000455975533, -0.03200000151991844, 1.008000047877431, 0.0, 0.0, 0.0, 0.0, 0.0, 1.7063889070960708E9, 0.0, 2024-01-27 15:55:07.096
99.0, -376.98191553354263, -447.3518730998039, -393.2579601407051, -215.41823744773865, 0.09600000455975533, -0.03200000151991844, 1.008000047877431, 0.0, 0.0, 0.0, 0.0, 0.0, 1.7063889070960708E9, 0.0, 2024-01-27 15:55:07.096
0.0, -499.77031087875366, -431.3151820898056, -345.62659430503845, -277.1714655160904, 0.09600000455975533, -0.03200000151991844, 1.008000047877431, 0.0, 0.0, 0.0, 0.0, 0.0, 1.7063889071121194E9, 0.0, 2024-01-27 15:55:07.112
0.0, -392.7792529463768, -433.9480716586113, -365.97165006399155, -236.72070759534836, 0.09600000455975533, -0.03200000151991844, 1.008000047877431, 0.0, 0.0, 0.0, 0.0, 0.0, 1.7063889071121194E9, 0.0, 2024-01-27 15:55:07.112
1.0, -373.6309651732445, -443.04350835084915, -398.0450320839882, -194.11576730012894, 0.09600000455975533, -0.03200000151991844, 1.008000047877431, 0.0, 0.0, 0.0, 0.0, 0.0, 1.7063889071125884E9, 0.0, 2024-01-27 15:55:07.112
1.0, -489.2387526035309, -434.66613245010376, -361.4239317178726, -260.17736011743546, 0.09600000455975533, -0.03200000151991844, 1.008000047877431, 0.0, 0.0, 0.0, 0.0, 0.0, 1.7063889071125884E9, 0.0, 2024-01-27 15:55:07.112
2.0, -442.56480115652084, -429.40035331249237, -360.22716373205185, -267.1186144351959, 0.09600000455975533, -0.03200000151991844, 1.008000047877431, 0.0, 0.0, 0.0, 0.0, 0.0, 1.7063889071263077E9, 0.0, 2024-01-27 15:55:07.126
2.0, -358.7910421490669, -451.42088425159454, -406.1830543875694, -192.2009385228157, 0.09600000455975533, -0.03200000151991844, 1.008000047877431, 0.0, 0.0, 0.0, 0.0, 0.0, 1.7063889071263077E9, 0.0, 2024-01-27 15:55:07.126
3.0, -464.34597849845886, -447.83058029413223, -382.72640186548233, -236.72070759534836, 0.09600000455975533, -0.03200000151991844, 1.008000047877431, 0.0, 0.0, 0.0, 0.0, 0.0, 1.7063889071426933E9, 0.0, 2024-01-27 15:55:07.142
3.0, -486.6058630347252, -437.77772921323776, -352.8072022199631, -286.5062558054924, 0.09600000455975533, -0.03200000151991844, 1.008000047877431, 0.0, 0.0, 0.0, 0.0, 0.0, 1.7063889071426933E9, 0.0, 2024-01-27 15:55:07.142
4.0, -365.01423567533493, -439.692557990551, -385.5986450314522, -212.30664068460464, 0.09600000455975533, -0.03200000151991844, 1.008000047877431, 0.0, 0.0, 0.0, 0.0, 0.0, 1.7063889071431508E9, 0.0, 2024-01-27 15:55:07.143
4.0, -411.4488335251808, -444.71898353099823, -393.7366673350334, -207.51956874132156, 0.09600000455975533, -0.03200000151991844, 1.008000047877431, 0.0, 0.0, 0.0, 0.0, 0.0, 1.7063889071431508E9, 0.0, 2024-01-27 15:55:07.143
5.0, -514.1315267086029, -444.00092273950577, -367.1684180498123, -299.4313500523567, 0.09600000455975533, -0.03200000151991844, 1.008000047877431, 0.0, 0.0, 0.0, 0.0, 0.0, 1.706388907156234E9, 0.0, 2024-01-27 15:55:07.156
5.0, -408.8159439563751, -448.0699338912964, -388.7102417945862, -256.347702562809, 0.09600000455975533, -0.03200000151991844, 1.008000047877431, 0.0, 0.0, 0.0, 0.0, 0.0, 1.706388907156234E9, 0.0, 2024-01-27 15:55:07.156
6.0, -375.0670867562294, -449.74540907144547, -400.1992144584656, -189.0893417596817, 0.09600000455975533, -0.03200000151991844, 1.008000047877431, 0.0, 0.0, 0.0, 0.0, 0.0, 1.7063889071718023E9, 0.0, 2024-01-27 15:55:07.171
6.0, -488.28133821487427, -430.8364748954773, -358.7910421490669, -257.7838241457939, 0.09600000455975533, -0.03200000151991844, 1.008000047877431, 0.0, 0.0, 0.0, 0.0, 0.0, 1.7063889071718023E9, 0.0, 2024-01-27 15:55:07.171
7.0, -442.56480115652084, -426.7674637436867, -355.44009178876877, -268.55473601818085, 0.09600000455975533, -0.03200000151991844, 1.008000047877431, 0.0, 0.0, 0.0, 0.0, 0.0, 1.7063889071724837E9, 0.0, 2024-01-27 15:55:07.172
7.0, -353.0465558171272, -442.08609396219254, -403.0714576244354, -190.76481693983078, 0.09600000455975533, -0.03200000151991844, 1.008000047877431, 0.0, 0.0, 0.0, 0.0, 0.0, 1.7063889071724837E9, 0.0, 2024-01-27 15:55:07.172
8.0, -454.53248101472855, -442.08609396219254, -380.3328658938408, -232.8910500407219, 0.09600000455975533, -0.03200000151991844, 1.008000047877431, 0.0, 0.0, 0.0, 0.0, 0.0, 1.7063889071860864E9, 0.0, 2024-01-27 15:55:07.186
8.0, -478.2284871339798, -431.07582849264145, -351.84978783130646, -283.3946590423584, 0.09600000455975533, -0.03200000151991844, 1.008000047877431, 0.0, 0.0, 0.0, 0.0, 0.0, 1.7063889071860864E9, 0.0, 2024-01-27 15:55:07.186
9.0, -369.3226004242897, -447.3518730998039, -396.60891050100327, -218.7691878080368, 0.09600000455975533, -0.03200000151991844, 1.008000047877431, 0.0, 0.0, 0.0, 0.0, 0.0, 1.7063889072017615E9, 0.0, 2024-01-27 15:55:07.201
9.0, -414.32107669115067, -455.01118820905685, -399.24180006980896, -212.78534787893295, 0.09600000455975533, -0.03200000151991844, 1.008000047877431, 0.0, 0.0, 0.0, 0.0, 0.0, 1.7063889072017615E9, 0.0, 2024-01-27 15:55:07.201
10.0, -514.6102339029312, -448.5486410856247, -357.11556696891785, -291.2933277487755, 0.09600000455975533, -0.03200000151991844, 1.008000047877431, 0.0, 0.0, 0.0, 0.0, 0.0, 1.7063889072025168E9, 0.0, 2024-01-27 15:55:07.202
10.0, -395.8908497095108, -428.6822925209999, -370.2800148129463, -235.5239396095276, 0.09600000455975533, -0.03200000151991844, 1.008000047877431, 0.0, 0.0, 0.0, 0.0, 0.0, 1.7063889072025168E9, 0.0, 2024-01-27 15:55:07.202
11.0, -373.15225797891617, -438.4957900047302, -395.4121425151825, -188.13192737102509, 0.09600000455975533, -0.04800000227987766, 1.008000047877431, 0.0, 0.0, 0.0, 0.0, 0.0, 1.706388907216319E9, 0.0, 2024-01-27 15:55:07.216
11.0, -483.25491267442703, -430.59712129831314, -351.84978783130646, -253.95416659116745, 0.09600000455975533, -0.04800000227987766, 1.008000047877431, 0.0, 0.0, 0.0, 0.0, 0.0, 1.706388907216319E9, 0.0, 2024-01-27 15:55:07.216
12.0, -435.86290043592453, -422.9378061890602, -343.9511191248894, -260.8954209089279, 0.09600000455975533, -0.04800000227987766, 1.008000047877431, 0.0, 0.0, 0.0, 0.0, 0.0, 1.7063889072321203E9, 0.0, 2024-01-27 15:55:07.232
12.0, -343.7117655277252, -439.45320439338684, -393.7366673350334, -188.13192737102509, 0.09600000455975533, -0.04800000227987766, 1.008000047877431, 0.0, 0.0, 0.0, 0.0, 0.0, 1.7063889072321203E9, 0.0, 2024-01-27 15:55:07.232
13.0, -449.9847626686096, -437.5383756160736, -374.5883795619011, -229.06139248609543, 0.09600000455975533, -0.04800000227987766, 1.008000047877431, 0.0, 0.0, 0.0, 0.0, 0.0, 1.706388907232616E9, 0.0, 2024-01-27 15:55:07.232
13.0, -482.2974982857704, -433.9480716586113, -350.41366624832153, -284.59142702817917, 0.09600000455975533, -0.04800000227987766, 1.008000047877431, 0.0, 0.0, 0.0, 0.0, 0.0, 1.706388907232616E9, 0.0, 2024-01-27 15:55:07.232
14.0, -373.3916115760803, -448.0699338912964, -393.49731373786926, -216.37565183639526, 0.09600000455975533, -0.04800000227987766, 1.008000047877431, 0.0, 0.0, 0.0, 0.0, 0.0, 1.7063889072461534E9, 0.0, 2024-01-27 15:55:07.246
14.0, -411.4488335251808, -445.19769072532654, -394.4547281265259, -209.9131047129631, 0.09600000455975533, -0.04800000227987766, 1.008000047877431, 0.0, 0.0, 0.0, 0.0, 0.0, 1.7063889072461534E9, 0.0, 2024-01-27 15:55:07.246
15.0, -503.360614836216, -435.3841932415962, -353.52526301145554, -286.0275486111641, 0.09600000455975533, -0.04800000227987766, 1.008000047877431, 0.0, 0.0, 0.0, 0.0, 0.0, 1.7063889072617545E9, 0.0, 2024-01-27 15:55:07.261
15.0, -404.7469328045845, -445.4370443224907, -376.26385474205017, -242.7045475244522, 0.09600000455975533, -0.04800000227987766, 1.008000047877431, 0.0, 0.0, 0.0, 0.0, 0.0, 1.7063889072617545E9, 0.0, 2024-01-27 15:55:07.261
16.0, -389.42830258607864, -468.8936968445778, -411.9275407195091, -202.49314320087433, 0.09600000455975533, -0.04800000227987766, 1.008000047877431, 0.0, 0.0, 0.0, 0.0, 0.0, 1.706388907262572E9, 0.0, 2024-01-27 15:55:07.262
16.0, -523.7056705951691, -468.65434324741364, -387.27412021160126, -281.240476667881, 0.09600000455975533, -0.04800000227987766, 1.008000047877431, 0.0, 0.0, 0.0, 0.0, 0.0, 1.706388907262572E9, 0.0, 2024-01-27 15:55:07.262
17.0, -477.031719148159, -458.8408457636833, -376.024501144886, -284.11271983385086, 0.09600000455975533, -0.04800000227987766, 1.008000047877431, 0.0, 0.0, 0.0, 0.0, 0.0, 1.7063889072763722E9, 0.0, 2024-01-27 15:55:07.276
17.0, -377.93932992219925, -462.1917961239815, -414.5604302883148, -200.33896082639694, 0.09600000455975533, -0.04800000227987766, 1.008000047877431, 0.0, 0.0, 0.0, 0.0, 0.0, 1.7063889072763722E9, 0.0, 2024-01-27 15:55:07.276
18.0, -477.51042634248734, -462.43114972114563, -393.49731373786926, -243.90131551027298, 0.09600000455975533, -0.04800000227987766, 1.008000047877431, 0.0, 0.0, 0.0, 0.0, 0.0, 1.7063889072920313E9, 0.0, 2024-01-27 15:55:07.292
18.0, -498.33418929576874, -449.027348279953, -362.38134610652924, -292.96880292892456, 0.09600000455975533, -0.04800000227987766, 1.008000047877431, 0.0, 0.0, 0.0, 0.0, 0.0, 1.7063889072920313E9, 0.0, 2024-01-27 15:55:07.292
19.0, -371.4767827987671, -448.5486410856247, -389.42830258607864, -211.34922629594803, 0.09600000455975533, -0.04800000227987766, 1.008000047877431, 0.0, 0.0, 0.0, 0.0, 0.0, 1.7063889072927368E9, 0.0, 2024-01-27 15:55:07.292
19.0, -403.3108112215996, -439.2138507962227, -385.11993783712387, -196.98801046609879, 0.09600000455975533, -0.04800000227987766, 1.008000047877431, 0.0, 0.0, 0.0, 0.0, 0.0, 1.7063889072927368E9, 0.0, 2024-01-27 15:55:07.292
20.0, -500.24901807308197, -431.55453568696976, -345.14788711071014, -276.2140511274338, 0.09600000455975533, -0.04800000227987766, 0.9920000471174717, 0.0, 0.0, 0.0, 0.0, 0.0, 1.7063889073062155E9, 0.0, 2024-01-27 15:55:07.306
20.0, -412.88495510816574, -445.4370443224907, -372.4341971874237, -242.7045475244522, 0.09600000455975533, -0.04800000227987766, 0.9920000471174717, 0.0, 0.0, 0.0, 0.0, 0.0, 1.7063889073062155E9, 0.0, 2024-01-27 15:55:07.306
21.0, -388.7102417945862, -452.85700583457947, -407.3798223733902, -198.66348564624786, 0.09600000455975533, -0.04800000227987766, 0.9920000471174717, 0.0, 0.0, 0.0, 0.0, 0.0, 1.7063889073217525E9, 0.0, 2024-01-27 15:55:07.321
21.0, -499.0522500872612, -441.8467403650284, -367.40777164697647, -270.9482719898224, 0.09600000455975533, -0.04800000227987766, 0.9920000471174717, 0.0, 0.0, 0.0, 0.0, 0.0, 1.7063889073217525E9, 0.0, 2024-01-27 15:55:07.321
22.0, -457.64407777786255, -441.1286795735359, -368.12583243846893, -270.9482719898224, 0.09600000455975533, -0.04800000227987766, 0.9920000471174717, 0.0, 0.0, 0.0, 0.0, 0.0, 1.7063889073227043E9, 0.0, 2024-01-27 15:55:07.322
22.0, -373.6309651732445, -463.86727130413055, -412.40624791383743, -202.97185039520264, 0.09600000455975533, -0.04800000227987766, 0.9920000471174717, 0.0, 0.0, 0.0, 0.0, 0.0, 1.7063889073227043E9, 0.0, 2024-01-27 15:55:07.322
23.0, -466.2608072757721, -453.3357130289078, -385.359291434288, -241.02907234430313, 0.09600000455975533, -0.04800000227987766, 0.9920000471174717, 0.0, 0.0, 0.0, 0.0, 0.0, 1.706388907336066E9, 0.0, 2024-01-27 15:55:07.336
23.0, -489.2387526035309, -441.3680331707001, -359.9878101348877, -291.7720349431038, 0.09600000455975533, -0.04800000227987766, 0.9920000471174717, 0.0, 0.0, 0.0, 0.0, 0.0, 1.706388907336066E9, 0.0, 2024-01-27 15:55:07.336
24.0, -369.08324682712555, -443.2828619480133, -381.7689874768257, -205.12603276968002, 0.09600000455975533, -0.04800000227987766, 0.9920000471174717, 0.0, 0.0, 0.0, 0.0, 0.0, 1.706388907352105E9, 0.0, 2024-01-27 15:55:07.352
24.0, -421.5016846060753, -453.3357130289078, -394.69408172369003, -212.30664068460464, 0.09600000455975533, -0.04800000227987766, 0.9920000471174717, 0.0, 0.0, 0.0, 0.0, 0.0, 1.706388907352105E9, 0.0, 2024-01-27 15:55:07.352
25.0, -522.5089026093483, -455.7292490005493, -370.2800148129463, -296.08039969205856, 0.09600000455975533, -0.04800000227987766, 0.9920000471174717, 0.0, 0.0, 0.0, 0.0, 0.0, 1.7063889073524656E9, 0.0, 2024-01-27 15:55:07.352
25.0, -414.5604302883148, -450.94217705726624, -385.83799862861633, -248.20968025922775, 0.09600000455975533, -0.04800000227987766, 0.9920000471174717, 0.0, 0.0, 0.0, 0.0, 0.0, 1.7063889073524656E9, 0.0, 2024-01-27 15:55:07.352
26.0, -380.09351229667664, -452.6176522374153, -400.1992144584656, -191.96158492565155, 0.09600000455975533, -0.04800000227987766, 0.9920000471174717, 0.0, 0.0, 0.0, 0.0, 0.0, 1.7063889073830073E9, 0.0, 2024-01-27 15:55:07.383
26.0, -487.0845702290535, -436.580961227417, -360.466517329216, -255.15093457698822, 0.09600000455975533, -0.04800000227987766, 0.9920000471174717, 0.0, 0.0, 0.0, 0.0, 0.0, 1.7063889073830073E9, 0.0, 2024-01-27 15:55:07.383
27.0, -455.96860259771347, -443.52221554517746, -364.7748820781708, -275.25663673877716, 0.09600000455975533, -0.04800000227987766, 0.9920000471174717, 0.0, 0.0, 0.0, 0.0, 0.0, 1.7063889073832655E9, 0.0, 2024-01-27 15:55:07.383
27.0, -368.60453963279724, -459.79826015233994, -409.29465115070343, -200.33896082639694, 0.09600000455975533, -0.04800000227987766, 0.9920000471174717, 0.0, 0.0, 0.0, 0.0, 0.0, 1.7063889073832655E9, 0.0, 2024-01-27 15:55:07.383
28.0, -464.585332095623, -446.63381230831146, -377.93932992219925, -231.93363565206528, 0.09600000455975533, -0.04800000227987766, 0.9920000471174717, 0.0, 0.0, 0.0, 0.0, 0.0, 1.7063889073840168E9, 0.0, 2024-01-27 15:55:07.384
28.0, -476.7923655509949, -432.9906572699547, -345.14788711071014, -275.9746975302696, 0.09600000455975533, -0.04800000227987766, 0.9920000471174717, 0.0, 0.0, 0.0, 0.0, 0.0, 1.7063889073840168E9, 0.0, 2024-01-27 15:55:07.384
29.0, -359.26974934339523, -440.41061878204346, -379.13609790802, -197.70607125759125, 0.09600000455975533, -0.04800000227987766, 0.9920000471174717, 0.0, 0.0, 0.0, 0.0, 0.0, 1.7063889073961012E9, 0.0, 2024-01-27 15:55:07.396
29.0, -426.0494029521942, -455.96860259771347, -384.4018770456314, -198.90283924341202, 0.09600000455975533, -0.04800000227987766, 0.9920000471174717, 0.0, 0.0, 0.0, 0.0, 0.0, 1.7063889073961012E9, 0.0, 2024-01-27 15:55:07.396
30.0, -517.7218306660652, -443.52221554517746, -356.3975061774254, -283.8733662366867, 0.09600000455975533, -0.04800000227987766, 0.9920000471174717, 0.0, 0.0, 0.0, 0.0, 0.0, 1.7063889074119184E9, 0.0, 2024-01-27 15:55:07.411
30.0, -407.61917597055435, -447.83058029413223, -378.89674431085587, -241.02907234430313, 0.09600000455975533, -0.04800000227987766, 0.9920000471174717, 0.0, 0.0, 0.0, 0.0, 0.0, 1.7063889074119184E9, 0.0, 2024-01-27 15:55:07.411
31.0, -392.06119215488434, -457.16537058353424, -402.1140432357788, -197.70607125759125, 0.09600000455975533, -0.04800000227987766, 0.9920000471174717, 0.0, 0.0, 0.0, 0.0, 0.0, 1.706388907412578E9, 0.0, 2024-01-27 15:55:07.412
31.0, -503.1212612390518, -446.15510511398315, -366.45035725831985, -263.5283104777336, 0.09600000455975533, -0.04800000227987766, 0.9920000471174717, 0.0, 0.0, 0.0, 0.0, 0.0, 1.706388907412578E9, 0.0, 2024-01-27 15:55:07.412
32.0, -453.8144202232361, -444.4796299338341, -362.6206997036934, -265.92184644937515, 0.09600000455975533, -0.04800000227987766, 0.9920000471174717, 0.0, 0.0, 0.0, 0.0, 0.0, 1.7063889074261315E9, 0.0, 2024-01-27 15:55:07.426
32.0, -361.9026389122009, -452.85700583457947, -392.53989934921265, -187.65322017669678, 0.09600000455975533, -0.04800000227987766, 0.9920000471174717, 0.0, 0.0, 0.0, 0.0, 0.0, 1.7063889074261315E9, 0.0, 2024-01-27 15:55:07.426
33.0, -459.5589065551758, -440.41061878204346, -369.56195402145386, -222.35949176549911, 0.09600000455975533, -0.04800000227987766, 0.9920000471174717, 0.0, 0.0, 0.0, 0.0, 0.0, 1.7063889074418821E9, 0.0, 2024-01-27 15:55:07.441
33.0, -486.84521663188934, -440.6499723792076, -348.73819106817245, -281.7191838622093, 0.09600000455975533, -0.04800000227987766, 0.9920000471174717, 0.0, 0.0, 0.0, 0.0, 0.0, 1.7063889074418821E9, 0.0, 2024-01-27 15:55:07.441
34.0, -368.12583243846893, -447.3518730998039, -391.8218385577202, -210.87051910161972, 0.09600000455975533, -0.04800000227987766, 0.9920000471174717, 0.0, 0.0, 0.0, 0.0, 0.0, 1.706388907442637E9, 0.0, 2024-01-27 15:55:07.442
34.0, -417.1933198571205, -452.85700583457947, -397.0876176953316, -209.4343975186348, 0.09600000455975533, -0.04800000227987766, 0.9920000471174717, 0.0, 0.0, 0.0, 0.0, 0.0, 1.706388907442637E9, 0.0, 2024-01-27 15:55:07.442
35.0, -506.9509187936783, -434.66613245010376, -348.25948387384415, -282.9159518480301, 0.09600000455975533, -0.04800000227987766, 0.9920000471174717, 0.0, 0.0, 0.0, 0.0, 0.0, 1.7063889074564419E9, 0.0, 2024-01-27 15:55:07.456
35.0, -399.4811536669731, -432.7513036727905, -367.40777164697647, -234.80587881803513, 0.09600000455975533, -0.04800000227987766, 0.9920000471174717, 0.0, 0.0, 0.0, 0.0, 0.0, 1.7063889074564419E9, 0.0, 2024-01-27 15:55:07.456
36.0, -387.0347666144371, -455.48989540338516, -403.7895184159279, -196.74865686893463, 0.09600000455975533, -0.04800000227987766, 0.9920000471174717, 0.0, 0.0, 0.0, 0.0, 0.0, 1.706388907472876E9, 0.0, 2024-01-27 15:55:07.472
36.0, -492.3503493666649, -436.580961227417, -357.59427416324615, -264.0070176720619, 0.09600000455975533, -0.04800000227987766, 0.9920000471174717, 0.0, 0.0, 0.0, 0.0, 0.0, 1.706388907472876E9, 0.0, 2024-01-27 15:55:07.472
37.0, -448.0699338912964, -436.82031482458115, -366.45035725831985, -273.1024543642998, 0.09600000455975533, -0.04800000227987766, 0.9920000471174717, 0.0, 0.0, 0.0, 0.0, 0.0, 1.7063889074867675E9, 0.0, 2024-01-27 15:55:07.486
37.0, -366.45035725831985, -455.01118820905685, -405.7043471932411, -195.79124248027802, 0.09600000455975533, -0.04800000227987766, 0.9920000471174717, 0.0, 0.0, 0.0, 0.0, 0.0, 1.7063889074867675E9, 0.0, 2024-01-27 15:55:07.486
38.0, -459.5589065551758, -439.93191158771515, -380.57221949100494, -235.76329320669174, 0.09600000455975533, -0.04800000227987766, 0.9920000471174717, 0.0, 0.0, 0.0, 0.0, 0.0, 1.70638890748749E9, 0.0, 2024-01-27 15:55:07.487
38.0, -487.0845702290535, -437.0596684217453, -359.74845653772354, -292.49009573459625, 0.09600000455975533, -0.04800000227987766, 0.9920000471174717, 0.0, 0.0, 0.0, 0.0, 0.0, 1.70638890748749E9, 0.0, 2024-01-27 15:55:07.487
39.0, -375.0670867562294, -451.1815306544304, -398.5237392783165, -218.7691878080368, 0.09600000455975533, -0.04800000227987766, 0.9920000471174717, 0.0, 0.0, 0.0, 0.0, 0.0, 1.7063889075017922E9, 0.0, 2024-01-27 15:55:07.501
39.0, -422.9378061890602, -456.68666338920593, -402.83210402727127, -217.57241982221603, 0.09600000455975533, -0.04800000227987766, 0.9920000471174717, 0.0, 0.0, 0.0, 0.0, 0.0, 1.7063889075017922E9, 0.0, 2024-01-27 15:55:07.501
40.0, -514.3708803057671, -441.6073867678642, -361.4239317178726, -296.55910688638687, 0.09600000455975533, -0.04800000227987766, 0.9920000471174717, 0.0, 0.0, 0.0, 0.0, 0.0, 1.7063889075024407E9, 0.0, 2024-01-27 15:55:07.502
40.0, -414.0817230939865, -447.5912266969681, -374.34902596473694, -242.2258403301239, 0.09600000455975533, -0.04800000227987766, 0.9920000471174717, 0.0, 0.0, 0.0, 0.0, 0.0, 1.7063889075024407E9, 0.0, 2024-01-27 15:55:07.502
41.0, -375.0670867562294, -441.3680331707001, -393.97602093219757, -185.9777449965477, 0.09600000455975533, -0.04800000227987766, 0.9920000471174717, 0.0, 0.0, 0.0, 0.0, 0.0, 1.7063889075163164E9, 0.0, 2024-01-27 15:55:07.516
41.0, -511.0199299454689, -452.138945043087, -368.3651860356331, -269.51215040683746, 0.09600000455975533, -0.04800000227987766, 0.9920000471174717, 0.0, 0.0, 0.0, 0.0, 0.0, 1.7063889075163164E9, 0.0, 2024-01-27 15:55:07.516
42.0, -460.75567454099655, -437.29902201890945, -348.25948387384415, -257.06576335430145, 0.09600000455975533, -0.04800000227987766, 0.9920000471174717, 0.0, 0.0, 0.0, 0.0, 0.0, 1.7063889075324218E9, 0.0, 2024-01-27 15:55:07.532
42.0, -371.4767827987671, -445.4370443224907, -396.8482640981674, -183.58420902490616, 0.09600000455975533, -0.04800000227987766, 0.9920000471174717, 0.0, 0.0, 0.0, 0.0, 0.0, 1.7063889075324218E9, 0.0, 2024-01-27 15:55:07.532
43.0, -468.1756360530853, -438.0170828104019, -376.26385474205017, -227.1465637087822, 0.09600000455975533, -0.04800000227987766, 0.9920000471174717, 0.0, 0.0, 0.0, 0.0, 0.0, 1.7063889075331376E9, 0.0, 2024-01-27 15:55:07.533
43.0, -487.32392382621765, -430.59712129831314, -336.0524504184723, -266.87926083803177, 0.09600000455975533, -0.04800000227987766, 0.9920000471174717, 0.0, 0.0, 0.0, 0.0, 0.0, 1.7063889075331376E9, 0.0, 2024-01-27 15:55:07.533
44.0, -375.78514754772186, -445.915751516819, -375.0670867562294, -192.44029211997986, 0.09600000455975533, -0.04800000227987766, 0.9920000471174717, 0.0, 0.0, 0.0, 0.0, 0.0, 1.7063889075461428E9, 0.0, 2024-01-27 15:55:07.546
44.0, -424.134574174881, -451.6602378487587, -390.86442416906357, -195.79124248027802, 0.09600000455975533, -0.04800000227987766, 0.9920000471174717, 0.0, 0.0, 0.0, 0.0, 0.0, 1.7063889075461428E9, 0.0, 2024-01-27 15:55:07.546
45.0, -518.918598651886, -436.34160763025284, -338.44598639011383, -268.794089615345, 0.09600000455975533, -0.04800000227987766, 0.9920000471174717, 0.0, 0.0, 0.0, 0.0, 0.0, 1.7063889075618465E9, 0.0, 2024-01-27 15:55:07.561
45.0, -401.6353360414505, -429.8790605068207, -363.0994068980217, -225.94979572296143, 0.09600000455975533, -0.04800000227987766, 0.9920000471174717, 0.0, 0.0, 0.0, 0.0, 0.0, 1.7063889075618465E9, 0.0, 2024-01-27 15:55:07.561
46.0, -364.5355284810066, -420.54427021741867, -382.9657554626465, -174.01006513834, 0.09600000455975533, -0.04800000227987766, 0.9920000471174717, 0.0, 0.0, 0.0, 0.0, 0.0, 1.706388907562692E9, 0.0, 2024-01-27 15:55:07.562
46.0, -492.11099576950073, -433.9480716586113, -354.48267740011215, -256.347702562809, 0.09600000455975533, -0.04800000227987766, 0.9920000471174717, 0.0, 0.0, 0.0, 0.0, 0.0, 1.706388907562692E9, 0.0, 2024-01-27 15:55:07.562
47.0, -450.4634698629379, -434.9054860472679, -348.4988374710083, -254.91158097982407, 0.09600000455975533, -0.04800000227987766, 0.9920000471174717, 0.0, 0.0, 0.0, 0.0, 0.0, 1.706388907576142E9, 0.0, 2024-01-27 15:55:07.576
47.0, -352.32849502563477, -436.580961227417, -387.5134738087654, -180.233258664608, 0.09600000455975533, -0.04800000227987766, 0.9920000471174717, 0.0, 0.0, 0.0, 0.0, 0.0, 1.706388907576142E9, 0.0, 2024-01-27 15:55:07.576
48.0, -449.26670187711716, -427.48552453517914, -357.354920566082, -214.46082305908203, 0.09600000455975533, -0.04800000227987766, 0.9920000471174717, 0.0, 0.0, 0.0, 0.0, 0.0, 1.7063889075917573E9, 0.0, 2024-01-27 15:55:07.591
48.0, -486.1271558403969, -427.48552453517914, -342.7543511390686, -275.25663673877716, 0.09600000455975533, -0.04800000227987766, 0.9920000471174717, 0.0, 0.0, 0.0, 0.0, 0.0, 1.7063889075917573E9, 0.0, 2024-01-27 15:55:07.591
49.0, -364.5355284810066, -436.34160763025284, -384.16252344846725, -207.99827593564987, 0.09600000455975533, -0.04800000227987766, 0.9920000471174717, 0.0, 0.0, 0.0, 0.0, 0.0, 1.7063889075924528E9, 0.0, 2024-01-27 15:55:07.592
49.0, -411.9275407195091, -442.804154753685, -387.75282740592957, -209.67375111579895, 0.09600000455975533, -0.04800000227987766, 0.9920000471174717, 0.0, 0.0, 0.0, 0.0, 0.0, 1.7063889075924528E9, 0.0, 2024-01-27 15:55:07.592
50.0, -507.9083331823349, -429.40035331249237, -349.9349590539932, -279.8043550848961, 0.09600000455975533, -0.04800000227987766, 0.9920000471174717, 0.0, 0.0, 0.0, 0.0, 0.0, 1.706388907606112E9, 0.0, 2024-01-27 15:55:07.606
50.0, -394.2153745293617, -425.5706957578659, -359.74845653772354, -221.16272377967834, 0.09600000455975533, -0.04800000227987766, 0.9920000471174717, 0.0, 0.0, 0.0, 0.0, 0.0, 1.706388907606112E9, 0.0, 2024-01-27 15:55:07.606
51.0, -360.70587092638016, -423.8952205777168, -378.41803711652756, -168.50493240356445, 0.09600000455975533, -0.04800000227987766, 0.9920000471174717, 0.0, 0.0, 0.0, 0.0, 0.0, 1.7063889076218104E9, 0.0, 2024-01-27 15:55:07.621
51.0, -477.98913353681564, -414.32107669115067, -340.36081516742706, -242.7045475244522, 0.09600000455975533, -0.04800000227987766, 0.9920000471174717, 0.0, 0.0, 0.0, 0.0, 0.0, 1.7063889076218104E9, 0.0, 2024-01-27 15:55:07.621
52.0, -441.8467403650284, -424.134574174881, -345.8659479022026, -257.54447054862976, 0.09600000455975533, -0.04800000227987766, 0.9920000471174717, 0.0, 0.0, 0.0, 0.0, 0.0, 1.706388907622535E9, 0.0, 2024-01-27 15:55:07.622
52.0, -364.5355284810066, -450.4634698629379, -398.5237392783165, -187.17451298236847, 0.09600000455975533, -0.04800000227987766, 0.9920000471174717, 0.0, 0.0, 0.0, 0.0, 0.0, 1.706388907622535E9, 0.0, 2024-01-27 15:55:07.622
53.0, -454.7718346118927, -436.82031482458115, -373.3916115760803, -228.82203888893127, 0.09600000455975533, -0.04800000227987766, 0.9920000471174717, 0.0, 0.0, 0.0, 0.0, 0.0, 1.7063889076363444E9, 0.0, 2024-01-27 15:55:07.636
53.0, -480.62202310562134, -424.85263496637344, -341.55758315324783, -274.5385759472847, 0.09600000455975533, -0.04800000227987766, 0.9920000471174717, 0.0, 0.0, 0.0, 0.0, 0.0, 1.7063889076363444E9, 0.0, 2024-01-27 15:55:07.636
54.0, -375.5457939505577, -446.3944587111473, -390.38571697473526, -207.2802151441574, 0.09600000455975533, -0.04800000227987766, 0.9920000471174717, 0.0, 0.0, 0.0, 0.0, 0.0, 1.7063889076525252E9, 0.0, 2024-01-27 15:55:07.652
54.0, -419.8262094259262, -447.3518730998039, -393.01860654354095, -206.3228007555008, 0.09600000455975533, -0.04800000227987766, 0.9920000471174717, 0.0, 0.0, 0.0, 0.0, 0.0, 1.7063889076525252E9, 0.0, 2024-01-27 15:55:07.652
55.0, -505.2754436135292, -428.6822925209999, -346.10530149936676, -275.017283141613, 0.09600000455975533, -0.04800000227987766, 0.9920000471174717, 0.0, 0.0, 0.0, 0.0, 0.0, 1.7063889076526124E9, 0.0, 2024-01-27 15:55:07.652
55.0, -404.50757920742035, -443.2828619480133, -376.024501144886, -237.91747558116913, 0.09600000455975533, -0.04800000227987766, 0.9920000471174717, 0.0, 0.0, 0.0, 0.0, 0.0, 1.7063889076526124E9, 0.0, 2024-01-27 15:55:07.652
56.0, -397.0876176953316, -466.2608072757721, -413.1243087053299, -199.38154643774033, 0.09600000455975533, -0.04800000227987766, 0.9920000471174717, 0.0, 0.0, 0.0, 0.0, 0.0, 1.7063889076661437E9, 0.0, 2024-01-27 15:55:07.666
56.0, -510.5412227511406, -453.8144202232361, -370.2800148129463, -268.55473601818085, 0.09600000455975533, -0.04800000227987766, 0.9920000471174717, 0.0, 0.0, 0.0, 0.0, 0.0, 1.7063889076661437E9, 0.0, 2024-01-27 15:55:07.666
57.0, -455.250541806221, -442.08609396219254, -355.6794453859329, -263.5283104777336, 0.09600000455975533, -0.04800000227987766, 0.9920000471174717, 0.0, 0.0, 0.0, 0.0, 0.0, 1.7063889076821475E9, 0.0, 2024-01-27 15:55:07.682
57.0, -362.1419925093651, -451.1815306544304, -399.24180006980896, -182.62679463624954, 0.09600000455975533, -0.04800000227987766, 0.9920000471174717, 0.0, 0.0, 0.0, 0.0, 0.0, 1.7063889076821475E9, 0.0, 2024-01-27 15:55:07.682
58.0, -474.6381831765175, -448.5486410856247, -382.00834107398987, -234.08781802654266, 0.09600000455975533, -0.04800000227987766, 0.9920000471174717, 0.0, 0.0, 0.0, 0.0, 0.0, 1.7063889076969807E9, 0.0, 2024-01-27 15:55:07.696
58.0, -492.3503493666649, -439.2138507962227, -349.4562518596649, -278.36823350191116, 0.09600000455975533, -0.04800000227987766, 0.9920000471174717, 0.0, 0.0, 0.0, 0.0, 0.0, 1.7063889076969807E9, 0.0, 2024-01-27 15:55:07.696
59.0, -364.0568212866783, -439.2138507962227, -388.94959539175034, -204.64732557535172, 0.09600000455975533, -0.04800000227987766, 0.9920000471174717, 0.0, 0.0, 0.0, 0.0, 0.0, 1.7063889076975665E9, 0.0, 2024-01-27 15:55:07.697
59.0, -413.36366230249405, -441.3680331707001, -385.83799862861633, -197.9454248547554, 0.09600000455975533, -0.04800000227987766, 0.9920000471174717, 0.0, 0.0, 0.0, 0.0, 0.0, 1.7063889076975665E9, 0.0, 2024-01-27 15:55:07.697
60.0, -509.583808362484, -438.25643640756607, -340.83952236175537, -271.905686378479, 0.09600000455975533, -0.04800000227987766, 0.9920000471174717, 0.0, 0.0, 0.0, 0.0, 0.0, 1.7063889077116385E9, 0.0, 2024-01-27 15:55:07.711
60.0, -409.77335834503174, -438.7351436018944, -370.5193684101105, -232.17298924922943, 0.09600000455975533, -0.04800000227987766, 0.9920000471174717, 0.0, 0.0, 0.0, 0.0, 0.0, 1.7063889077116385E9, 0.0, 2024-01-27 15:55:07.711
61.0, -387.27412021160126, -454.53248101472855, -403.55016481876373, -188.84998816251755, 0.09600000455975533, -0.04800000227987766, 0.9920000471174717, 0.0, 0.0, 0.0, 0.0, 0.0, 1.7063889077271693E9, 0.0, 2024-01-27 15:55:07.727
61.0, -499.29160368442535, -441.1286795735359, -359.26974934339523, -262.0921888947487, 0.09600000455975533, -0.04800000227987766, 0.9920000471174717, 0.0, 0.0, 0.0, 0.0, 0.0, 1.7063889077271693E9, 0.0, 2024-01-27 15:55:07.727
62.0, -442.3254475593567, -431.3151820898056, -348.9775446653366, -257.54447054862976, 0.09600000455975533, -0.04800000227987766, 0.9920000471174717, 0.0, 0.0, 0.0, 0.0, 0.0, 1.7063889077438655E9, 0.0, 2024-01-27 15:55:07.743
62.0, -353.52526301145554, -440.41061878204346, -399.24180006980896, -185.25968420505524, 0.09600000455975533, -0.04800000227987766, 0.9920000471174717, 0.0, 0.0, 0.0, 0.0, 0.0, 1.7063889077438655E9, 0.0, 2024-01-27 15:55:07.743
63.0, -456.9260169863701, -431.55453568696976, -372.4341971874237, -226.42850291728973, 0.09600000455975533, -0.04800000227987766, 0.9920000471174717, 0.0, 0.0, 0.0, 0.0, 0.0, 1.706388907744547E9, 0.0, 2024-01-27 15:55:07.744
63.0, -470.3298184275627, -423.4165133833885, -337.24921840429306, -267.3579680323601, 0.09600000455975533, -0.04800000227987766, 0.9920000471174717, 0.0, 0.0, 0.0, 0.0, 0.0, 1.706388907744547E9, 0.0, 2024-01-27 15:55:07.744
64.0, -370.7587220072746, -444.4796299338341, -387.27412021160126, -198.18477845191956, 0.09600000455975533, -0.04800000227987766, 0.9920000471174717, 0.0, 0.0, 0.0, 0.0, 0.0, 1.70638890774537E9, 0.0, 2024-01-27 15:55:07.745
64.0, -414.32107669115067, -441.8467403650284, -387.5134738087654, -196.74865686893463, 0.09600000455975533, -0.04800000227987766, 0.9920000471174717, 0.0, 0.0, 0.0, 0.0, 0.0, 1.70638890774537E9, 0.0, 2024-01-27 15:55:07.745
