%OpenBCI Raw EXG Data
%Number of channels = 4
%Sample Rate = 200 Hz
%Board = OpenBCI_GUI$BoardGanglionBLE
Sample Index, EXG Channel 0, EXG Channel 1, EXG Channel 2, EXG Channel 3, Accel Channel 0, Accel Channel 1, Accel Channel 2, Other, Other, Other, Other, Other, Timestamp, Other, Timestamp (Formatted)
68.0, -562.2415997385979, -671.147486448288, -519.1579522490501, -423.6558669805527, 0.0, 0.0, 0.0, 0.0, 0.0, 0.0, 0.0, 0.0, 1.7063879310492177E9, 0.0, 2024-01-27 15:38:51.049
68.0, 0.0, 0.0, 0.0, 0.0, 0.0, 0.0, 0.0, 0.0, 0.0, 0.0, 0.0, 0.0, 1.7063879310492177E9, 0.0, 2024-01-27 15:38:51.049
0.0, -425.0919885635376, -667.0784752964973, -535.1946432590485, -232.41234284639359, 0.0, 0.0, 0.9920000471174717, 0.0, 0.0, 0.0, 0.0, 0.0, 1.7063879310846653E9, 0.0, 2024-01-27 15:38:51.084
0.0, -556.4971134066582, -677.6100335717201, -527.5353281497955, -402.83210402727127, 0.0, 0.0, 0.9920000471174717, 0.0, 0.0, 0.0, 0.0, 0.0, 1.7063879310846653E9, 0.0, 2024-01-27 15:38:51.084
1.0, -550.034566283226, -690.0564206242561, -532.0830464959145, -442.804154753685, 0.0, -0.9920000471174717, 0.9920000471174717, 0.0, 0.0, 0.0, 0.0, 0.0, 1.7063879310993428E9, 0.0, 2024-01-27 15:38:51.099
1.0, -421.26233100891113, -670.4294256567955, -544.2900799512863, -254.6722273826599, 0.0, -0.9920000471174717, 0.9920000471174717, 0.0, 0.0, 0.0, 0.0, 0.0, 1.7063879310993428E9, 0.0, 2024-01-27 15:38:51.099
2.0, -520.5940738320351, -679.5248623490334, -540.4604223966599, -331.7440856695175, -0.9920000471174717, -0.9920000471174717, 0.9920000471174717, 0.0, 0.0, 0.0, 0.0, 0.0, 1.7063879311138053E9, 0.0, 2024-01-27 15:38:51.113
2.0, -596.708517730236, -697.4763821363449, -529.9288641214371, -474.1594759821892, -0.9920000471174717, -0.9920000471174717, 0.9920000471174717, 0.0, 0.0, 0.0, 0.0, 0.0, 1.7063879311138053E9, 0.0, 2024-01-27 15:38:51.113
3.0, -451.42088425159454, -683.1151663064957, -541.1784831881523, -311.87773710489273, -0.9920000471174717, -0.9920000471174717, 0.9920000471174717, 0.0, 0.0, 0.0, 0.0, 0.0, 1.7063879311145103E9, 0.0, 2024-01-27 15:38:51.114
3.0, -455.250541806221, -668.035889685154, -534.9552896618843, -264.4857248663902, -0.9920000471174717, -0.9920000471174717, 0.9920000471174717, 0.0, 0.0, 0.0, 0.0, 0.0, 1.7063879311145103E9, 0.0, 2024-01-27 15:38:51.114
4.0, -582.1079483032227, -676.8919727802277, -518.6792450547218, -459.5589065551758, -0.9920000471174717, -0.9920000471174717, 0.9920000471174717, 0.0, 0.0, 0.0, 0.0, 0.0, 1.7063879311283607E9, 0.0, 2024-01-27 15:38:51.128
4.0, -492.58970296382904, -679.7642159461975, -519.3973058462143, -369.3226004242897, -0.9920000471174717, -0.9920000471174717, 0.9920000471174717, 0.0, 0.0, 0.0, 0.0, 0.0, 1.7063879311283607E9, 0.0, 2024-01-27 15:38:51.128
5.0, -419.8262094259262, -658.4617457985878, -537.58817923069, -234.08781802654266, -0.9920000471174717, -0.9920000471174717, 0.9920000471174717, 0.0, 0.0, 0.0, 0.0, 0.0, 1.706387931143872E9, 0.0, 2024-01-27 15:38:51.143
5.0, -559.1300029754639, -674.0197296142578, -517.7218306660652, -392.7792529463768, -0.9920000471174717, -0.9920000471174717, 0.9920000471174717, 0.0, 0.0, 0.0, 0.0, 0.0, 1.706387931143872E9, 0.0, 2024-01-27 15:38:51.143
6.0, -556.4971134066582, -691.9712494015694, -522.2695490121841, -438.4957900047302, -0.9920000471174717, -0.9920000471174717, 0.9920000471174717, 0.0, 0.0, 0.0, 0.0, 0.0, 1.7063879311446612E9, 0.0, 2024-01-27 15:38:51.144
6.0, -425.33134216070175, -670.6687792539597, -538.0668864250183, -248.20968025922775, -0.9920000471174717, -0.9920000471174717, 0.9920000471174717, 0.0, 0.0, 0.0, 0.0, 0.0, 1.7063879311446612E9, 0.0, 2024-01-27 15:38:51.144
7.0, -508.62639397382736, -667.5571824908257, -528.0140353441238, -325.28153854608536, -0.9920000471174717, -0.9920000471174717, 0.9920000471174717, 0.0, 0.0, 0.0, 0.0, 0.0, 1.706387931158367E9, 0.0, 2024-01-27 15:38:51.158
7.0, -590.7246778011322, -697.7157357335091, -527.5353281497955, -471.5265864133835, -0.9920000471174717, -0.9920000471174717, 0.9920000471174717, 0.0, 0.0, 0.0, 0.0, 0.0, 1.706387931158367E9, 0.0, 2024-01-27 15:38:51.158
8.0, -456.2079561948776, -683.1151663064957, -532.3224000930786, -305.8938971757889, -0.9920000471174717, -0.9920000471174717, 0.9920000471174717, 0.0, 0.0, 0.0, 0.0, 0.0, 1.706387931173824E9, 0.0, 2024-01-27 15:38:51.173
8.0, -458.60149216651917, -663.2488177418709, -533.7585216760635, -262.33154249191284, -0.9920000471174717, -0.9920000471174717, 0.9920000471174717, 0.0, 0.0, 0.0, 0.0, 0.0, 1.706387931173824E9, 0.0, 2024-01-27 15:38:51.173
9.0, -587.1343738436699, -678.5674479603767, -516.5250626802444, -449.027348279953, -0.9920000471174717, -0.9920000471174717, 0.9920000471174717, 0.0, 0.0, 0.0, 0.0, 0.0, 1.7063879311745384E9, 0.0, 2024-01-27 15:38:51.174
9.0, -493.06841015815735, -678.3280943632126, -517.9611842632294, -372.912904381752, -0.9920000471174717, -0.9920000471174717, 0.9920000471174717, 0.0, 0.0, 0.0, 0.0, 0.0, 1.7063879311745384E9, 0.0, 2024-01-27 15:38:51.174
10.0, -420.3049166202545, -656.7862706184387, -534.7159360647202, -232.17298924922943, -0.9920000471174717, -0.9920000471174717, 0.6240000296384096, 0.0, 0.0, 0.0, 0.0, 0.0, 1.7063879311881251E9, 0.0, 2024-01-27 15:38:51.188
10.0, -549.7952126860619, -670.9081328511238, -520.8334274291992, -392.3005457520485, -0.9920000471174717, -0.9920000471174717, 0.6240000296384096, 0.0, 0.0, 0.0, 0.0, 0.0, 1.7063879311881251E9, 0.0, 2024-01-27 15:38:51.188
11.0, -549.7952126860619, -690.2957742214203, -522.03019541502, -437.77772921323776, -0.9920000471174717, -0.6240000296384096, 0.6240000296384096, 0.0, 0.0, 0.0, 0.0, 0.0, 1.706387931203617E9, 0.0, 2024-01-27 15:38:51.203
11.0, -424.37392777204514, -675.4558511972427, -539.9817152023315, -253.236105799675, -0.9920000471174717, -0.6240000296384096, 0.6240000296384096, 0.0, 0.0, 0.0, 0.0, 0.0, 1.706387931203617E9, 0.0, 2024-01-27 15:38:51.203
12.0, -513.8921731114388, -672.5836080312729, -531.364985704422, -331.50473207235336, -0.6240000296384096, -0.6240000296384096, 0.6240000296384096, 0.0, 0.0, 0.0, 0.0, 0.0, 1.7063879312188764E9, 0.0, 2024-01-27 15:38:51.218
12.0, -584.0227770805359, -689.0990062355995, -523.9450241923332, -475.1168903708458, -0.6240000296384096, -0.6240000296384096, 0.6240000296384096, 0.0, 0.0, 0.0, 0.0, 0.0, 1.7063879312188764E9, 0.0, 2024-01-27 15:38:51.218
13.0, -457.4047241806984, -681.2003375291824, -531.8436928987503, -309.0054939389229, -0.6240000296384096, -0.6240000296384096, 0.6240000296384096, 0.0, 0.0, 0.0, 0.0, 0.0, 1.706387931219536E9, 0.0, 2024-01-27 15:38:51.219
13.0, -464.82468569278717, -671.6261936426163, -538.5455936193466, -262.81024968624115, -0.6240000296384096, -0.6240000296384096, 0.6240000296384096, 0.0, 0.0, 0.0, 0.0, 0.0, 1.706387931219536E9, 0.0, 2024-01-27 15:38:51.219
14.0, -595.9904569387436, -692.6893101930618, -531.6043393015862, -469.3724040389061, -0.6240000296384096, -0.6240000296384096, 0.6240000296384096, 0.0, 0.0, 0.0, 0.0, 0.0, 1.7063879312342105E9, 0.0, 2024-01-27 15:38:51.234
14.0, -505.03609001636505, -690.2957742214203, -540.9391295909882, -388.470888197422, -0.6240000296384096, -0.6240000296384096, 0.6240000296384096, 0.0, 0.0, 0.0, 0.0, 0.0, 1.7063879312342105E9, 0.0, 2024-01-27 15:38:51.234
15.0, -427.246170938015, -668.2752432823181, -540.9391295909882, -239.35359716415405, -0.6240000296384096, -0.6240000296384096, 0.6240000296384096, 0.0, 0.0, 0.0, 0.0, 0.0, 1.7063879312346275E9, 0.0, 2024-01-27 15:38:51.234
15.0, -564.1564285159111, -681.9183983206749, -531.364985704422, -402.5927504301071, -0.6240000296384096, -0.6240000296384096, 0.6240000296384096, 0.0, 0.0, 0.0, 0.0, 0.0, 1.7063879312346275E9, 0.0, 2024-01-27 15:38:51.234
16.0, -559.1300029754639, -695.3221997618675, -534.7159360647202, -450.94217705726624, -0.6240000296384096, -0.6240000296384096, 0.6240000296384096, 0.0, 0.0, 0.0, 0.0, 0.0, 1.706387931248136E9, 0.0, 2024-01-27 15:38:51.248
16.0, -430.357767701149, -679.2855087518692, -539.9817152023315, -257.06576335430145, -0.6240000296384096, -0.6240000296384096, 0.6240000296384096, 0.0, 0.0, 0.0, 0.0, 0.0, 1.706387931248136E9, 0.0, 2024-01-27 15:38:51.248
17.0, -517.4824770689011, -675.6952047944069, -536.3914112448692, -332.70150005817413, -0.6240000296384096, -0.6240000296384096, 0.6240000296384096, 0.0, 0.0, 0.0, 0.0, 0.0, 1.7063879312640164E9, 0.0, 2024-01-27 15:38:51.264
17.0, -593.1182137727737, -692.928663790226, -529.9288641214371, -484.4516806602478, -0.6240000296384096, -0.6240000296384096, 0.6240000296384096, 0.0, 0.0, 0.0, 0.0, 0.0, 1.7063879312640164E9, 0.0, 2024-01-27 15:38:51.264
18.0, -467.45757526159286, -690.0564206242561, -543.3326655626297, -310.9203227162361, -0.6240000296384096, -0.6240000296384096, 0.6240000296384096, 0.0, 0.0, 0.0, 0.0, 0.0, 1.706387931264521E9, 0.0, 2024-01-27 15:38:51.264
18.0, -472.4840008020401, -674.7377904057503, -537.8275328278542, -268.3153824210167, -0.6240000296384096, -0.6240000296384096, 0.6240000296384096, 0.0, 0.0, 0.0, 0.0, 0.0, 1.706387931264521E9, 0.0, 2024-01-27 15:38:51.264
19.0, -602.4530040621758, -685.7480558753014, -525.6204993724823, -461.23438173532486, -0.6240000296384096, -0.6240000296384096, 0.6240000296384096, 0.0, 0.0, 0.0, 0.0, 0.0, 1.70638793127845E9, 0.0, 2024-01-27 15:38:51.278
19.0, -503.5999684333801, -683.8332270979881, -526.3385601639748, -377.2212691307068, -0.6240000296384096, -0.6240000296384096, 0.6240000296384096, 0.0, 0.0, 0.0, 0.0, 0.0, 1.70638793127845E9, 0.0, 2024-01-27 15:38:51.278
20.0, -437.77772921323776, -674.7377904057503, -541.1784831881523, -241.02907234430313, -0.6240000296384096, -0.6240000296384096, 0.8160000387579203, 0.0, 0.0, 0.0, 0.0, 0.0, 1.7063879312937992E9, 0.0, 2024-01-27 15:38:51.293
20.0, -567.9860860705376, -686.705470263958, -529.9288641214371, -404.50757920742035, -0.6240000296384096, -0.6240000296384096, 0.8160000387579203, 0.0, 0.0, 0.0, 0.0, 0.0, 1.7063879312937992E9, 0.0, 2024-01-27 15:38:51.293
21.0, -560.805478155613, -694.8434925675392, -528.9714497327805, -446.15510511398315, -0.6240000296384096, -0.8160000387579203, 0.8160000387579203, 0.0, 0.0, 0.0, 0.0, 0.0, 1.706387931294511E9, 0.0, 2024-01-27 15:38:51.294
21.0, -435.14483964443207, -680.9609839320183, -543.0933119654655, -258.5018849372864, -0.6240000296384096, -0.8160000387579203, 0.8160000387579203, 0.0, 0.0, 0.0, 0.0, 0.0, 1.706387931294511E9, 0.0, 2024-01-27 15:38:51.294
22.0, -517.4824770689011, -673.3016688227654, -529.4501569271088, -325.0421849489212, -0.8160000387579203, -0.8160000387579203, 0.8160000387579203, 0.0, 0.0, 0.0, 0.0, 0.0, 1.7063879313081572E9, 0.0, 2024-01-27 15:38:51.308
22.0, -590.9640313982964, -687.9022382497787, -525.6204993724823, -472.72335439920425, -0.8160000387579203, -0.8160000387579203, 0.8160000387579203, 0.0, 0.0, 0.0, 0.0, 0.0, 1.7063879313081572E9, 0.0, 2024-01-27 15:38:51.308
23.0, -457.64407777786255, -678.3280943632126, -538.5455936193466, -305.41518998146057, -0.8160000387579203, -0.8160000387579203, 0.8160000387579203, 0.0, 0.0, 0.0, 0.0, 0.0, 1.7063879313238213E9, 0.0, 2024-01-27 15:38:51.323
23.0, -463.6279177069664, -670.9081328511238, -540.4604223966599, -265.92184644937515, -0.8160000387579203, -0.8160000387579203, 0.8160000387579203, 0.0, 0.0, 0.0, 0.0, 0.0, 1.7063879313238213E9, 0.0, 2024-01-27 15:38:51.323
24.0, -602.6923576593399, -691.4925422072411, -534.9552896618843, -470.56917202472687, -0.8160000387579203, -0.8160000387579203, 0.8160000387579203, 0.0, 0.0, 0.0, 0.0, 0.0, 1.7063879313245149E9, 0.0, 2024-01-27 15:38:51.324
24.0, -509.10510116815567, -688.1415918469429, -540.4604223966599, -390.38571697473526, -0.8160000387579203, -0.8160000387579203, 0.8160000387579203, 0.0, 0.0, 0.0, 0.0, 0.0, 1.7063879313245149E9, 0.0, 2024-01-27 15:38:51.324
25.0, -434.9054860472679, -673.7803760170937, -550.2739198803902, -241.7471331357956, -0.8160000387579203, -0.8160000387579203, 0.8160000387579203, 0.0, 0.0, 0.0, 0.0, 0.0, 1.7063879313387947E9, 0.0, 2024-01-27 15:38:51.338
25.0, -568.9435004591942, -681.9183983206749, -526.8172673583031, -395.8908497095108, -0.8160000387579203, -0.8160000387579203, 0.8160000387579203, 0.0, 0.0, 0.0, 0.0, 0.0, 1.7063879313387947E9, 0.0, 2024-01-27 15:38:51.338
26.0, -561.0448317527771, -693.6467245817184, -525.8598529696465, -444.00092273950577, -0.8160000387579203, -0.8160000387579203, 0.8160000387579203, 0.0, 0.0, 0.0, 0.0, 0.0, 1.7063879313538272E9, 0.0, 2024-01-27 15:38:51.353
26.0, -433.9480716586113, -674.0197296142578, -542.1358975768089, -251.0819234251976, -0.8160000387579203, -0.8160000387579203, 0.8160000387579203, 0.0, 0.0, 0.0, 0.0, 0.0, 1.7063879313538272E9, 0.0, 2024-01-27 15:38:51.353
27.0, -510.30186915397644, -665.8817073106766, -531.364985704422, -322.64864897727966, -0.8160000387579203, -0.8160000387579203, 0.8160000387579203, 0.0, 0.0, 0.0, 0.0, 0.0, 1.706387931354559E9, 0.0, 2024-01-27 15:38:51.354
27.0, -596.708517730236, -697.9550893306732, -525.6204993724823, -471.0478792190552, -0.8160000387579203, -0.8160000387579203, 0.8160000387579203, 0.0, 0.0, 0.0, 0.0, 0.0, 1.706387931354559E9, 0.0, 2024-01-27 15:38:51.354
28.0, -462.43114972114563, -683.593873500824, -539.9817152023315, -311.6383835077286, -0.8160000387579203, -0.8160000387579203, 0.8160000387579203, 0.0, 0.0, 0.0, 0.0, 0.0, 1.7063879313682077E9, 0.0, 2024-01-27 15:38:51.368
28.0, -472.0052936077118, -677.370679974556, -542.1358975768089, -269.99085760116577, -0.8160000387579203, -0.8160000387579203, 0.8160000387579203, 0.0, 0.0, 0.0, 0.0, 0.0, 1.7063879313682077E9, 0.0, 2024-01-27 15:38:51.368
29.0, -607.0007224082947, -696.2796141505241, -529.6895105242729, -463.38856410980225, -0.8160000387579203, -0.8160000387579203, 0.8160000387579203, 0.0, 0.0, 0.0, 0.0, 0.0, 1.7063879313841095E9, 0.0, 2024-01-27 15:38:51.384
29.0, -512.4560515284538, -691.4925422072411, -528.0140353441238, -379.6148051023483, -0.8160000387579203, -0.8160000387579203, 0.8160000387579203, 0.0, 0.0, 0.0, 0.0, 0.0, 1.7063879313841095E9, 0.0, 2024-01-27 15:38:51.384
30.0, -437.77772921323776, -670.1900720596313, -533.5191680788994, -234.80587881803513, -0.8160000387579203, -0.8160000387579203, 0.9120000433176756, 0.0, 0.0, 0.0, 0.0, 0.0, 1.706387931384646E9, 0.0, 2024-01-27 15:38:51.384
30.0, -558.6512957811356, -676.8919727802277, -523.7056705951691, -394.2153745293617, -0.8160000387579203, -0.8160000387579203, 0.9120000433176756, 0.0, 0.0, 0.0, 0.0, 0.0, 1.706387931384646E9, 0.0, 2024-01-27 15:38:51.384
31.0, -563.1990141272545, -697.9550893306732, -523.9450241923332, -442.08609396219254, -0.8160000387579203, -0.9120000433176756, 0.9120000433176756, 0.0, 0.0, 0.0, 0.0, 0.0, 1.7063879313980994E9, 0.0, 2024-01-27 15:38:51.398
31.0, -432.9906572699547, -677.1313263773918, -540.699775993824, -251.0819234251976, -0.8160000387579203, -0.9120000433176756, 0.9120000433176756, 0.0, 0.0, 0.0, 0.0, 0.0, 1.7063879313980994E9, 0.0, 2024-01-27 15:38:51.398
32.0, -517.7218306660652, -676.6526191830635, -534.2372288703918, -326.95701372623444, -0.9120000433176756, -0.9120000433176756, 0.9120000433176756, 0.0, 0.0, 0.0, 0.0, 0.0, 1.7063879314140065E9, 0.0, 2024-01-27 15:38:51.414
32.0, -599.1020537018776, -699.8699181079865, -526.8172673583031, -473.920122385025, -0.9120000433176756, -0.9120000433176756, 0.9120000433176756, 0.0, 0.0, 0.0, 0.0, 0.0, 1.7063879314140065E9, 0.0, 2024-01-27 15:38:51.414
33.0, -476.7923655509949, -692.2106029987335, -542.3752511739731, -316.90416264533997, -0.9120000433176756, -0.9120000433176756, 0.9120000433176756, 0.0, 0.0, 0.0, 0.0, 0.0, 1.7063879314144716E9, 0.0, 2024-01-27 15:38:51.414
33.0, -479.6646087169647, -677.1313263773918, -544.5294335484505, -272.14503997564316, -0.9120000433176756, -0.9120000433176756, 0.9120000433176756, 0.0, 0.0, 0.0, 0.0, 0.0, 1.7063879314144716E9, 0.0, 2024-01-27 15:38:51.414
34.0, -599.5807608962059, -699.151857316494, -539.9817152023315, -449.26670187711716, -0.9120000433176756, -0.9120000433176756, 0.9120000433176756, 0.0, 0.0, 0.0, 0.0, 0.0, 1.7063879314282377E9, 0.0, 2024-01-27 15:38:51.428
34.0, -528.7320961356163, -708.0079404115677, -546.2049087285995, -394.4547281265259, -0.9120000433176756, -0.9120000433176756, 0.9120000433176756, 0.0, 0.0, 0.0, 0.0, 0.0, 1.7063879314282377E9, 0.0, 2024-01-27 15:38:51.428
35.0, -459.79826015233994, -689.5777134299278, -553.6248702406883, -271.66633278131485, -0.9120000433176756, -0.9120000433176756, 0.9120000433176756, 0.0, 0.0, 0.0, 0.0, 0.0, 1.7063879314437752E9, 0.0, 2024-01-27 15:38:51.443
35.0, -569.4222076535225, -691.9712494015694, -540.699775993824, -401.1566288471222, -0.9120000433176756, -0.9120000433176756, 0.9120000433176756, 0.0, 0.0, 0.0, 0.0, 0.0, 1.7063879314437752E9, 0.0, 2024-01-27 15:38:51.443
36.0, -568.2254396677017, -698.9125037193298, -537.1094720363617, -444.9583371281624, -0.9120000433176756, -0.9120000433176756, 0.9120000433176756, 0.0, 0.0, 0.0, 0.0, 0.0, 1.7063879314444845E9, 0.0, 2024-01-27 15:38:51.444
36.0, -450.94217705726624, -689.0990062355995, -544.5294335484505, -280.52241587638855, -0.9120000433176756, -0.9120000433176756, 0.9120000433176756, 0.0, 0.0, 0.0, 0.0, 0.0, 1.7063879314444845E9, 0.0, 2024-01-27 15:38:51.444
37.0, -519.1579522490501, -683.593873500824, -544.2900799512863, -330.7866712808609, -0.9120000433176756, -0.9120000433176756, 0.9120000433176756, 0.0, 0.0, 0.0, 0.0, 0.0, 1.7063879314581413E9, 0.0, 2024-01-27 15:38:51.458
37.0, -584.2621306777, -696.7583213448524, -531.1256321072578, -462.1917961239815, -0.9120000433176756, -0.9120000433176756, 0.9120000433176756, 0.0, 0.0, 0.0, 0.0, 0.0, 1.7063879314581413E9, 0.0, 2024-01-27 15:38:51.458
38.0, -478.2284871339798, -694.1254317760468, -539.7423616051674, -329.350549697876, -0.9120000433176756, -0.9120000433176756, 0.9120000433176756, 0.0, 0.0, 0.0, 0.0, 0.0, 1.7063879314739604E9, 0.0, 2024-01-27 15:38:51.473
38.0, -473.68076878786087, -681.2003375291824, -548.5984447002411, -283.8733662366867, -0.9120000433176756, -0.9120000433176756, 0.9120000433176756, 0.0, 0.0, 0.0, 0.0, 0.0, 1.7063879314739604E9, 0.0, 2024-01-27 15:38:51.473
39.0, -588.3311418294907, -690.2957742214203, -533.7585216760635, -446.63381230831146, -0.9120000433176756, -0.9120000433176756, 0.9120000433176756, 0.0, 0.0, 0.0, 0.0, 0.0, 1.7063879314747791E9, 0.0, 2024-01-27 15:38:51.474
39.0, -518.2005378603935, -693.1680173873901, -538.7849472165108, -387.5134738087654, -0.9120000433176756, -0.9120000433176756, 0.9120000433176756, 0.0, 0.0, 0.0, 0.0, 0.0, 1.7063879314747791E9, 0.0, 2024-01-27 15:38:51.474
40.0, -453.0963594317436, -684.5512878894806, -545.2474943399429, -262.570896089077, -0.9120000433176756, -0.9120000433176756, 0.944000044837594, 0.0, 0.0, 0.0, 0.0, 0.0, 1.7063879314880834E9, 0.0, 2024-01-27 15:38:51.488
40.0, -559.369356572628, -683.1151663064957, -536.6307648420334, -393.7366673350334, -0.9120000433176756, -0.9120000433176756, 0.944000044837594, 0.0, 0.0, 0.0, 0.0, 0.0, 1.7063879314880834E9, 0.0, 2024-01-27 15:38:51.488
41.0, -562.7203069329262, -703.6995756626129, -534.2372288703918, -437.5383756160736, -0.9120000433176756, -0.944000044837594, 0.944000044837594, 0.0, 0.0, 0.0, 0.0, 0.0, 1.706387931503821E9, 0.0, 2024-01-27 15:38:51.503
41.0, -446.3944587111473, -689.0990062355995, -549.3165054917336, -280.2830622792244, -0.9120000433176756, -0.944000044837594, 0.944000044837594, 0.0, 0.0, 0.0, 0.0, 0.0, 1.706387931503821E9, 0.0, 2024-01-27 15:38:51.503
42.0, -520.5940738320351, -688.8596526384354, -546.922969520092, -333.65891444683075, -0.944000044837594, -0.944000044837594, 0.944000044837594, 0.0, 0.0, 0.0, 0.0, 0.0, 1.7063879315047038E9, 0.0, 2024-01-27 15:38:51.504
42.0, -593.1182137727737, -703.6995756626129, -532.3224000930786, -455.250541806221, -0.944000044837594, -0.944000044837594, 0.944000044837594, 0.0, 0.0, 0.0, 0.0, 0.0, 1.7063879315047038E9, 0.0, 2024-01-27 15:38:51.504
43.0, -482.05814468860626, -700.3486253023148, -541.8965439796448, -327.91442811489105, -0.944000044837594, -0.944000044837594, 0.944000044837594, 0.0, 0.0, 0.0, 0.0, 0.0, 1.7063879315183408E9, 0.0, 2024-01-27 15:38:51.518
43.0, -485.6484486460686, -689.3383598327637, -550.2739198803902, -283.63401263952255, -0.944000044837594, -0.944000044837594, 0.944000044837594, 0.0, 0.0, 0.0, 0.0, 0.0, 1.7063879315183408E9, 0.0, 2024-01-27 15:38:51.518
44.0, -601.7349432706833, -702.7421612739563, -535.6733504533768, -442.56480115652084, -0.944000044837594, -0.944000044837594, 0.944000044837594, 0.0, 0.0, 0.0, 0.0, 0.0, 1.7063879315339074E9, 0.0, 2024-01-27 15:38:51.533
44.0, -530.6469249129295, -709.4440619945526, -543.811372756958, -390.38571697473526, -0.944000044837594, -0.944000044837594, 0.944000044837594, 0.0, 0.0, 0.0, 0.0, 0.0, 1.7063879315339074E9, 0.0, 2024-01-27 15:38:51.533
45.0, -468.1756360530853, -695.8009069561958, -553.6248702406883, -264.7250784635544, -0.944000044837594, -0.944000044837594, 0.944000044837594, 0.0, 0.0, 0.0, 0.0, 0.0, 1.706387931534568E9, 0.0, 2024-01-27 15:38:51.534
45.0, -568.2254396677017, -694.8434925675392, -541.1784831881523, -389.90700978040695, -0.944000044837594, -0.944000044837594, 0.944000044837594, 0.0, 0.0, 0.0, 0.0, 0.0, 1.706387931534568E9, 0.0, 2024-01-27 15:38:51.534
46.0, -570.8583292365074, -709.6834155917168, -540.2210687994957, -439.2138507962227, -0.944000044837594, -0.944000044837594, 0.944000044837594, 0.0, 0.0, 0.0, 0.0, 0.0, 1.7063879315482433E9, 0.0, 2024-01-27 15:38:51.548
46.0, -455.250541806221, -695.3221997618675, -550.2739198803902, -280.04370868206024, -0.944000044837594, -0.944000044837594, 0.944000044837594, 0.0, 0.0, 0.0, 0.0, 0.0, 1.7063879315482433E9, 0.0, 2024-01-27 15:38:51.548
47.0, -518.6792450547218, -688.8596526384354, -544.2900799512863, -332.2227928638458, -0.944000044837594, -0.944000044837594, 0.944000044837594, 0.0, 0.0, 0.0, 0.0, 0.0, 1.706387931564033E9, 0.0, 2024-01-27 15:38:51.564
47.0, -587.8524346351624, -702.0241004824638, -530.1682177186012, -459.5589065551758, -0.944000044837594, -0.944000044837594, 0.944000044837594, 0.0, 0.0, 0.0, 0.0, 0.0, 1.706387931564033E9, 0.0, 2024-01-27 15:38:51.564
48.0, -477.031719148159, -691.0138350129128, -539.9817152023315, -322.8880025744438, -0.944000044837594, -0.944000044837594, 0.944000044837594, 0.0, 0.0, 0.0, 0.0, 0.0, 1.7063879315646365E9, 0.0, 2024-01-27 15:38:51.564
48.0, -484.4516806602478, -687.4235310554504, -544.5294335484505, -280.7617694735527, -0.944000044837594, -0.944000044837594, 0.944000044837594, 0.0, 0.0, 0.0, 0.0, 0.0, 1.7063879315646365E9, 0.0, 2024-01-27 15:38:51.564
49.0, -595.5117497444153, -701.7847468852997, -533.0404608845711, -440.6499723792076, -0.944000044837594, -0.944000044837594, 0.944000044837594, 0.0, 0.0, 0.0, 0.0, 0.0, 1.7063879315783925E9, 0.0, 2024-01-27 15:38:51.578
49.0, -526.3385601639748, -703.6995756626129, -540.699775993824, -389.90700978040695, -0.944000044837594, -0.944000044837594, 0.944000044837594, 0.0, 0.0, 0.0, 0.0, 0.0, 1.7063879315783925E9, 0.0, 2024-01-27 15:38:51.578
50.0, -448.5486410856247, -684.7906414866447, -545.4868479371071, -260.17736011743546, -0.944000044837594, -0.944000044837594, 0.9760000463575125, 0.0, 0.0, 0.0, 0.0, 0.0, 1.7063879315939925E9, 0.0, 2024-01-27 15:38:51.593
50.0, -555.7790526151657, -685.5087022781372, -534.7159360647202, -387.0347666144371, -0.944000044837594, -0.944000044837594, 0.9760000463575125, 0.0, 0.0, 0.0, 0.0, 0.0, 1.7063879315939925E9, 0.0, 2024-01-27 15:38:51.593
51.0, -562.7203069329262, -701.7847468852997, -537.1094720363617, -437.5383756160736, -0.944000044837594, -0.9760000463575125, 0.9760000463575125, 0.0, 0.0, 0.0, 0.0, 0.0, 1.7063879315945485E9, 0.0, 2024-01-27 15:38:51.594
51.0, -459.0801993608475, -694.8434925675392, -547.1623231172562, -281.240476667881, -0.944000044837594, -0.9760000463575125, 0.9760000463575125, 0.0, 0.0, 0.0, 0.0, 0.0, 1.7063879315945485E9, 0.0, 2024-01-27 15:38:51.594
52.0, -517.0037698745728, -679.5248623490334, -538.5455936193466, -329.8292568922043, -0.9760000463575125, -0.9760000463575125, 0.9760000463575125, 0.0, 0.0, 0.0, 0.0, 0.0, 1.7063879316082563E9, 0.0, 2024-01-27 15:38:51.608
52.0, -587.1343738436699, -697.9550893306732, -531.364985704422, -456.68666338920593, -0.9760000463575125, -0.9760000463575125, 0.9760000463575125, 0.0, 0.0, 0.0, 0.0, 0.0, 1.7063879316082563E9, 0.0, 2024-01-27 15:38:51.608
53.0, -478.94654792547226, -692.6893101930618, -538.7849472165108, -325.5208921432495, -0.9760000463575125, -0.9760000463575125, 0.9760000463575125, 0.0, 0.0, 0.0, 0.0, 0.0, 1.70638793162385E9, 0.0, 2024-01-27 15:38:51.623
53.0, -475.5955975651741, -685.0299950838089, -542.3752511739731, -280.52241587638855, -0.9760000463575125, -0.9760000463575125, 0.9760000463575125, 0.0, 0.0, 0.0, 0.0, 0.0, 1.70638793162385E9, 0.0, 2024-01-27 15:38:51.623
54.0, -587.8524346351624, -689.5777134299278, -533.7585216760635, -438.0170828104019, -0.9760000463575125, -0.9760000463575125, 0.9760000463575125, 0.0, 0.0, 0.0, 0.0, 0.0, 1.7063879316245613E9, 0.0, 2024-01-27 15:38:51.624
54.0, -522.5089026093483, -698.4337965250015, -540.699775993824, -390.38571697473526, -0.9760000463575125, -0.9760000463575125, 0.9760000463575125, 0.0, 0.0, 0.0, 0.0, 0.0, 1.7063879316245613E9, 0.0, 2024-01-27 15:38:51.624
55.0, -454.53248101472855, -688.6202990412712, -545.9655551314354, -265.2037856578827, -0.9760000463575125, -0.9760000463575125, 0.9760000463575125, 0.0, 0.0, 0.0, 0.0, 0.0, 1.7063879316381836E9, 0.0, 2024-01-27 15:38:51.638
55.0, -562.0022461414337, -692.928663790226, -540.9391295909882, -393.01860654354095, -0.9760000463575125, -0.9760000463575125, 0.9760000463575125, 0.0, 0.0, 0.0, 0.0, 0.0, 1.7063879316381836E9, 0.0, 2024-01-27 15:38:51.638
56.0, -564.6351357102394, -701.5453932881355, -531.8436928987503, -438.97449719905853, -0.9760000463575125, -0.9760000463575125, 0.9760000463575125, 0.0, 0.0, 0.0, 0.0, 0.0, 1.7063879316541817E9, 0.0, 2024-01-27 15:38:51.654
56.0, -447.83058029413223, -689.3383598327637, -542.6146047711372, -278.128879904747, -0.9760000463575125, -0.9760000463575125, 0.9760000463575125, 0.0, 0.0, 0.0, 0.0, 0.0, 1.7063879316541817E9, 0.0, 2024-01-27 15:38:51.654
57.0, -513.1741123199463, -680.7216303348541, -533.0404608845711, -315.46804106235504, -0.9760000463575125, -0.9760000463575125, 0.9760000463575125, 0.0, 0.0, 0.0, 0.0, 0.0, 1.7063879316546085E9, 0.0, 2024-01-27 15:38:51.654
57.0, -591.6820921897888, -701.3060396909714, -531.8436928987503, -453.0963594317436, -0.9760000463575125, -0.9760000463575125, 0.9760000463575125, 0.0, 0.0, 0.0, 0.0, 0.0, 1.7063879316546085E9, 0.0, 2024-01-27 15:38:51.654
58.0, -483.73361986875534, -693.6467245817184, -539.9817152023315, -330.7866712808609, -0.9760000463575125, -0.9760000463575125, 0.9760000463575125, 0.0, 0.0, 0.0, 0.0, 0.0, 1.7063879316681116E9, 0.0, 2024-01-27 15:38:51.668
58.0, -476.5530119538307, -682.157751917839, -544.2900799512863, -278.6075870990753, -0.9760000463575125, -0.9760000463575125, 0.9760000463575125, 0.0, 0.0, 0.0, 0.0, 0.0, 1.7063879316681116E9, 0.0, 2024-01-27 15:38:51.668
59.0, -587.1343738436699, -687.1841774582863, -527.7746817469597, -433.70871806144714, -0.9760000463575125, -0.9760000463575125, 0.9760000463575125, 0.0, 0.0, 0.0, 0.0, 0.0, 1.7063879316838465E9, 0.0, 2024-01-27 15:38:51.683
59.0, -513.8921731114388, -690.5351278185844, -532.0830464959145, -386.5560594201088, -0.9760000463575125, -0.9760000463575125, 0.9760000463575125, 0.0, 0.0, 0.0, 0.0, 0.0, 1.7063879316838465E9, 0.0, 2024-01-27 15:38:51.683
60.0, -447.11251950263977, -684.7906414866447, -548.8377982974052, -265.682492852211, -0.9760000463575125, -0.9760000463575125, 0.9920000471174717, 0.0, 0.0, 0.0, 0.0, 0.0, 1.7063879316845613E9, 0.0, 2024-01-27 15:38:51.684
60.0, -554.3429310321808, -691.2531886100769, -545.2474943399429, -392.3005457520485, -0.9760000463575125, -0.9760000463575125, 0.9920000471174717, 0.0, 0.0, 0.0, 0.0, 0.0, 1.7063879316845613E9, 0.0, 2024-01-27 15:38:51.684
61.0, -556.4971134066582, -691.4925422072411, -532.0830464959145, -435.86290043592453, -0.9760000463575125, -0.9920000471174717, 0.9920000471174717, 0.0, 0.0, 0.0, 0.0, 0.0, 1.7063879316983683E9, 0.0, 2024-01-27 15:38:51.698
61.0, -450.4634698629379, -684.5512878894806, -537.3488256335258, -275.017283141613, -0.9760000463575125, -0.9920000471174717, 0.9920000471174717, 0.0, 0.0, 0.0, 0.0, 0.0, 1.7063879316983683E9, 0.0, 2024-01-27 15:38:51.698
62.0, -517.2431234717369, -682.3971055150032, -541.1784831881523, -323.3667097687721, -0.9920000471174717, -0.9920000471174717, 0.9920000471174717, 0.0, 0.0, 0.0, 0.0, 0.0, 1.7063879317138312E9, 0.0, 2024-01-27 15:38:51.713
62.0, -591.6820921897888, -699.6305645108223, -533.2798144817352, -457.8834313750267, -0.9920000471174717, -0.9920000471174717, 0.9920000471174717, 0.0, 0.0, 0.0, 0.0, 0.0, 1.7063879317138312E9, 0.0, 2024-01-27 15:38:51.713
63.0, -478.7071943283081, -691.4925422072411, -542.8539583683014, -327.91442811489105, -0.9920000471174717, -0.9920000471174717, 0.9920000471174717, 0.0, 0.0, 0.0, 0.0, 0.0, 1.706387931714569E9, 0.0, 2024-01-27 15:38:51.714
63.0, -470.3298184275627, -678.8068015575409, -547.8803839087486, -279.0862942934036, -0.9920000471174717, -0.9920000471174717, 0.9920000471174717, 0.0, 0.0, 0.0, 0.0, 0.0, 1.706387931714569E9, 0.0, 2024-01-27 15:38:51.714
64.0, -603.1710648536682, -706.0931116342545, -547.8803839087486, -446.3944587111473, -0.9920000471174717, -0.9920000471174717, 0.9920000471174717, 0.0, 0.0, 0.0, 0.0, 0.0, 1.7063879317280939E9, 0.0, 2024-01-27 15:38:51.728
64.0, -535.1946432590485, -703.9389292597771, -542.8539583683014, -393.97602093219757, -0.9920000471174717, -0.9920000471174717, 0.9920000471174717, 0.0, 0.0, 0.0, 0.0, 0.0, 1.7063879317280939E9, 0.0, 2024-01-27 15:38:51.728
65.0, -456.4473097920418, -680.9609839320183, -545.2474943399429, -261.13477450609207, -0.9920000471174717, -0.9920000471174717, 0.9920000471174717, 0.0, 0.0, 0.0, 0.0, 0.0, 1.7063879317438428E9, 0.0, 2024-01-27 15:38:51.743
65.0, -556.4971134066582, -681.9183983206749, -525.6204993724823, -377.6999763250351, -0.9920000471174717, -0.9920000471174717, 0.9920000471174717, 0.0, 0.0, 0.0, 0.0, 0.0, 1.7063879317438428E9, 0.0, 2024-01-27 15:38:51.743
66.0, -552.4281022548676, -691.9712494015694, -527.2959745526314, -431.07582849264145, -0.9920000471174717, -0.9920000471174717, 0.9920000471174717, 0.0, 0.0, 0.0, 0.0, 0.0, 1.7063879317445629E9, 0.0, 2024-01-27 15:38:51.744
66.0, -443.52221554517746, -678.8068015575409, -539.9817152023315, -271.905686378479, -0.9920000471174717, -0.9920000471174717, 0.9920000471174717, 0.0, 0.0, 0.0, 0.0, 0.0, 1.7063879317445629E9, 0.0, 2024-01-27 15:38:51.744
67.0, -506.47221159935, -672.5836080312729, -531.364985704422, -316.1861018538475, -0.9920000471174717, -0.9920000471174717, 0.9920000471174717, 0.0, 0.0, 0.0, 0.0, 0.0, 1.7063879317580974E9, 0.0, 2024-01-27 15:38:51.758
67.0, -593.1182137727737, -700.5879788994789, -533.2798144817352, -453.0963594317436, -0.9920000471174717, -0.9920000471174717, 0.9920000471174717, 0.0, 0.0, 0.0, 0.0, 0.0, 1.7063879317580974E9, 0.0, 2024-01-27 15:38:51.758
68.0, -480.62202310562134, -691.2531886100769, -548.3590911030769, -333.65891444683075, -0.9920000471174717, -0.9920000471174717, 0.9920000471174717, 0.0, 0.0, 0.0, 0.0, 0.0, 1.7063879317738273E9, 0.0, 2024-01-27 15:38:51.773
68.0, -486.1271558403969, -691.7318958044052, -561.5235389471054, -295.3623389005661, -0.9920000471174717, -0.9920000471174717, 0.9920000471174717, 0.0, 0.0, 0.0, 0.0, 0.0, 1.7063879317738273E9, 0.0, 2024-01-27 15:38:51.773
69.0, -618.4896950721741, -717.821437895298, -548.1197375059128, -444.71898353099823, -0.9920000471174717, -0.9920000471174717, 0.9920000471174717, 0.0, 0.0, 0.0, 0.0, 0.0, 1.7063879317746403E9, 0.0, 2024-01-27 15:38:51.774
69.0, -557.6938813924789, -721.8904490470886, -554.5822846293449, -401.39598244428635, -0.9920000471174717, -0.9920000471174717, 0.9920000471174717, 0.0, 0.0, 0.0, 0.0, 0.0, 1.7063879317746403E9, 0.0, 2024-01-27 15:38:51.774
70.0, -496.65871411561966, -717.5820842981339, -576.1241083741188, -280.04370868206024, -0.9920000471174717, -0.9920000471174717, 0.9920000471174717, 0.0, 0.0, 0.0, 0.0, 0.0, 1.7063879317884915E9, 0.0, 2024-01-27 15:38:51.788
70.0, -615.8568055033684, -731.9433001279831, -567.2680252790451, -399.4811536669731, -0.9920000471174717, -0.9920000471174717, 0.9920000471174717, 0.0, 0.0, 0.0, 0.0, 0.0, 1.7063879317884915E9, 0.0, 2024-01-27 15:38:51.788
71.0, -636.9199220538139, -752.049002289772, -567.028671681881, -448.78799468278885, -0.9920000471174717, -0.9920000471174717, 0.9920000471174717, 0.0, 0.0, 0.0, 0.0, 0.0, 1.7063879318038151E9, 0.0, 2024-01-27 15:38:51.803
71.0, -522.9876098036766, -735.5336040854454, -573.7305724024773, -289.6178525686264, -0.9920000471174717, -0.9920000471174717, 0.9920000471174717, 0.0, 0.0, 0.0, 0.0, 0.0, 1.7063879318038151E9, 0.0, 2024-01-27 15:38:51.803
72.0, -604.367832839489, -744.6290407776833, -588.0917882323265, -345.14788711071014, -0.9920000471174717, -0.9920000471174717, 0.9920000471174717, 0.0, 0.0, 0.0, 0.0, 0.0, 1.706387931804531E9, 0.0, 2024-01-27 15:38:51.804
72.0, -679.2855087518692, -765.2134501338005, -573.251865208149, -468.1756360530853, -0.9920000471174717, -0.9920000471174717, 0.9920000471174717, 0.0, 0.0, 0.0, 0.0, 0.0, 1.706387931804531E9, 0.0, 2024-01-27 15:38:51.804
73.0, -583.3047162890434, -770.718582868576, -593.3575673699379, -354.48267740011215, -0.9920000471174717, -0.9920000471174717, 0.9920000471174717, 0.0, 0.0, 0.0, 0.0, 0.0, 1.7063879318181708E9, 0.0, 2024-01-27 15:38:51.818
73.0, -566.3106108903885, -741.2780904173851, -588.0917882323265, -294.4049245119095, -0.9920000471174717, -0.9920000471174717, 0.9920000471174717, 0.0, 0.0, 0.0, 0.0, 0.0, 1.7063879318181708E9, 0.0, 2024-01-27 15:38:51.818
74.0, -687.6628846526146, -764.7347429394722, -587.1343738436699, -459.79826015233994, -0.9920000471174717, -0.9920000471174717, 0.9920000471174717, 0.0, 0.0, 0.0, 0.0, 0.0, 1.7063879318504696E9, 0.0, 2024-01-27 15:38:51.850
74.0, -612.7452087402344, -760.9050853848457, -585.698252260685, -414.799783885479, -0.9920000471174717, -0.9920000471174717, 0.9920000471174717, 0.0, 0.0, 0.0, 0.0, 0.0, 1.7063879318504696E9, 0.0, 2024-01-27 15:38:51.850
75.0, -537.8275328278542, -745.825808763504, -584.7408378720284, -274.77792954444885, -0.9920000471174717, -0.9920000471174717, 0.9920000471174717, 0.0, 0.0, 0.0, 0.0, 0.0, 1.7063879318510838E9, 0.0, 2024-01-27 15:38:51.851
75.0, -628.5425461530685, -736.7303720712662, -575.1666939854622, -397.3269712924957, -0.9920000471174717, -0.9920000471174717, 0.9920000471174717, 0.0, 0.0, 0.0, 0.0, 0.0, 1.7063879318510838E9, 0.0, 2024-01-27 15:38:51.851
76.0, -644.1005299687386, -755.160599052906, -573.9699259996414, -454.05377382040024, -0.9920000471174717, -0.9920000471174717, 0.9920000471174717, 0.0, 0.0, 0.0, 0.0, 0.0, 1.7063879318519235E9, 0.0, 2024-01-27 15:38:51.851
76.0, -529.2108033299446, -746.3045159578323, -584.5014842748642, -293.686863720417, -0.9920000471174717, -0.9920000471174717, 0.9920000471174717, 0.0, 0.0, 0.0, 0.0, 0.0, 1.7063879318519235E9, 0.0, 2024-01-27 15:38:51.851
77.0, -585.4588986635208, -736.0123112797737, -580.1931195259094, -328.39313530921936, -0.9920000471174717, -0.9920000471174717, 0.9920000471174717, 0.0, 0.0, 0.0, 0.0, 0.0, 1.706387931852518E9, 0.0, 2024-01-27 15:38:51.852
77.0, -668.2752432823181, -755.160599052906, -568.2254396677017, -469.8511112332344, -0.9920000471174717, -0.9920000471174717, 0.9920000471174717, 0.0, 0.0, 0.0, 0.0, 0.0, 1.706387931852518E9, 0.0, 2024-01-27 15:38:51.852
78.0, -559.6087101697922, -753.2457702755928, -581.8685947060585, -350.41366624832153, -0.9920000471174717, -0.9920000471174717, 0.9920000471174717, 0.0, 0.0, 0.0, 0.0, 0.0, 1.7063879318631897E9, 0.0, 2024-01-27 15:38:51.863
78.0, -546.922969520092, -735.5336040854454, -583.3047162890434, -294.4049245119095, -0.9920000471174717, -0.9920000471174717, 0.9920000471174717, 0.0, 0.0, 0.0, 0.0, 0.0, 1.7063879318631897E9, 0.0, 2024-01-27 15:38:51.863
79.0, -661.0946353673935, -747.7406375408173, -572.2944508194923, -456.4473097920418, -0.9920000471174717, -0.9920000471174717, 0.9920000471174717, 0.0, 0.0, 0.0, 0.0, 0.0, 1.7063879318783412E9, 0.0, 2024-01-27 15:38:51.878
79.0, -600.2988216876984, -753.485123872757, -581.3898875117302, -412.1668943166733, -0.9920000471174717, -0.9920000471174717, 0.9920000471174717, 0.0, 0.0, 0.0, 0.0, 0.0, 1.7063879318783412E9, 0.0, 2024-01-27 15:38:51.878
80.0, -524.4237313866615, -733.6187753081322, -586.6556666493416, -281.240476667881, -0.9920000471174717, -0.9920000471174717, 0.9920000471174717, 0.0, 0.0, 0.0, 0.0, 0.0, 1.7063879318942323E9, 0.0, 2024-01-27 15:38:51.894
80.0, -631.1754357218742, -738.6452008485794, -577.7995835542679, -403.0714576244354, -0.9920000471174717, -0.9920000471174717, 0.9920000471174717, 0.0, 0.0, 0.0, 0.0, 0.0, 1.7063879318942323E9, 0.0, 2024-01-27 15:38:51.894
81.0, -632.6115573048592, -750.373527109623, -573.0125116109848, -453.57506662607193, -0.9920000471174717, -0.9920000471174717, 0.9920000471174717, 0.0, 0.0, 0.0, 0.0, 0.0, 1.7063879318945656E9, 0.0, 2024-01-27 15:38:51.894
81.0, -521.3121346235275, -737.2090792655945, -578.038937151432, -296.798460483551, -0.9920000471174717, -0.9920000471174717, 0.9920000471174717, 0.0, 0.0, 0.0, 0.0, 0.0, 1.7063879318945656E9, 0.0, 2024-01-27 15:38:51.894
82.0, -588.0917882323265, -739.602615237236, -580.4324731230736, -342.7543511390686, -0.9920000471174717, -0.9920000471174717, 0.9920000471174717, 0.0, 0.0, 0.0, 0.0, 0.0, 1.706387931908536E9, 0.0, 2024-01-27 15:38:51.908
82.0, -660.1372209787369, -750.373527109623, -564.8744893074036, -470.09046483039856, -0.9920000471174717, -0.9920000471174717, 0.9920000471174717, 0.0, 0.0, 0.0, 0.0, 0.0, 1.706387931908536E9, 0.0, 2024-01-27 15:38:51.908
83.0, -552.1887486577034, -749.1767591238022, -578.2782907485962, -348.9775446653366, -0.9920000471174717, -0.9920000471174717, 0.9920000471174717, 0.0, 0.0, 0.0, 0.0, 0.0, 1.7063879319239235E9, 0.0, 2024-01-27 15:38:51.923
83.0, -540.4604223966599, -732.4220073223114, -574.927340388298, -286.0275486111641, -0.9920000471174717, -0.9920000471174717, 0.9920000471174717, 0.0, 0.0, 0.0, 0.0, 0.0, 1.7063879319239235E9, 0.0, 2024-01-27 15:38:51.923
84.0, -652.9566130638123, -746.7832231521606, -567.5073788762093, -454.53248101472855, -0.9920000471174717, -0.9920000471174717, 0.9920000471174717, 0.0, 0.0, 0.0, 0.0, 0.0, 1.706387931924539E9, 0.0, 2024-01-27 15:38:51.924
84.0, -592.8788601756096, -747.9799911379814, -565.8319036960602, -402.1140432357788, -0.9920000471174717, -0.9920000471174717, 0.9920000471174717, 0.0, 0.0, 0.0, 0.0, 0.0, 1.706387931924539E9, 0.0, 2024-01-27 15:38:51.924
85.0, -518.918598651886, -733.8581289052963, -580.6718267202377, -278.84694069623947, -0.9920000471174717, -0.9920000471174717, 0.9920000471174717, 0.0, 0.0, 0.0, 0.0, 0.0, 1.7063879319383316E9, 0.0, 2024-01-27 15:38:51.938
85.0, -624.4735350012779, -742.2355048060417, -577.3208763599396, -404.50757920742035, -0.9920000471174717, -0.9920000471174717, 0.9920000471174717, 0.0, 0.0, 0.0, 0.0, 0.0, 1.7063879319383316E9, 0.0, 2024-01-27 15:38:51.938
86.0, -638.8347508311272, -754.6818918585777, -575.1666939854622, -461.9524425268173, -0.9920000471174717, -0.9920000471174717, 0.9920000471174717, 0.0, 0.0, 0.0, 0.0, 0.0, 1.7063879319538496E9, 0.0, 2024-01-27 15:38:51.953
86.0, -519.6366594433784, -740.7993832230568, -580.1931195259094, -302.30359321832657, -0.9920000471174717, -0.9920000471174717, 0.9920000471174717, 0.0, 0.0, 0.0, 0.0, 0.0, 1.7063879319538496E9, 0.0, 2024-01-27 15:38:51.953
87.0, -573.9699259996414, -733.379421710968, -576.8421691656113, -339.6427543759346, -0.9920000471174717, -0.9920000471174717, 0.9920000471174717, 0.0, 0.0, 0.0, 0.0, 0.0, 1.7063879319545949E9, 0.0, 2024-01-27 15:38:51.954
87.0, -643.6218227744102, -737.927140057087, -555.0609918236732, -461.71308892965317, -0.9920000471174717, -0.9920000471174717, 0.9920000471174717, 0.0, 0.0, 0.0, 0.0, 0.0, 1.7063879319545949E9, 0.0, 2024-01-27 15:38:51.954
88.0, -543.811372756958, -738.8845544457436, -567.5073788762093, -344.1904727220535, -0.9920000471174717, -0.9920000471174717, 0.9920000471174717, 0.0, 0.0, 0.0, 0.0, 0.0, 1.7063879319684322E9, 0.0, 2024-01-27 15:38:51.968
88.0, -532.3224000930786, -721.6510954499245, -566.3106108903885, -282.1978910565376, -0.9920000471174717, -0.9920000471174717, 0.9920000471174717, 0.0, 0.0, 0.0, 0.0, 0.0, 1.7063879319684322E9, 0.0, 2024-01-27 15:38:51.968
89.0, -646.7334195375443, -738.6452008485794, -564.1564285159111, -445.67639791965485, -0.9920000471174717, -0.9920000471174717, 0.9920000471174717, 0.0, 0.0, 0.0, 0.0, 0.0, 1.7063879319841895E9, 0.0, 2024-01-27 15:38:51.984
89.0, -582.3473019003868, -738.6452008485794, -568.2254396677017, -402.35339683294296, -0.9920000471174717, -0.9920000471174717, 0.9920000471174717, 0.0, 0.0, 0.0, 0.0, 0.0, 1.7063879319841895E9, 0.0, 2024-01-27 15:38:51.984
90.0, -517.4824770689011, -731.2252393364906, -569.6615612506866, -271.4269791841507, -0.9920000471174717, -0.9920000471174717, 1.008000047877431, 0.0, 0.0, 0.0, 0.0, 0.0, 1.7063879319845498E9, 0.0, 2024-01-27 15:38:51.984
90.0, -646.2547123432159, -769.043107688427, -602.9317112565041, -428.44293892383575, -0.9920000471174717, -0.9920000471174717, 1.008000047877431, 0.0, 0.0, 0.0, 0.0, 0.0, 1.7063879319845498E9, 0.0, 2024-01-27 15:38:51.984
91.0, -629.7393141388893, -757.3147814273834, -583.0653626918793, -471.5265864133835, -0.9920000471174717, -1.008000047877431, 1.008000047877431, 0.0, 0.0, 0.0, 0.0, 0.0, 1.7063879319981344E9, 0.0, 2024-01-27 15:38:51.998
91.0, -474.1594759821892, -704.4176364541054, -556.4971134066582, -286.74560940265656, -0.9920000471174717, -1.008000047877431, 1.008000047877431, 0.0, 0.0, 0.0, 0.0, 0.0, 1.7063879319981344E9, 0.0, 2024-01-27 15:38:51.998
92.0, -524.6630849838257, -696.9976749420166, -547.4016767144203, -329.1111961007118, -1.008000047877431, -1.008000047877431, 1.008000047877431, 0.0, 0.0, 0.0, 0.0, 0.0, 1.706387932013914E9, 0.0, 2024-01-27 15:38:52.013
92.0, -573.251865208149, -686.2267630696297, -514.3708803057671, -438.97449719905853, -1.008000047877431, -1.008000047877431, 1.008000047877431, 0.0, 0.0, 0.0, 0.0, 0.0, 1.706387932013914E9, 0.0, 2024-01-27 15:38:52.013
93.0, -462.1917961239815, -676.6526191830635, -528.9714497327805, -322.16994178295135, -1.008000047877431, -1.008000047877431, 1.008000047877431, 0.0, 0.0, 0.0, 0.0, 0.0, 1.7063879320146167E9, 0.0, 2024-01-27 15:38:52.014
93.0, -436.82031482458115, -644.5792371630669, -514.1315267086029, -249.16709464788437, -1.008000047877431, -1.008000047877431, 1.008000047877431, 0.0, 0.0, 0.0, 0.0, 0.0, 1.7063879320146167E9, 0.0, 2024-01-27 15:38:52.014
94.0, -539.9817152023315, -648.4088947176933, -497.85548210144043, -408.3372367620468, -1.008000047877431, -1.008000047877431, 1.008000047877431, 0.0, 0.0, 0.0, 0.0, 0.0, 1.706387932028142E9, 0.0, 2024-01-27 15:38:52.028
94.0, -479.42525511980057, -657.5043314099312, -494.7438853383064, -360.9452245235443, -1.008000047877431, -1.008000047877431, 1.008000047877431, 0.0, 0.0, 0.0, 0.0, 0.0, 1.706387932028142E9, 0.0, 2024-01-27 15:38:52.028
95.0, -383.20510905981064, -618.7290486693382, -483.25491267442703, -213.98211586475372, -1.008000047877431, -1.008000047877431, 1.008000047877431, 0.0, 0.0, 0.0, 0.0, 0.0, 1.706387932044034E9, 0.0, 2024-01-27 15:38:52.044
95.0, -499.5309572815895, -633.3296180963516, -487.80263102054596, -351.84978783130646, -1.008000047877431, -1.008000047877431, 1.008000047877431, 0.0, 0.0, 0.0, 0.0, 0.0, 1.706387932044034E9, 0.0, 2024-01-27 15:38:52.044
96.0, -509.10510116815567, -649.6056627035141, -487.0845702290535, -408.09788316488266, -1.008000047877431, -1.008000047877431, 1.008000047877431, 0.0, 0.0, 0.0, 0.0, 0.0, 1.706387932044525E9, 0.0, 2024-01-27 15:38:52.044
96.0, -394.4547281265259, -640.9889332056046, -496.65871411561966, -248.4490338563919, -1.008000047877431, -1.008000047877431, 1.008000047877431, 0.0, 0.0, 0.0, 0.0, 0.0, 1.706387932044525E9, 0.0, 2024-01-27 15:38:52.044
97.0, -458.8408457636833, -634.2870324850082, -494.9832389354706, -292.7294493317604, -1.008000047877431, -1.008000047877431, 1.008000047877431, 0.0, 0.0, 0.0, 0.0, 0.0, 1.7063879320583787E9, 0.0, 2024-01-27 15:38:52.058
97.0, -543.0933119654655, -660.8552817702293, -500.24901807308197, -437.77772921323776, -1.008000047877431, -1.008000047877431, 1.008000047877431, 0.0, 0.0, 0.0, 0.0, 0.0, 1.7063879320583787E9, 0.0, 2024-01-27 15:38:52.058
98.0, -437.29902201890945, -660.8552817702293, -509.583808362484, -308.5267867445946, -1.008000047877431, -1.008000047877431, 1.008000047877431, 0.0, 0.0, 0.0, 0.0, 0.0, 1.7063879320733533E9, 0.0, 2024-01-27 15:38:52.073
98.0, -432.03324288129807, -651.041784286499, -517.4824770689011, -257.7838241457939, -1.008000047877431, -1.008000047877431, 1.008000047877431, 0.0, 0.0, 0.0, 0.0, 0.0, 1.7063879320733533E9, 0.0, 2024-01-27 15:38:52.073
0.0, -482.7762054800987, -662.7701105475426, -507.9083331823349, -373.87031877040863, -1.008000047877431, -1.008000047877431, 1.008000047877431, 0.0, 0.0, 0.0, 0.0, 0.0, 1.7063879320889993E9, 0.0, 2024-01-27 15:38:52.088
0.0, -408.8159439563751, -647.2121267318726, -516.2857090830803, -239.5929507613182, -1.008000047877431, -1.008000047877431, 1.008000047877431, 0.0, 0.0, 0.0, 0.0, 0.0, 1.7063879320889993E9, 0.0, 2024-01-27 15:38:52.088
1.0, -505.51479721069336, -644.3398835659027, -505.2754436135292, -358.3123349547386, -1.008000047877431, -0.03200000151991844, 1.008000047877431, 0.0, 0.0, 0.0, 0.0, 0.0, 1.70638793208953E9, 0.0, 2024-01-27 15:38:52.089
1.0, -518.4398914575577, -661.812696158886, -504.3180292248726, -420.06556302309036, -1.008000047877431, -0.03200000151991844, 1.008000047877431, 0.0, 0.0, 0.0, 0.0, 0.0, 1.70638793208953E9, 0.0, 2024-01-27 15:38:52.089
2.0, -406.1830543875694, -653.1959666609764, -517.0037698745728, -258.5018849372864, 0.09600000455975533, -0.03200000151991844, 1.008000047877431, 0.0, 0.0, 0.0, 0.0, 0.0, 1.7063879321031451E9, 0.0, 2024-01-27 15:38:52.103
2.0, -471.76594001054764, -646.0153587460518, -510.30186915397644, -296.3197532892227, 0.09600000455975533, -0.03200000151991844, 1.008000047877431, 0.0, 0.0, 0.0, 0.0, 0.0, 1.7063879321031451E9, 0.0, 2024-01-27 15:38:52.103
3.0, -550.7526270747185, -665.6423537135124, -496.8980677127838, -434.18742525577545, 0.09600000455975533, -0.03200000151991844, 1.008000047877431, 0.0, 0.0, 0.0, 0.0, 0.0, 1.7063879321192644E9, 0.0, 2024-01-27 15:38:52.119
3.0, -449.027348279953, -666.599768102169, -512.9347587227821, -316.1861018538475, 0.09600000455975533, -0.03200000151991844, 1.008000047877431, 0.0, 0.0, 0.0, 0.0, 0.0, 1.7063879321192644E9, 0.0, 2024-01-27 15:38:52.119
4.0, -433.70871806144714, -647.930187523365, -513.6528195142746, -256.8264097571373, 0.09600000455975533, -0.03200000151991844, 1.008000047877431, 0.0, 0.0, 0.0, 0.0, 0.0, 1.7063879321197338E9, 0.0, 2024-01-27 15:38:52.119
4.0, -552.6674558520317, -662.7701105475426, -508.62639397382736, -423.17715978622437, 0.09600000455975533, -0.03200000151991844, 1.008000047877431, 0.0, 0.0, 0.0, 0.0, 0.0, 1.7063879321197338E9, 0.0, 2024-01-27 15:38:52.119
5.0, -493.54711735248566, -667.7965360879898, -514.6102339029312, -384.8805842399597, 0.09600000455975533, -0.03200000151991844, 1.008000047877431, 0.0, 0.0, 0.0, 0.0, 0.0, 1.7063879321333432E9, 0.0, 2024-01-27 15:38:52.133
5.0, -409.77335834503174, -646.2547123432159, -519.8760130405426, -248.4490338563919, 0.09600000455975533, -0.03200000151991844, 1.008000047877431, 0.0, 0.0, 0.0, 0.0, 0.0, 1.7063879321333432E9, 0.0, 2024-01-27 15:38:52.133
6.0, -521.5514882206917, -661.3339889645576, -515.3282946944237, -368.3651860356331, 0.09600000455975533, -0.03200000151991844, 1.008000047877431, 0.0, 0.0, 0.0, 0.0, 0.0, 1.7063879321488066E9, 0.0, 2024-01-27 15:38:52.148
6.0, -538.0668864250183, -679.2855087518692, -511.25928354263306, -425.81004935503006, 0.09600000455975533, -0.03200000151991844, 1.008000047877431, 0.0, 0.0, 0.0, 0.0, 0.0, 1.7063879321488066E9, 0.0, 2024-01-27 15:38:52.148
7.0, -416.7146126627922, -662.2914033532143, -519.3973058462143, -265.44313925504684, 0.09600000455975533, -0.03200000151991844, 1.008000047877431, 0.0, 0.0, 0.0, 0.0, 0.0, 1.7063879321495233E9, 0.0, 2024-01-27 15:38:52.149
7.0, -469.61175763607025, -651.9991986751556, -513.4134659171104, -304.6971291899681, 0.09600000455975533, -0.03200000151991844, 1.008000047877431, 0.0, 0.0, 0.0, 0.0, 0.0, 1.7063879321495233E9, 0.0, 2024-01-27 15:38:52.149
8.0, -547.8803839087486, -660.6159281730652, -505.7541508078575, -441.6073867678642, 0.09600000455975533, -0.03200000151991844, 1.008000047877431, 0.0, 0.0, 0.0, 0.0, 0.0, 1.7063879321631727E9, 0.0, 2024-01-27 15:38:52.163
8.0, -446.3944587111473, -667.5571824908257, -519.8760130405426, -323.6060633659363, 0.09600000455975533, -0.03200000151991844, 1.008000047877431, 0.0, 0.0, 0.0, 0.0, 0.0, 1.7063879321631727E9, 0.0, 2024-01-27 15:38:52.163
9.0, -434.4267788529396, -654.6320882439613, -521.7908418178558, -264.96443206071854, 0.09600000455975533, -0.03200000151991844, 1.008000047877431, 0.0, 0.0, 0.0, 0.0, 0.0, 1.706387932179056E9, 0.0, 2024-01-27 15:38:52.179
9.0, -552.9068094491959, -668.5145968794823, -513.8921731114388, -429.8790605068207, 0.09600000455975533, -0.03200000151991844, 1.008000047877431, 0.0, 0.0, 0.0, 0.0, 0.0, 1.706387932179056E9, 0.0, 2024-01-27 15:38:52.179
10.0, -495.9406533241272, -677.6100335717201, -520.5940738320351, -386.79541301727295, 0.09600000455975533, -0.03200000151991844, 0.9920000471174717, 0.0, 0.0, 0.0, 0.0, 0.0, 1.7063879321796455E9, 0.0, 2024-01-27 15:38:52.179
10.0, -420.54427021741867, -659.4191601872444, -530.1682177186012, -250.12450903654099, 0.09600000455975533, -0.03200000151991844, 0.9920000471174717, 0.0, 0.0, 0.0, 0.0, 0.0, 1.7063879321796455E9, 0.0, 2024-01-27 15:38:52.179
11.0, -523.7056705951691, -661.5733425617218, -522.7482562065125, -372.912904381752, 0.09600000455975533, -0.03200000151991844, 0.9920000471174717, 0.0, 0.0, 0.0, 0.0, 0.0, 1.7063879321931891E9, 0.0, 2024-01-27 15:38:52.193
11.0, -543.5720191597939, -682.6364591121674, -523.9450241923332, -434.66613245010376, 0.09600000455975533, -0.03200000151991844, 0.9920000471174717, 0.0, 0.0, 0.0, 0.0, 0.0, 1.7063879321931891E9, 0.0, 2024-01-27 15:38:52.193
12.0, -432.5119500756264, -674.7377904057503, -532.0830464959145, -275.73534393310547, 0.09600000455975533, -0.03200000151991844, 0.9920000471174717, 0.0, 0.0, 0.0, 0.0, 0.0, 1.7063879322090516E9, 0.0, 2024-01-27 15:38:52.209
12.0, -494.9832389354706, -672.1049008369446, -537.8275328278542, -318.8189914226532, 0.09600000455975533, -0.03200000151991844, 0.9920000471174717, 0.0, 0.0, 0.0, 0.0, 0.0, 1.7063879322090516E9, 0.0, 2024-01-27 15:38:52.209
13.0, -566.5499644875526, -685.269348680973, -523.4663169980049, -449.74540907144547, 0.09600000455975533, -0.03200000151991844, 0.9920000471174717, 0.0, 0.0, 0.0, 0.0, 0.0, 1.7063879322097328E9, 0.0, 2024-01-27 15:38:52.209
13.0, -457.16537058353424, -673.3016688227654, -525.141792178154, -327.43572092056274, 0.09600000455975533, -0.03200000151991844, 0.9920000471174717, 0.0, 0.0, 0.0, 0.0, 0.0, 1.7063879322097328E9, 0.0, 2024-01-27 15:38:52.209
14.0, -452.138945043087, -661.812696158886, -535.9127040505409, -270.2302111983299, 0.09600000455975533, -0.03200000151991844, 0.9920000471174717, 0.0, 0.0, 0.0, 0.0, 0.0, 1.7063879322233832E9, 0.0, 2024-01-27 15:38:52.223
14.0, -564.3957821130753, -677.1313263773918, -525.3811457753181, -432.2725964784622, 0.09600000455975533, -0.03200000151991844, 0.9920000471174717, 0.0, 0.0, 0.0, 0.0, 0.0, 1.7063879322233832E9, 0.0, 2024-01-27 15:38:52.223
15.0, -503.8393220305443, -681.2003375291824, -523.9450241923332, -387.0347666144371, 0.09600000455975533, -0.03200000151991844, 0.9920000471174717, 0.0, 0.0, 0.0, 0.0, 0.0, 1.706387932239081E9, 0.0, 2024-01-27 15:38:52.239
15.0, -431.3151820898056, -666.1210609078407, -532.3224000930786, -254.91158097982407, 0.09600000455975533, -0.03200000151991844, 0.9920000471174717, 0.0, 0.0, 0.0, 0.0, 0.0, 1.706387932239081E9, 0.0, 2024-01-27 15:38:52.239
16.0, -534.9552896618843, -671.8655472397804, -525.8598529696465, -376.98191553354263, 0.09600000455975533, -0.03200000151991844, 0.9920000471174717, 0.0, 0.0, 0.0, 0.0, 0.0, 1.7063879322396412E9, 0.0, 2024-01-27 15:38:52.239
16.0, -555.7790526151657, -695.8009069561958, -526.8172673583031, -439.2138507962227, 0.09600000455975533, -0.03200000151991844, 0.9920000471174717, 0.0, 0.0, 0.0, 0.0, 0.0, 1.7063879322396412E9, 0.0, 2024-01-27 15:38:52.239
17.0, -431.55453568696976, -671.6261936426163, -532.0830464959145, -278.128879904747, 0.09600000455975533, -0.03200000151991844, 0.9920000471174717, 0.0, 0.0, 0.0, 0.0, 0.0, 1.7063879322532113E9, 0.0, 2024-01-27 15:38:52.253
17.0, -487.0845702290535, -663.7275249361992, -521.5514882206917, -307.3300187587738, 0.09600000455975533, -0.03200000151991844, 0.9920000471174717, 0.0, 0.0, 0.0, 0.0, 0.0, 1.7063879322532113E9, 0.0, 2024-01-27 15:38:52.253
18.0, -565.8319036960602, -681.4396911263466, -516.0463554859161, -447.83058029413223, 0.09600000455975533, -0.03200000151991844, 0.9920000471174717, 0.0, 0.0, 0.0, 0.0, 0.0, 1.706387932268901E9, 0.0, 2024-01-27 15:38:52.268
18.0, -458.12278497219086, -674.4984368085861, -529.2108033299446, -325.0421849489212, 0.09600000455975533, -0.03200000151991844, 0.9920000471174717, 0.0, 0.0, 0.0, 0.0, 0.0, 1.706387932268901E9, 0.0, 2024-01-27 15:38:52.268
19.0, -457.16537058353424, -680.2429231405258, -538.3062400221825, -274.0598687529564, 0.09600000455975533, -0.03200000151991844, 0.9920000471174717, 0.0, 0.0, 0.0, 0.0, 0.0, 1.7063879322696242E9, 0.0, 2024-01-27 15:38:52.269
19.0, -576.363461971283, -686.4661166667938, -528.7320961356163, -435.6235468387604, 0.09600000455975533, -0.03200000151991844, 0.9920000471174717, 0.0, 0.0, 0.0, 0.0, 0.0, 1.7063879322696242E9, 0.0, 2024-01-27 15:38:52.269
20.0, -520.5940738320351, -693.8860781788826, -530.6469249129295, -396.3695569038391, 0.09600000455975533, -0.03200000151991844, 1.008000047877431, 0.0, 0.0, 0.0, 0.0, 0.0, 1.7063879322831638E9, 0.0, 2024-01-27 15:38:52.283
20.0, -419.8262094259262, -655.1107954382896, -528.253388941288, -243.18325471878052, 0.09600000455975533, -0.03200000151991844, 1.008000047877431, 0.0, 0.0, 0.0, 0.0, 0.0, 1.7063879322831638E9, 0.0, 2024-01-27 15:38:52.283
21.0, -514.1315267086029, -656.3075634241104, -508.62639397382736, -353.7646166086197, 0.09600000455975533, -0.03200000151991844, 1.008000047877431, 0.0, 0.0, 0.0, 0.0, 0.0, 1.7063879322988744E9, 0.0, 2024-01-27 15:38:52.298
21.0, -543.5720191597939, -681.6790447235107, -511.9773443341255, -422.9378061890602, 0.09600000455975533, -0.03200000151991844, 1.008000047877431, 0.0, 0.0, 0.0, 0.0, 0.0, 1.7063879322988744E9, 0.0, 2024-01-27 15:38:52.298
22.0, -430.8364748954773, -669.711364865303, -527.0566209554672, -274.5385759472847, 0.09600000455975533, -0.03200000151991844, 1.008000047877431, 0.0, 0.0, 0.0, 0.0, 0.0, 1.7063879322995732E9, 0.0, 2024-01-27 15:38:52.299
22.0, -497.3767749071121, -672.822961628437, -534.2372288703918, -312.1170907020569, 0.09600000455975533, -0.03200000151991844, 1.008000047877431, 0.0, 0.0, 0.0, 0.0, 0.0, 1.7063879322995732E9, 0.0, 2024-01-27 15:38:52.299
23.0, -573.9699259996414, -681.9183983206749, -527.2959745526314, -449.027348279953, 0.09600000455975533, -0.03200000151991844, 1.008000047877431, 0.0, 0.0, 0.0, 0.0, 0.0, 1.706387932313306E9, 0.0, 2024-01-27 15:38:52.313
23.0, -472.9627079963684, -683.1151663064957, -539.9817152023315, -335.0950360298157, 0.09600000455975533, -0.03200000151991844, 1.008000047877431, 0.0, 0.0, 0.0, 0.0, 0.0, 1.706387932313306E9, 0.0, 2024-01-27 15:38:52.313
24.0, -458.60149216651917, -673.3016688227654, -545.2474943399429, -275.017283141613, 0.09600000455975533, -0.03200000151991844, 1.008000047877431, 0.0, 0.0, 0.0, 0.0, 0.0, 1.7063879323288698E9, 0.0, 2024-01-27 15:38:52.328
24.0, -578.7569979429245, -687.6628846526146, -529.6895105242729, -432.03324288129807, 0.09600000455975533, -0.03200000151991844, 1.008000047877431, 0.0, 0.0, 0.0, 0.0, 0.0, 1.7063879323288698E9, 0.0, 2024-01-27 15:38:52.328
25.0, -519.6366594433784, -691.0138350129128, -536.1520576477051, -398.0450320839882, 0.09600000455975533, -0.03200000151991844, 1.008000047877431, 0.0, 0.0, 0.0, 0.0, 0.0, 1.7063879323297193E9, 0.0, 2024-01-27 15:38:52.329
25.0, -436.1022540330887, -674.7377904057503, -540.4604223966599, -258.74123853445053, 0.09600000455975533, -0.03200000151991844, 1.008000047877431, 0.0, 0.0, 0.0, 0.0, 0.0, 1.7063879323297193E9, 0.0, 2024-01-27 15:38:52.329
26.0, -533.7585216760635, -675.6952047944069, -530.6469249129295, -377.6999763250351, 0.09600000455975533, -0.03200000151991844, 1.008000047877431, 0.0, 0.0, 0.0, 0.0, 0.0, 1.70638793234315E9, 0.0, 2024-01-27 15:38:52.343
26.0, -561.5235389471054, -694.8434925675392, -530.6469249129295, -440.6499723792076, 0.09600000455975533, -0.03200000151991844, 1.008000047877431, 0.0, 0.0, 0.0, 0.0, 0.0, 1.70638793234315E9, 0.0, 2024-01-27 15:38:52.343
27.0, -443.7615691423416, -685.5087022781372, -543.811372756958, -286.9849629998207, 0.09600000455975533, -0.03200000151991844, 1.008000047877431, 0.0, 0.0, 0.0, 0.0, 0.0, 1.70638793235887E9, 0.0, 2024-01-27 15:38:52.358
27.0, -508.8657475709915, -687.4235310554504, -544.7687871456146, -321.21252739429474, 0.09600000455975533, -0.03200000151991844, 1.008000047877431, 0.0, 0.0, 0.0, 0.0, 0.0, 1.70638793235887E9, 0.0, 2024-01-27 15:38:52.358
28.0, -581.150533914566, -692.4499565958977, -530.4075713157654, -455.48989540338516, 0.09600000455975533, -0.03200000151991844, 1.008000047877431, 0.0, 0.0, 0.0, 0.0, 0.0, 1.7063879323595524E9, 0.0, 2024-01-27 15:38:52.359
28.0, -466.2608072757721, -679.5248623490334, -532.0830464959145, -329.350549697876, 0.09600000455975533, -0.03200000151991844, 1.008000047877431, 0.0, 0.0, 0.0, 0.0, 0.0, 1.7063879323595524E9, 0.0, 2024-01-27 15:38:52.359
29.0, -458.362138569355, -675.934558391571, -541.4178367853165, -272.14503997564316, 0.09600000455975533, -0.03200000151991844, 1.008000047877431, 0.0, 0.0, 0.0, 0.0, 0.0, 1.706387932373164E9, 0.0, 2024-01-27 15:38:52.373
29.0, -573.9699259996414, -685.0299950838089, -522.03019541502, -432.03324288129807, 0.09600000455975533, -0.03200000151991844, 1.008000047877431, 0.0, 0.0, 0.0, 0.0, 0.0, 1.706387932373164E9, 0.0, 2024-01-27 15:38:52.373
30.0, -515.3282946944237, -692.4499565958977, -529.6895105242729, -398.0450320839882, 0.09600000455975533, -0.03200000151991844, 0.9920000471174717, 0.0, 0.0, 0.0, 0.0, 0.0, 1.706387932389594E9, 0.0, 2024-01-27 15:38:52.389
30.0, -450.7028234601021, -681.6790447235107, -546.922969520092, -266.87926083803177, 0.09600000455975533, -0.03200000151991844, 0.9920000471174717, 0.0, 0.0, 0.0, 0.0, 0.0, 1.706387932389594E9, 0.0, 2024-01-27 15:38:52.389
31.0, -548.8377982974052, -688.380945444107, -546.6836159229279, -388.7102417945862, 0.09600000455975533, -0.01600000075995922, 0.9920000471174717, 0.0, 0.0, 0.0, 0.0, 0.0, 1.7063879324038773E9, 0.0, 2024-01-27 15:38:52.403
31.0, -570.6189756393433, -700.3486253023148, -536.3914112448692, -447.3518730998039, 0.09600000455975533, -0.01600000075995922, 0.9920000471174717, 0.0, 0.0, 0.0, 0.0, 0.0, 1.7063879324038773E9, 0.0, 2024-01-27 15:38:52.403
32.0, -450.4634698629379, -691.4925422072411, -545.0081407427788, -285.30948781967163, 0.09600000455975533, -0.01600000075995922, 0.9920000471174717, 0.0, 0.0, 0.0, 0.0, 0.0, 1.706387932404658E9, 0.0, 2024-01-27 15:38:52.404
32.0, -497.13742130994797, -676.4132655858994, -534.7159360647202, -311.87773710489273, 0.09600000455975533, -0.01600000075995922, 0.9920000471174717, 0.0, 0.0, 0.0, 0.0, 0.0, 1.706387932404658E9, 0.0, 2024-01-27 15:38:52.404
33.0, -576.363461971283, -688.380945444107, -525.3811457753181, -450.7028234601021, 0.09600000455975533, -0.01600000075995922, 0.9920000471174717, 0.0, 0.0, 0.0, 0.0, 0.0, 1.7063879324188428E9, 0.0, 2024-01-27 15:38:52.418
33.0, -465.54274648427963, -682.3971055150032, -535.1946432590485, -330.54731768369675, 0.09600000455975533, -0.01600000075995922, 0.9920000471174717, 0.0, 0.0, 0.0, 0.0, 0.0, 1.7063879324188428E9, 0.0, 2024-01-27 15:38:52.418
34.0, -467.2182216644287, -681.2003375291824, -548.1197375059128, -273.3418079614639, 0.09600000455975533, -0.01600000075995922, 0.9920000471174717, 0.0, 0.0, 0.0, 0.0, 0.0, 1.7063879324195762E9, 0.0, 2024-01-27 15:38:52.419
34.0, -582.586655497551, -695.0828461647034, -542.8539583683014, -445.19769072532654, 0.09600000455975533, -0.01600000075995922, 0.9920000471174717, 0.0, 0.0, 0.0, 0.0, 0.0, 1.7063879324195762E9, 0.0, 2024-01-27 15:38:52.419
35.0, -520.8334274291992, -696.2796141505241, -539.5030080080032, -402.1140432357788, 0.09600000455975533, -0.01600000075995922, 0.9920000471174717, 0.0, 0.0, 0.0, 0.0, 0.0, 1.70638793243359E9, 0.0, 2024-01-27 15:38:52.433
35.0, -442.804154753685, -679.2855087518692, -540.699775993824, -258.74123853445053, 0.09600000455975533, -0.01600000075995922, 0.9920000471174717, 0.0, 0.0, 0.0, 0.0, 0.0, 1.70638793243359E9, 0.0, 2024-01-27 15:38:52.433
36.0, -557.9332349896431, -690.7744814157486, -539.0243008136749, -380.8115730881691, 0.09600000455975533, -0.01600000075995922, 0.9920000471174717, 0.0, 0.0, 0.0, 0.0, 0.0, 1.706387932449196E9, 0.0, 2024-01-27 15:38:52.449
36.0, -573.4912188053131, -709.2047083973885, -542.1358975768089, -447.5912266969681, 0.09600000455975533, -0.01600000075995922, 0.9920000471174717, 0.0, 0.0, 0.0, 0.0, 0.0, 1.706387932449196E9, 0.0, 2024-01-27 15:38:52.449
37.0, -455.48989540338516, -696.9976749420166, -556.9758206009865, -293.44751012325287, 0.09600000455975533, -0.01600000075995922, 0.9920000471174717, 0.0, 0.0, 0.0, 0.0, 0.0, 1.7063879324498756E9, 0.0, 2024-01-27 15:38:52.449
37.0, -508.8657475709915, -685.0299950838089, -546.2049087285995, -317.6222234368324, 0.09600000455975533, -0.01600000075995922, 0.9920000471174717, 0.0, 0.0, 0.0, 0.0, 0.0, 1.7063879324498756E9, 0.0, 2024-01-27 15:38:52.449
38.0, -582.8260090947151, -691.7318958044052, -528.9714497327805, -451.42088425159454, 0.09600000455975533, -0.01600000075995922, 0.9920000471174717, 0.0, 0.0, 0.0, 0.0, 0.0, 1.7063879324631886E9, 0.0, 2024-01-27 15:38:52.463
38.0, -482.7762054800987, -695.5615533590317, -540.4604223966599, -335.3343896269798, 0.09600000455975533, -0.01600000075995922, 0.9920000471174717, 0.0, 0.0, 0.0, 0.0, 0.0, 1.7063879324631886E9, 0.0, 2024-01-27 15:38:52.463
39.0, -474.39882957935333, -691.4925422072411, -548.1197375059128, -281.240476667881, 0.09600000455975533, -0.01600000075995922, 0.9920000471174717, 0.0, 0.0, 0.0, 0.0, 0.0, 1.7063879324788585E9, 0.0, 2024-01-27 15:38:52.478
39.0, -598.3839929103851, -710.1621227860451, -535.9127040505409, -441.3680331707001, 0.09600000455975533, -0.01600000075995922, 0.9920000471174717, 0.0, 0.0, 0.0, 0.0, 0.0, 1.7063879324788585E9, 0.0, 2024-01-27 15:38:52.478
40.0, -540.699775993824, -708.486647605896, -544.7687871456146, -403.3108112215996, 0.09600000455975533, -0.01600000075995922, 0.9920000471174717, 0.0, 0.0, 0.0, 0.0, 0.0, 1.7063879324795804E9, 0.0, 2024-01-27 15:38:52.479
40.0, -458.12278497219086, -693.1680173873901, -554.5822846293449, -270.4695647954941, 0.09600000455975533, -0.01600000075995922, 0.9920000471174717, 0.0, 0.0, 0.0, 0.0, 0.0, 1.7063879324795804E9, 0.0, 2024-01-27 15:38:52.479
41.0, -557.4545277953148, -693.6467245817184, -545.7262015342712, -383.68381625413895, 0.09600000455975533, -0.03200000151991844, 0.9920000471174717, 0.0, 0.0, 0.0, 0.0, 0.0, 1.7063879324932046E9, 0.0, 2024-01-27 15:38:52.493
41.0, -567.9860860705376, -705.6144044399261, -535.1946432590485, -443.2828619480133, 0.09600000455975533, -0.03200000151991844, 0.9920000471174717, 0.0, 0.0, 0.0, 0.0, 0.0, 1.7063879324932046E9, 0.0, 2024-01-27 15:38:52.493
42.0, -449.74540907144547, -694.3647853732109, -548.1197375059128, -290.575266957283, 0.09600000455975533, -0.03200000151991844, 0.9920000471174717, 0.0, 0.0, 0.0, 0.0, 0.0, 1.7063879325088828E9, 0.0, 2024-01-27 15:38:52.508
42.0, -510.78057634830475, -689.5777134299278, -547.4016767144203, -327.6750745177269, 0.09600000455975533, -0.03200000151991844, 0.9920000471174717, 0.0, 0.0, 0.0, 0.0, 0.0, 1.7063879325088828E9, 0.0, 2024-01-27 15:38:52.508
43.0, -598.3839929103851, -710.8801835775375, -537.1094720363617, -465.54274648427963, 0.09600000455975533, -0.03200000151991844, 0.9920000471174717, 0.0, 0.0, 0.0, 0.0, 0.0, 1.7063879325096152E9, 0.0, 2024-01-27 15:38:52.509
43.0, -489.7174597978592, -699.151857316494, -544.0507263541222, -344.908533513546, 0.09600000455975533, -0.03200000151991844, 0.9920000471174717, 0.0, 0.0, 0.0, 0.0, 0.0, 1.7063879325096152E9, 0.0, 2024-01-27 15:38:52.509
44.0, -475.5955975651741, -687.1841774582863, -548.1197375059128, -282.4372446537018, 0.09600000455975533, -0.03200000151991844, 0.9920000471174717, 0.0, 0.0, 0.0, 0.0, 0.0, 1.706387932523476E9, 0.0, 2024-01-27 15:38:52.523
44.0, -596.2298105359077, -690.5351278185844, -541.4178367853165, -443.2828619480133, 0.09600000455975533, -0.03200000151991844, 0.9920000471174717, 0.0, 0.0, 0.0, 0.0, 0.0, 1.706387932523476E9, 0.0, 2024-01-27 15:38:52.523
45.0, -536.1520576477051, -704.8963436484337, -540.4604223966599, -401.1566288471222, 0.09600000455975533, -0.03200000151991844, 0.9920000471174717, 0.0, 0.0, 0.0, 0.0, 0.0, 1.7063879325391035E9, 0.0, 2024-01-27 15:38:52.539
45.0, -460.0376137495041, -694.8434925675392, -550.7526270747185, -265.682492852211, 0.09600000455975533, -0.03200000151991844, 0.9920000471174717, 0.0, 0.0, 0.0, 0.0, 0.0, 1.7063879325391035E9, 0.0, 2024-01-27 15:38:52.539
46.0, -559.6087101697922, -692.2106029987335, -535.4339968562126, -377.6999763250351, 0.09600000455975533, -0.03200000151991844, 0.9920000471174717, 0.0, 0.0, 0.0, 0.0, 0.0, 1.7063879325396445E9, 0.0, 2024-01-27 15:38:52.539
46.0, -575.4060475826263, -703.2208684682846, -535.6733504533768, -442.804154753685, 0.09600000455975533, -0.03200000151991844, 0.9920000471174717, 0.0, 0.0, 0.0, 0.0, 0.0, 1.7063879325396445E9, 0.0, 2024-01-27 15:38:52.539
47.0, -459.5589065551758, -701.5453932881355, -552.6674558520317, -290.575266957283, 0.09600000455975533, -0.03200000151991844, 0.9920000471174717, 0.0, 0.0, 0.0, 0.0, 0.0, 1.7063879325531564E9, 0.0, 2024-01-27 15:38:52.553
47.0, -517.0037698745728, -691.4925422072411, -549.5558590888977, -320.4944666028023, 0.09600000455975533, -0.03200000151991844, 0.9920000471174717, 0.0, 0.0, 0.0, 0.0, 0.0, 1.7063879325531564E9, 0.0, 2024-01-27 15:38:52.553
48.0, -590.0066170096397, -701.7847468852997, -529.2108033299446, -452.37829864025116, 0.09600000455975533, -0.03200000151991844, 0.9920000471174717, 0.0, 0.0, 0.0, 0.0, 0.0, 1.706387932568895E9, 0.0, 2024-01-27 15:38:52.568
48.0, -490.6748741865158, -699.3912109136581, -547.4016767144203, -342.2756439447403, 0.09600000455975533, -0.03200000151991844, 0.9920000471174717, 0.0, 0.0, 0.0, 0.0, 0.0, 1.706387932568895E9, 0.0, 2024-01-27 15:38:52.568
49.0, -477.98913353681564, -688.380945444107, -550.034566283226, -279.8043550848961, 0.09600000455975533, -0.03200000151991844, 0.9920000471174717, 0.0, 0.0, 0.0, 0.0, 0.0, 1.706387932569599E9, 0.0, 2024-01-27 15:38:52.569
49.0, -597.1872249245644, -702.7421612739563, -544.0507263541222, -440.41061878204346, 0.09600000455975533, -0.03200000151991844, 0.9920000471174717, 0.0, 0.0, 0.0, 0.0, 0.0, 1.706387932569599E9, 0.0, 2024-01-27 15:38:52.569
50.0, -533.2798144817352, -697.9550893306732, -533.5191680788994, -395.4121425151825, 0.09600000455975533, -0.03200000151991844, 0.9920000471174717, 0.0, 0.0, 0.0, 0.0, 0.0, 1.7063879325831842E9, 0.0, 2024-01-27 15:38:52.583
50.0, -458.12278497219086, -693.4073709845543, -549.5558590888977, -267.59732162952423, 0.09600000455975533, -0.03200000151991844, 0.9920000471174717, 0.0, 0.0, 0.0, 0.0, 0.0, 1.7063879325831842E9, 0.0, 2024-01-27 15:38:52.583
51.0, -563.917074918747, -699.8699181079865, -540.699775993824, -381.7689874768257, 0.09600000455975533, -0.01600000075995922, 0.9920000471174717, 0.0, 0.0, 0.0, 0.0, 0.0, 1.7063879325990715E9, 0.0, 2024-01-27 15:38:52.599
51.0, -582.586655497551, -717.821437895298, -541.8965439796448, -455.01118820905685, 0.09600000455975533, -0.01600000075995922, 0.9920000471174717, 0.0, 0.0, 0.0, 0.0, 0.0, 1.7063879325990715E9, 0.0, 2024-01-27 15:38:52.599
52.0, -460.75567454099655, -689.0990062355995, -542.6146047711372, -281.9585374593735, 0.09600000455975533, -0.01600000075995922, 0.9920000471174717, 0.0, 0.0, 0.0, 0.0, 0.0, 1.706387932599684E9, 0.0, 2024-01-27 15:38:52.599
52.0, -514.8495875000954, -675.6952047944069, -528.9714497327805, -305.8938971757889, 0.09600000455975533, -0.01600000075995922, 0.9920000471174717, 0.0, 0.0, 0.0, 0.0, 0.0, 1.706387932599684E9, 0.0, 2024-01-27 15:38:52.599
53.0, -585.4588986635208, -687.9022382497787, -520.3547202348709, -441.8467403650284, 0.09600000455975533, -0.01600000075995922, 0.9920000471174717, 0.0, 0.0, 0.0, 0.0, 0.0, 1.7063879326132853E9, 0.0, 2024-01-27 15:38:52.613
53.0, -464.82468569278717, -673.7803760170937, -523.4663169980049, -329.58990329504013, 0.09600000455975533, -0.01600000075995922, 0.9920000471174717, 0.0, 0.0, 0.0, 0.0, 0.0, 1.7063879326132853E9, 0.0, 2024-01-27 15:38:52.613
54.0, -461.23438173532486, -675.4558511972427, -539.0243008136749, -270.2302111983299, 0.09600000455975533, -0.01600000075995922, 0.9920000471174717, 0.0, 0.0, 0.0, 0.0, 0.0, 1.7063879326290553E9, 0.0, 2024-01-27 15:38:52.629
54.0, -579.7144123315811, -689.5777134299278, -536.3914112448692, -430.357767701149, 0.09600000455975533, -0.01600000075995922, 0.9920000471174717, 0.0, 0.0, 0.0, 0.0, 0.0, 1.7063879326290553E9, 0.0, 2024-01-27 15:38:52.629
55.0, -521.3121346235275, -694.6041389703751, -532.5617536902428, -391.8218385577202, 0.09600000455975533, -0.01600000075995922, 0.9920000471174717, 0.0, 0.0, 0.0, 0.0, 0.0, 1.706387932629726E9, 0.0, 2024-01-27 15:38:52.629
55.0, -443.2828619480133, -677.370679974556, -541.6571903824806, -254.43287378549576, 0.09600000455975533, -0.01600000075995922, 0.9920000471174717, 0.0, 0.0, 0.0, 0.0, 0.0, 1.706387932629726E9, 0.0, 2024-01-27 15:38:52.629
56.0, -556.9758206009865, -686.9448238611221, -533.7585216760635, -374.34902596473694, 0.09600000455975533, -0.01600000075995922, 0.9920000471174717, 0.0, 0.0, 0.0, 0.0, 0.0, 1.7063879326431935E9, 0.0, 2024-01-27 15:38:52.643
56.0, -571.5763900279999, -698.4337965250015, -531.364985704422, -439.2138507962227, 0.09600000455975533, -0.01600000075995922, 0.9920000471174717, 0.0, 0.0, 0.0, 0.0, 0.0, 1.7063879326431935E9, 0.0, 2024-01-27 15:38:52.643
57.0, -461.9524425268173, -690.2957742214203, -537.8275328278542, -283.63401263952255, 0.09600000455975533, -0.01600000075995922, 0.9920000471174717, 0.0, 0.0, 0.0, 0.0, 0.0, 1.706387932659023E9, 0.0, 2024-01-27 15:38:52.659
57.0, -506.71156519651413, -679.5248623490334, -531.8436928987503, -309.24484753608704, 0.09600000455975533, -0.01600000075995922, 0.9920000471174717, 0.0, 0.0, 0.0, 0.0, 0.0, 1.706387932659023E9, 0.0, 2024-01-27 15:38:52.659
58.0, -595.5117497444153, -701.0666860938072, -528.4927425384521, -455.7292490005493, 0.09600000455975533, -0.01600000075995922, 0.9920000471174717, 0.0, 0.0, 0.0, 0.0, 0.0, 1.706387932659599E9, 0.0, 2024-01-27 15:38:52.659
58.0, -498.5735428929329, -704.1782828569412, -546.6836159229279, -337.4885720014572, 0.09600000455975533, -0.01600000075995922, 0.9920000471174717, 0.0, 0.0, 0.0, 0.0, 0.0, 1.706387932659599E9, 0.0, 2024-01-27 15:38:52.659
59.0, -480.62202310562134, -691.4925422072411, -550.5132734775543, -279.0862942934036, 0.09600000455975533, -0.01600000075995922, 0.9920000471174717, 0.0, 0.0, 0.0, 0.0, 0.0, 1.7063879326732616E9, 0.0, 2024-01-27 15:38:52.673
59.0, -594.5543353557587, -698.4337965250015, -537.1094720363617, -432.7513036727905, 0.09600000455975533, -0.01600000075995922, 0.9920000471174717, 0.0, 0.0, 0.0, 0.0, 0.0, 1.7063879326732616E9, 0.0, 2024-01-27 15:38:52.673
60.0, -534.2372288703918, -699.8699181079865, -535.6733504533768, -395.4121425151825, 0.09600000455975533, -0.01600000075995922, 1.008000047877431, 0.0, 0.0, 0.0, 0.0, 0.0, 1.7063879326891243E9, 0.0, 2024-01-27 15:38:52.689
60.0, -454.05377382040024, -685.0299950838089, -544.7687871456146, -255.15093457698822, 0.09600000455975533, -0.01600000075995922, 1.008000047877431, 0.0, 0.0, 0.0, 0.0, 0.0, 1.7063879326891243E9, 0.0, 2024-01-27 15:38:52.689
61.0, -569.6615612506866, -696.5189677476883, -537.8275328278542, -375.78514754772186, 0.09600000455975533, -0.03200000151991844, 1.008000047877431, 0.0, 0.0, 0.0, 0.0, 0.0, 1.706387932689814E9, 0.0, 2024-01-27 15:38:52.689
61.0, -578.7569979429245, -706.5718188285828, -537.8275328278542, -444.00092273950577, 0.09600000455975533, -0.03200000151991844, 1.008000047877431, 0.0, 0.0, 0.0, 0.0, 0.0, 1.706387932689814E9, 0.0, 2024-01-27 15:38:52.689
62.0, -464.34597849845886, -697.4763821363449, -545.2474943399429, -288.42108458280563, 0.09600000455975533, -0.03200000151991844, 1.008000047877431, 0.0, 0.0, 0.0, 0.0, 0.0, 1.706387932703179E9, 0.0, 2024-01-27 15:38:52.703
62.0, -518.918598651886, -690.0564206242561, -535.6733504533768, -310.68096911907196, 0.09600000455975533, -0.03200000151991844, 1.008000047877431, 0.0, 0.0, 0.0, 0.0, 0.0, 1.706387932703179E9, 0.0, 2024-01-27 15:38:52.703
63.0, -599.3414072990417, -703.4602220654488, -529.9288641214371, -455.250541806221, 0.09600000455975533, -0.03200000151991844, 1.008000047877431, 0.0, 0.0, 0.0, 0.0, 0.0, 1.706387932718855E9, 0.0, 2024-01-27 15:38:52.718
63.0, -498.33418929576874, -698.1944429278374, -546.6836159229279, -339.1640471816063, 0.09600000455975533, -0.03200000151991844, 1.008000047877431, 0.0, 0.0, 0.0, 0.0, 0.0, 1.706387932718855E9, 0.0, 2024-01-27 15:38:52.718
64.0, -472.9627079963684, -682.3971055150032, -554.1035774350166, -278.6075870990753, 0.09600000455975533, -0.03200000151991844, 1.008000047877431, 0.0, 0.0, 0.0, 0.0, 0.0, 1.7063879327196007E9, 0.0, 2024-01-27 15:38:52.719
64.0, -586.4163130521774, -695.0828461647034, -532.8011072874069, -426.7674637436867, 0.09600000455975533, -0.03200000151991844, 1.008000047877431, 0.0, 0.0, 0.0, 0.0, 0.0, 1.7063879327196007E9, 0.0, 2024-01-27 15:38:52.719
65.0, -533.0404608845711, -696.5189677476883, -535.6733504533768, -392.3005457520485, 0.09600000455975533, -0.03200000151991844, 1.008000047877431, 0.0, 0.0, 0.0, 0.0, 0.0, 1.7063879327337296E9, 0.0, 2024-01-27 15:38:52.733
65.0, -460.5163209438324, -686.2267630696297, -541.4178367853165, -255.62964177131653, 0.09600000455975533, -0.03200000151991844, 1.008000047877431, 0.0, 0.0, 0.0, 0.0, 0.0, 1.7063879327337296E9, 0.0, 2024-01-27 15:38:52.733
66.0, -560.5661245584488, -687.6628846526146, -533.7585216760635, -369.08324682712555, 0.09600000455975533, -0.03200000151991844, 1.008000047877431, 0.0, 0.0, 0.0, 0.0, 0.0, 1.706387932749307E9, 0.0, 2024-01-27 15:38:52.749
66.0, -573.7305724024773, -704.6569900512695, -529.6895105242729, -434.9054860472679, 0.09600000455975533, -0.03200000151991844, 1.008000047877431, 0.0, 0.0, 0.0, 0.0, 0.0, 1.706387932749307E9, 0.0, 2024-01-27 15:38:52.749
67.0, -456.4473097920418, -695.0828461647034, -545.2474943399429, -281.47983026504517, 0.09600000455975533, -0.03200000151991844, 1.008000047877431, 0.0, 0.0, 0.0, 0.0, 0.0, 1.7063879327496967E9, 0.0, 2024-01-27 15:38:52.749
67.0, -510.0625155568123, -682.157751917839, -542.3752511739731, -309.4842011332512, 0.09600000455975533, -0.03200000151991844, 1.008000047877431, 0.0, 0.0, 0.0, 0.0, 0.0, 1.7063879327496967E9, 0.0, 2024-01-27 15:38:52.749
68.0, -593.596920967102, -700.3486253023148, -535.1946432590485, -450.4634698629379, 0.09600000455975533, -0.03200000151991844, 1.008000047877431, 0.0, 0.0, 0.0, 0.0, 0.0, 1.7063879327633784E9, 0.0, 2024-01-27 15:38:52.763
68.0, -490.43552058935165, -693.6467245817184, -539.0243008136749, -333.18020725250244, 0.09600000455975533, -0.03200000151991844, 1.008000047877431, 0.0, 0.0, 0.0, 0.0, 0.0, 1.7063879327633784E9, 0.0, 2024-01-27 15:38:52.763
69.0, -467.45757526159286, -679.2855087518692, -539.0243008136749, -267.8366752266884, 0.09600000455975533, -0.03200000151991844, 1.008000047877431, 0.0, 0.0, 0.0, 0.0, 0.0, 1.706387932778894E9, 0.0, 2024-01-27 15:38:52.778
69.0, -589.7672634124756, -698.6731501221657, -542.1358975768089, -432.7513036727905, 0.09600000455975533, -0.03200000151991844, 1.008000047877431, 0.0, 0.0, 0.0, 0.0, 0.0, 1.706387932778894E9, 0.0, 2024-01-27 15:38:52.778
70.0, -529.6895105242729, -699.8699181079865, -538.5455936193466, -396.3695569038391, 0.09600000455975533, -0.03200000151991844, 1.008000047877431, 0.0, 0.0, 0.0, 0.0, 0.0, 1.7063879327796535E9, 0.0, 2024-01-27 15:38:52.779
70.0, -447.5912266969681, -684.3119342923164, -550.5132734775543, -260.4167137145996, 0.09600000455975533, -0.03200000151991844, 1.008000047877431, 0.0, 0.0, 0.0, 0.0, 0.0, 1.7063879327796535E9, 0.0, 2024-01-27 15:38:52.779
71.0, -555.7790526151657, -691.4925422072411, -537.58817923069, -375.0670867562294, 0.09600000455975533, -0.01600000075995922, 1.008000047877431, 0.0, 0.0, 0.0, 0.0, 0.0, 1.706387932793427E9, 0.0, 2024-01-27 15:38:52.793
71.0, -580.9111803174019, -710.8801835775375, -539.0243008136749, -443.2828619480133, 0.09600000455975533, -0.01600000075995922, 1.008000047877431, 0.0, 0.0, 0.0, 0.0, 0.0, 1.706387932793427E9, 0.0, 2024-01-27 15:38:52.793
72.0, -457.16537058353424, -691.9712494015694, -543.811372756958, -281.00112307071686, 0.09600000455975533, -0.01600000075995922, 1.008000047877431, 0.0, 0.0, 0.0, 0.0, 0.0, 1.7063879328088279E9, 0.0, 2024-01-27 15:38:52.808
72.0, -511.73799073696136, -683.1151663064957, -539.9817152023315, -313.0745050907135, 0.09600000455975533, -0.01600000075995922, 1.008000047877431, 0.0, 0.0, 0.0, 0.0, 0.0, 1.7063879328088279E9, 0.0, 2024-01-27 15:38:52.808
73.0, -601.0168824791908, -704.6569900512695, -534.7159360647202, -456.9260169863701, 0.09600000455975533, -0.01600000075995922, 1.008000047877431, 0.0, 0.0, 0.0, 0.0, 0.0, 1.7063879328096085E9, 0.0, 2024-01-27 15:38:52.809
73.0, -490.1961669921875, -698.4337965250015, -543.0933119654655, -331.2653784751892, 0.09600000455975533, -0.01600000075995922, 1.008000047877431, 0.0, 0.0, 0.0, 0.0, 0.0, 1.7063879328096085E9, 0.0, 2024-01-27 15:38:52.809
74.0, -478.2284871339798, -683.3545199036598, -546.2049087285995, -270.70891839265823, 0.09600000455975533, -0.01600000075995922, 1.008000047877431, 0.0, 0.0, 0.0, 0.0, 0.0, 1.7063879328237813E9, 0.0, 2024-01-27 15:38:52.823
74.0, -589.5279098153114, -695.3221997618675, -534.2372288703918, -423.17715978622437, 0.09600000455975533, -0.01600000075995922, 1.008000047877431, 0.0, 0.0, 0.0, 0.0, 0.0, 1.7063879328237813E9, 0.0, 2024-01-27 15:38:52.823
75.0, -533.9978752732277, -697.4763821363449, -536.3914112448692, -394.4547281265259, 0.09600000455975533, -0.01600000075995922, 1.008000047877431, 0.0, 0.0, 0.0, 0.0, 0.0, 1.7063879328391612E9, 0.0, 2024-01-27 15:38:52.839
75.0, -455.48989540338516, -689.5777134299278, -541.8965439796448, -257.3051169514656, 0.09600000455975533, -0.01600000075995922, 1.008000047877431, 0.0, 0.0, 0.0, 0.0, 0.0, 1.7063879328391612E9, 0.0, 2024-01-27 15:38:52.839
76.0, -560.3267709612846, -692.4499565958977, -535.9127040505409, -373.87031877040863, 0.09600000455975533, -0.01600000075995922, 1.008000047877431, 0.0, 0.0, 0.0, 0.0, 0.0, 1.7063879328396096E9, 0.0, 2024-01-27 15:38:52.839
76.0, -585.2195450663567, -705.8537580370903, -530.1682177186012, -440.41061878204346, 0.09600000455975533, -0.01600000075995922, 1.008000047877431, 0.0, 0.0, 0.0, 0.0, 0.0, 1.7063879328396096E9, 0.0, 2024-01-27 15:38:52.839
77.0, -459.79826015233994, -689.817067027092, -539.2636544108391, -280.7617694735527, 0.09600000455975533, -0.01600000075995922, 1.008000047877431, 0.0, 0.0, 0.0, 0.0, 0.0, 1.7063879328539932E9, 0.0, 2024-01-27 15:38:52.853
77.0, -511.0199299454689, -680.7216303348541, -533.0404608845711, -304.2184219956398, 0.09600000455975533, -0.01600000075995922, 1.008000047877431, 0.0, 0.0, 0.0, 0.0, 0.0, 1.7063879328539932E9, 0.0, 2024-01-27 15:38:52.853
78.0, -587.8524346351624, -693.1680173873901, -522.03019541502, -441.6073867678642, 0.09600000455975533, -0.01600000075995922, 1.008000047877431, 0.0, 0.0, 0.0, 0.0, 0.0, 1.706387932868797E9, 0.0, 2024-01-27 15:38:52.868
78.0, -482.7762054800987, -692.6893101930618, -531.364985704422, -327.43572092056274, 0.09600000455975533, -0.01600000075995922, 1.008000047877431, 0.0, 0.0, 0.0, 0.0, 0.0, 1.706387932868797E9, 0.0, 2024-01-27 15:38:52.868
79.0, -466.50016087293625, -673.7803760170937, -533.2798144817352, -259.9380065202713, 0.09600000455975533, -0.01600000075995922, 1.008000047877431, 0.0, 0.0, 0.0, 0.0, 0.0, 1.7063879328695443E9, 0.0, 2024-01-27 15:38:52.869
79.0, -586.4163130521774, -688.1415918469429, -525.3811457753181, -422.69845259189606, 0.09600000455975533, -0.01600000075995922, 1.008000047877431, 0.0, 0.0, 0.0, 0.0, 0.0, 1.7063879328695443E9, 0.0, 2024-01-27 15:38:52.869
80.0, -534.2372288703918, -697.2370285391808, -531.1256321072578, -390.86442416906357, 0.09600000455975533, -0.01600000075995922, 1.008000047877431, 0.0, 0.0, 0.0, 0.0, 0.0, 1.7063879328832548E9, 0.0, 2024-01-27 15:38:52.883
80.0, -453.8144202232361, -686.4661166667938, -543.5720191597939, -260.17736011743546, 0.09600000455975533, -0.01600000075995922, 1.008000047877431, 0.0, 0.0, 0.0, 0.0, 0.0, 1.7063879328832548E9, 0.0, 2024-01-27 15:38:52.883
81.0, -543.811372756958, -681.9183983206749, -532.0830464959145, -368.8438932299614, 0.09600000455975533, -0.03200000151991844, 1.008000047877431, 0.0, 0.0, 0.0, 0.0, 0.0, 1.7063879328989077E9, 0.0, 2024-01-27 15:38:52.898
81.0, -571.0976828336716, -697.7157357335091, -526.5779137611389, -441.1286795735359, 0.09600000455975533, -0.03200000151991844, 1.008000047877431, 0.0, 0.0, 0.0, 0.0, 0.0, 1.7063879328989077E9, 0.0, 2024-01-27 15:38:52.898
82.0, -452.138945043087, -686.9448238611221, -539.7423616051674, -283.8733662366867, 0.09600000455975533, -0.03200000151991844, 1.008000047877431, 0.0, 0.0, 0.0, 0.0, 0.0, 1.7063879328995247E9, 0.0, 2024-01-27 15:38:52.899
82.0, -504.55738282203674, -679.7642159461975, -532.3224000930786, -307.09066516160965, 0.09600000455975533, -0.03200000151991844, 1.008000047877431, 0.0, 0.0, 0.0, 0.0, 0.0, 1.7063879328995247E9, 0.0, 2024-01-27 15:38:52.899
83.0, -590.9640313982964, -695.0828461647034, -519.8760130405426, -445.4370443224907, 0.09600000455975533, -0.03200000151991844, 1.008000047877431, 0.0, 0.0, 0.0, 0.0, 0.0, 1.7063879329134445E9, 0.0, 2024-01-27 15:38:52.913
83.0, -488.5206918120384, -690.7744814157486, -526.5779137611389, -329.8292568922043, 0.09600000455975533, -0.03200000151991844, 1.008000047877431, 0.0, 0.0, 0.0, 0.0, 0.0, 1.7063879329134445E9, 0.0, 2024-01-27 15:38:52.913
84.0, -470.3298184275627, -680.0035695433617, -537.1094720363617, -268.55473601818085, 0.09600000455975533, -0.03200000151991844, 1.008000047877431, 0.0, 0.0, 0.0, 0.0, 0.0, 1.7063879329291532E9, 0.0, 2024-01-27 15:38:52.929
84.0, -582.586655497551, -686.9448238611221, -525.3811457753181, -426.28875654935837, 0.09600000455975533, -0.03200000151991844, 1.008000047877431, 0.0, 0.0, 0.0, 0.0, 0.0, 1.7063879329291532E9, 0.0, 2024-01-27 15:38:52.929
85.0, -536.6307648420334, -696.04026055336, -537.58817923069, -401.6353360414505, 0.09600000455975533, -0.03200000151991844, 1.008000047877431, 0.0, 0.0, 0.0, 0.0, 0.0, 1.7063879329297535E9, 0.0, 2024-01-27 15:38:52.929
85.0, -455.48989540338516, -683.1151663064957, -544.0507263541222, -264.4857248663902, 0.09600000455975533, -0.03200000151991844, 1.008000047877431, 0.0, 0.0, 0.0, 0.0, 0.0, 1.7063879329297535E9, 0.0, 2024-01-27 15:38:52.929
86.0, -548.5984447002411, -683.8332270979881, -533.5191680788994, -376.98191553354263, 0.09600000455975533, -0.03200000151991844, 1.008000047877431, 0.0, 0.0, 0.0, 0.0, 0.0, 1.7063879329595428E9, 0.0, 2024-01-27 15:38:52.959
86.0, -571.815743625164, -706.0931116342545, -536.1520576477051, -444.4796299338341, 0.09600000455975533, -0.03200000151991844, 1.008000047877431, 0.0, 0.0, 0.0, 0.0, 0.0, 1.7063879329595428E9, 0.0, 2024-01-27 15:38:52.959
87.0, -466.50016087293625, -700.8273324966431, -549.3165054917336, -292.7294493317604, 0.09600000455975533, -0.03200000151991844, 1.008000047877431, 0.0, 0.0, 0.0, 0.0, 0.0, 1.706387932960251E9, 0.0, 2024-01-27 15:38:52.960
87.0, -511.0199299454689, -681.6790447235107, -533.9978752732277, -312.83515149354935, 0.09600000455975533, -0.03200000151991844, 1.008000047877431, 0.0, 0.0, 0.0, 0.0, 0.0, 1.706387932960251E9, 0.0, 2024-01-27 15:38:52.960
88.0, -594.7936889529228, -699.8699181079865, -526.3385601639748, -453.3357130289078, 0.09600000455975533, -0.03200000151991844, 1.008000047877431, 0.0, 0.0, 0.0, 0.0, 0.0, 1.7063879329610412E9, 0.0, 2024-01-27 15:38:52.961
88.0, -479.42525511980057, -684.0725806951523, -529.6895105242729, -331.02602487802505, 0.09600000455975533, -0.03200000151991844, 1.008000047877431, 0.0, 0.0, 0.0, 0.0, 0.0, 1.7063879329610412E9, 0.0, 2024-01-27 15:38:52.961
89.0, -459.0801993608475, -670.9081328511238, -527.0566209554672, -259.21994572877884, 0.09600000455975533, -0.03200000151991844, 1.008000047877431, 0.0, 0.0, 0.0, 0.0, 0.0, 1.7063879329732244E9, 0.0, 2024-01-27 15:38:52.973
89.0, -581.3898875117302, -683.8332270979881, -520.8334274291992, -416.95396625995636, 0.09600000455975533, -0.03200000151991844, 1.008000047877431, 0.0, 0.0, 0.0, 0.0, 0.0, 1.7063879329732244E9, 0.0, 2024-01-27 15:38:52.973
90.0, -531.364985704422, -693.6467245817184, -523.9450241923332, -393.01860654354095, 0.09600000455975533, -0.03200000151991844, 1.008000047877431, 0.0, 0.0, 0.0, 0.0, 0.0, 1.7063879329890852E9, 0.0, 2024-01-27 15:38:52.989
90.0, -449.26670187711716, -677.370679974556, -535.4339968562126, -254.91158097982407, 0.09600000455975533, -0.03200000151991844, 1.008000047877431, 0.0, 0.0, 0.0, 0.0, 0.0, 1.7063879329890852E9, 0.0, 2024-01-27 15:38:52.989
91.0, -558.1725885868073, -683.593873500824, -528.9714497327805, -366.2110036611557, 0.09600000455975533, -0.03200000151991844, 1.008000047877431, 0.0, 0.0, 0.0, 0.0, 0.0, 1.7063879329896593E9, 0.0, 2024-01-27 15:38:52.989
91.0, -573.7305724024773, -695.0828461647034, -531.1256321072578, -441.6073867678642, 0.09600000455975533, -0.03200000151991844, 1.008000047877431, 0.0, 0.0, 0.0, 0.0, 0.0, 1.7063879329896593E9, 0.0, 2024-01-27 15:38:52.989
92.0, -443.04350835084915, -676.4132655858994, -534.7159360647202, -282.1978910565376, 0.09600000455975533, -0.03200000151991844, 1.008000047877431, 0.0, 0.0, 0.0, 0.0, 0.0, 1.7063879330032485E9, 0.0, 2024-01-27 15:38:53.003
92.0, -500.96707886457443, -676.4132655858994, -528.9714497327805, -305.6545435786247, 0.09600000455975533, -0.03200000151991844, 1.008000047877431, 0.0, 0.0, 0.0, 0.0, 0.0, 1.7063879330032485E9, 0.0, 2024-01-27 15:38:53.003
93.0, -590.2459706068039, -693.4073709845543, -524.4237313866615, -454.05377382040024, 0.09600000455975533, -0.03200000151991844, 1.008000047877431, 0.0, 0.0, 0.0, 0.0, 0.0, 1.7063879330191503E9, 0.0, 2024-01-27 15:38:53.019
93.0, -483.9729734659195, -693.4073709845543, -536.3914112448692, -339.1640471816063, 0.09600000455975533, -0.03200000151991844, 1.008000047877431, 0.0, 0.0, 0.0, 0.0, 0.0, 1.7063879330191503E9, 0.0, 2024-01-27 15:38:53.019
94.0, -463.1492105126381, -674.0197296142578, -537.1094720363617, -268.3153824210167, 0.09600000455975533, -0.03200000151991844, 1.008000047877431, 0.0, 0.0, 0.0, 0.0, 0.0, 1.706387933019678E9, 0.0, 2024-01-27 15:38:53.019
94.0, -574.927340388298, -684.7906414866447, -522.9876098036766, -426.0494029521942, 0.09600000455975533, -0.03200000151991844, 1.008000047877431, 0.0, 0.0, 0.0, 0.0, 0.0, 1.706387933019678E9, 0.0, 2024-01-27 15:38:53.019
95.0, -522.7482562065125, -690.5351278185844, -530.8862785100937, -395.17278891801834, 0.09600000455975533, -0.03200000151991844, 1.008000047877431, 0.0, 0.0, 0.0, 0.0, 0.0, 1.7063879330334601E9, 0.0, 2024-01-27 15:38:53.033
95.0, -445.915751516819, -681.9183983206749, -538.3062400221825, -257.06576335430145, 0.09600000455975533, -0.03200000151991844, 1.008000047877431, 0.0, 0.0, 0.0, 0.0, 0.0, 1.7063879330334601E9, 0.0, 2024-01-27 15:38:53.033
96.0, -552.6674558520317, -686.4661166667938, -528.9714497327805, -363.81746768951416, 0.09600000455975533, -0.03200000151991844, 1.008000047877431, 0.0, 0.0, 0.0, 0.0, 0.0, 1.7063879330490758E9, 0.0, 2024-01-27 15:38:53.049
96.0, -561.0448317527771, -688.380945444107, -518.918598651886, -430.11841410398483, 0.09600000455975533, -0.03200000151991844, 1.008000047877431, 0.0, 0.0, 0.0, 0.0, 0.0, 1.7063879330490758E9, 0.0, 2024-01-27 15:38:53.049
97.0, -443.52221554517746, -681.4396911263466, -532.5617536902428, -277.6501727104187, 0.09600000455975533, -0.03200000151991844, 1.008000047877431, 0.0, 0.0, 0.0, 0.0, 0.0, 1.7063879330501802E9, 0.0, 2024-01-27 15:38:53.050
97.0, -494.9832389354706, -676.8919727802277, -530.4075713157654, -301.5855324268341, 0.09600000455975533, -0.03200000151991844, 1.008000047877431, 0.0, 0.0, 0.0, 0.0, 0.0, 1.7063879330501802E9, 0.0, 2024-01-27 15:38:53.050
98.0, -604.8465400338173, -713.2737195491791, -544.0507263541222, -466.50016087293625, 0.09600000455975533, -0.03200000151991844, 1.008000047877431, 0.0, 0.0, 0.0, 0.0, 0.0, 1.7063879330792375E9, 0.0, 2024-01-27 15:38:53.079
98.0, -499.77031087875366, -701.7847468852997, -549.3165054917336, -350.89237344264984, 0.09600000455975533, -0.03200000151991844, 1.008000047877431, 0.0, 0.0, 0.0, 0.0, 0.0, 1.7063879330792375E9, 0.0, 2024-01-27 15:38:53.079
99.0, -479.6646087169647, -686.2267630696297, -547.6410303115845, -275.25663673877716, 0.09600000455975533, -0.03200000151991844, 1.008000047877431, 0.0, 0.0, 0.0, 0.0, 0.0, 1.7063879330796196E9, 0.0, 2024-01-27 15:38:53.079
99.0, -584.0227770805359, -689.0990062355995, -521.0727810263634, -418.15073424577713, 0.09600000455975533, -0.03200000151991844, 1.008000047877431, 0.0, 0.0, 0.0, 0.0, 0.0, 1.7063879330796196E9, 0.0, 2024-01-27 15:38:53.079
0.0, -454.53248101472855, -691.2531886100769, -543.811372756958, -261.6134817004204, 0.09600000455975533, -0.03200000151991844, 1.008000047877431, 0.0, 0.0, 0.0, 0.0, 0.0, 1.7063879330940037E9, 0.0, 2024-01-27 15:38:53.094
0.0, -560.3267709612846, -692.4499565958977, -538.5455936193466, -370.7587220072746, 0.09600000455975533, -0.03200000151991844, 1.008000047877431, 0.0, 0.0, 0.0, 0.0, 0.0, 1.7063879330940037E9, 0.0, 2024-01-27 15:38:53.094
1.0, -567.028671681881, -697.2370285391808, -533.7585216760635, -438.7351436018944, 0.09600000455975533, -0.03200000151991844, 1.008000047877431, 0.0, 0.0, 0.0, 0.0, 0.0, 1.7063879330947337E9, 0.0, 2024-01-27 15:38:53.094
1.0, -457.4047241806984, -692.2106029987335, -538.7849472165108, -283.15530544519424, 0.09600000455975533, -0.03200000151991844, 1.008000047877431, 0.0, 0.0, 0.0, 0.0, 0.0, 1.7063879330947337E9, 0.0, 2024-01-27 15:38:53.094
2.0, -516.5250626802444, -689.3383598327637, -538.5455936193466, -312.5957978963852, 0.09600000455975533, -0.03200000151991844, 1.008000047877431, 0.0, 0.0, 0.0, 0.0, 0.0, 1.7063879331081605E9, 0.0, 2024-01-27 15:38:53.108
2.0, -593.3575673699379, -700.3486253023148, -526.0992065668106, -449.26670187711716, 0.09600000455975533, -0.03200000151991844, 1.008000047877431, 0.0, 0.0, 0.0, 0.0, 0.0, 1.7063879331081605E9, 0.0, 2024-01-27 15:38:53.108
3.0, -488.0419846177101, -693.4073709845543, -528.253388941288, -335.3343896269798, 0.09600000455975533, -0.03200000151991844, 1.008000047877431, 0.0, 0.0, 0.0, 0.0, 0.0, 1.7063879331238866E9, 0.0, 2024-01-27 15:38:53.123
3.0, -461.23438173532486, -672.822961628437, -532.8011072874069, -261.6134817004204, 0.09600000455975533, -0.03200000151991844, 1.008000047877431, 0.0, 0.0, 0.0, 0.0, 0.0, 1.7063879331238866E9, 0.0, 2024-01-27 15:38:53.123
4.0, -583.7834234833717, -687.1841774582863, -528.253388941288, -427.00681734085083, 0.09600000455975533, -0.03200000151991844, 1.008000047877431, 0.0, 0.0, 0.0, 0.0, 0.0, 1.706387933124602E9, 0.0, 2024-01-27 15:38:53.124
4.0, -539.7423616051674, -704.6569900512695, -531.6043393015862, -399.4811536669731, 0.09600000455975533, -0.03200000151991844, 1.008000047877431, 0.0, 0.0, 0.0, 0.0, 0.0, 1.706387933124602E9, 0.0, 2024-01-27 15:38:53.124
5.0, -454.7718346118927, -691.9712494015694, -547.1623231172562, -264.4857248663902, 0.09600000455975533, -0.03200000151991844, 1.008000047877431, 0.0, 0.0, 0.0, 0.0, 0.0, 1.70638793313819E9, 0.0, 2024-01-27 15:38:53.138
5.0, -560.0874173641205, -689.3383598327637, -540.699775993824, -372.912904381752, 0.09600000455975533, -0.03200000151991844, 1.008000047877431, 0.0, 0.0, 0.0, 0.0, 0.0, 1.70638793313819E9, 0.0, 2024-01-27 15:38:53.138
6.0, -578.9963515400887, -706.5718188285828, -538.0668864250183, -447.83058029413223, 0.09600000455975533, -0.03200000151991844, 1.008000047877431, 0.0, 0.0, 0.0, 0.0, 0.0, 1.7063879331542432E9, 0.0, 2024-01-27 15:38:53.154
6.0, -462.43114972114563, -701.7847468852997, -549.5558590888977, -294.64427810907364, 0.09600000455975533, -0.03200000151991844, 1.008000047877431, 0.0, 0.0, 0.0, 0.0, 0.0, 1.7063879331542432E9, 0.0, 2024-01-27 15:38:53.154
7.0, -514.6102339029312, -691.9712494015694, -541.1784831881523, -318.57963782548904, 0.09600000455975533, -0.03200000151991844, 1.008000047877431, 0.0, 0.0, 0.0, 0.0, 0.0, 1.7063879331546392E9, 0.0, 2024-01-27 15:38:53.154
7.0, -600.0594680905342, -702.263454079628, -528.7320961356163, -452.85700583457947, 0.09600000455975533, -0.03200000151991844, 1.008000047877431, 0.0, 0.0, 0.0, 0.0, 0.0, 1.7063879331546392E9, 0.0, 2024-01-27 15:38:53.154
8.0, -482.2974982857704, -685.9874094724655, -531.8436928987503, -336.0524504184723, 0.09600000455975533, -0.03200000151991844, 1.008000047877431, 0.0, 0.0, 0.0, 0.0, 0.0, 1.7063879331682737E9, 0.0, 2024-01-27 15:38:53.168
8.0, -476.0743047595024, -682.8758127093315, -539.7423616051674, -267.8366752266884, 0.09600000455975533, -0.03200000151991844, 1.008000047877431, 0.0, 0.0, 0.0, 0.0, 0.0, 1.7063879331682737E9, 0.0, 2024-01-27 15:38:53.168
9.0, -587.8524346351624, -697.2370285391808, -531.1256321072578, -427.48552453517914, 0.09600000455975533, -0.03200000151991844, 1.008000047877431, 0.0, 0.0, 0.0, 0.0, 0.0, 1.7063879331838975E9, 0.0, 2024-01-27 15:38:53.183
9.0, -543.0933119654655, -702.0241004824638, -534.9552896618843, -405.46499359607697, 0.09600000455975533, -0.03200000151991844, 1.008000047877431, 0.0, 0.0, 0.0, 0.0, 0.0, 1.7063879331838975E9, 0.0, 2024-01-27 15:38:53.183
10.0, -468.4149896502495, -699.3912109136581, -550.9919806718826, -269.2727968096733, 0.09600000455975533, -0.03200000151991844, 1.008000047877431, 0.0, 0.0, 0.0, 0.0, 0.0, 1.706387933184571E9, 0.0, 2024-01-27 15:38:53.184
10.0, -551.9493950605392, -694.6041389703751, -539.7423616051674, -370.9980756044388, 0.09600000455975533, -0.03200000151991844, 1.008000047877431, 0.0, 0.0, 0.0, 0.0, 0.0, 1.706387933184571E9, 0.0, 2024-01-27 15:38:53.184
11.0, -572.0550972223282, -704.1782828569412, -533.5191680788994, -450.7028234601021, 0.09600000455975533, -0.03200000151991844, 1.008000047877431, 0.0, 0.0, 0.0, 0.0, 0.0, 1.7063879331981769E9, 0.0, 2024-01-27 15:38:53.198
11.0, -455.01118820905685, -691.7318958044052, -544.5294335484505, -289.85720616579056, 0.09600000455975533, -0.03200000151991844, 1.008000047877431, 0.0, 0.0, 0.0, 0.0, 0.0, 1.7063879331981769E9, 0.0, 2024-01-27 15:38:53.198
12.0, -508.3870403766632, -687.6628846526146, -546.2049087285995, -316.90416264533997, 0.09600000455975533, -0.03200000151991844, 1.008000047877431, 0.0, 0.0, 0.0, 0.0, 0.0, 1.706387933214002E9, 0.0, 2024-01-27 15:38:53.214
12.0, -592.6395065784454, -700.1092717051506, -536.3914112448692, -462.1917961239815, 0.09600000455975533, -0.03200000151991844, 1.008000047877431, 0.0, 0.0, 0.0, 0.0, 0.0, 1.706387933214002E9, 0.0, 2024-01-27 15:38:53.214
13.0, -498.81289649009705, -702.0241004824638, -541.1784831881523, -347.30206948518753, 0.09600000455975533, -0.03200000151991844, 1.008000047877431, 0.0, 0.0, 0.0, 0.0, 0.0, 1.7063879332146325E9, 0.0, 2024-01-27 15:38:53.214
13.0, -476.31365835666656, -686.2267630696297, -549.0771518945694, -280.04370868206024, 0.09600000455975533, -0.03200000151991844, 1.008000047877431, 0.0, 0.0, 0.0, 0.0, 0.0, 1.7063879332146325E9, 0.0, 2024-01-27 15:38:53.214
14.0, -584.7408378720284, -692.2106029987335, -538.5455936193466, -431.55453568696976, 0.09600000455975533, -0.03200000151991844, 1.008000047877431, 0.0, 0.0, 0.0, 0.0, 0.0, 1.7063879332287335E9, 0.0, 2024-01-27 15:38:53.228
14.0, -535.6733504533768, -701.5453932881355, -534.476582467556, -406.4224079847336, 0.09600000455975533, -0.03200000151991844, 1.008000047877431, 0.0, 0.0, 0.0, 0.0, 0.0, 1.7063879332287335E9, 0.0, 2024-01-27 15:38:53.228
15.0, -452.85700583457947, -690.5351278185844, -545.7262015342712, -266.6399072408676, 0.09600000455975533, -0.03200000151991844, 1.008000047877431, 0.0, 0.0, 0.0, 0.0, 0.0, 1.7063879332443671E9, 0.0, 2024-01-27 15:38:53.244
15.0, -550.9919806718826, -688.6202990412712, -536.6307648420334, -371.9554899930954, 0.09600000455975533, -0.03200000151991844, 1.008000047877431, 0.0, 0.0, 0.0, 0.0, 0.0, 1.7063879332443671E9, 0.0, 2024-01-27 15:38:53.244
16.0, -576.363461971283, -704.1782828569412, -536.6307648420334, -449.26670187711716, 0.09600000455975533, -0.03200000151991844, 1.008000047877431, 0.0, 0.0, 0.0, 0.0, 0.0, 1.7063879332446625E9, 0.0, 2024-01-27 15:38:53.244
16.0, -458.60149216651917, -691.9712494015694, -545.2474943399429, -292.2507421374321, 0.09600000455975533, -0.03200000151991844, 1.008000047877431, 0.0, 0.0, 0.0, 0.0, 0.0, 1.7063879332446625E9, 0.0, 2024-01-27 15:38:53.244
17.0, -509.82316195964813, -685.269348680973, -543.0933119654655, -318.8189914226532, 0.09600000455975533, -0.03200000151991844, 1.008000047877431, 0.0, 0.0, 0.0, 0.0, 0.0, 1.7063879332581604E9, 0.0, 2024-01-27 15:38:53.258
17.0, -597.4265785217285, -702.7421612739563, -536.6307648420334, -459.79826015233994, 0.09600000455975533, -0.03200000151991844, 1.008000047877431, 0.0, 0.0, 0.0, 0.0, 0.0, 1.7063879332581604E9, 0.0, 2024-01-27 15:38:53.258
18.0, -493.54711735248566, -696.5189677476883, -540.4604223966599, -342.51499754190445, 0.09600000455975533, -0.03200000151991844, 1.008000047877431, 0.0, 0.0, 0.0, 0.0, 0.0, 1.7063879332739315E9, 0.0, 2024-01-27 15:38:53.273
18.0, -468.4149896502495, -681.2003375291824, -544.5294335484505, -274.0598687529564, 0.09600000455975533, -0.03200000151991844, 1.008000047877431, 0.0, 0.0, 0.0, 0.0, 0.0, 1.7063879332739315E9, 0.0, 2024-01-27 15:38:53.273
19.0, -588.3311418294907, -692.4499565958977, -531.8436928987503, -429.8790605068207, 0.09600000455975533, -0.03200000151991844, 1.008000047877431, 0.0, 0.0, 0.0, 0.0, 0.0, 1.706387933274558E9, 0.0, 2024-01-27 15:38:53.274
19.0, -541.1784831881523, -703.9389292597771, -539.9817152023315, -407.14046877622604, 0.09600000455975533, -0.03200000151991844, 1.008000047877431, 0.0, 0.0, 0.0, 0.0, 0.0, 1.706387933274558E9, 0.0, 2024-01-27 15:38:53.274
20.0, -451.42088425159454, -688.1415918469429, -548.8377982974052, -270.2302111983299, 0.09600000455975533, -0.03200000151991844, 1.008000047877431, 0.0, 0.0, 0.0, 0.0, 0.0, 1.7063879332881796E9, 0.0, 2024-01-27 15:38:53.288
20.0, -554.1035774350166, -689.3383598327637, -539.5030080080032, -375.0670867562294, 0.09600000455975533, -0.03200000151991844, 1.008000047877431, 0.0, 0.0, 0.0, 0.0, 0.0, 1.7063879332881796E9, 0.0, 2024-01-27 15:38:53.288
21.0, -580.4324731230736, -702.9815148711205, -539.2636544108391, -454.05377382040024, 0.09600000455975533, -0.03200000151991844, 1.008000047877431, 0.0, 0.0, 0.0, 0.0, 0.0, 1.7063879333038492E9, 0.0, 2024-01-27 15:38:53.303
21.0, -466.97886806726456, -698.9125037193298, -545.2474943399429, -289.6178525686264, 0.09600000455975533, -0.03200000151991844, 1.008000047877431, 0.0, 0.0, 0.0, 0.0, 0.0, 1.7063879333038492E9, 0.0, 2024-01-27 15:38:53.303
22.0, -515.5676482915878, -687.9022382497787, -539.5030080080032, -308.04807955026627, 0.09600000455975533, -0.03200000151991844, 1.008000047877431, 0.0, 0.0, 0.0, 0.0, 0.0, 1.7063879333045604E9, 0.0, 2024-01-27 15:38:53.304
22.0, -594.3149817585945, -695.8009069561958, -532.5617536902428, -458.12278497219086, 0.09600000455975533, -0.03200000151991844, 1.008000047877431, 0.0, 0.0, 0.0, 0.0, 0.0, 1.7063879333045604E9, 0.0, 2024-01-27 15:38:53.304
23.0, -489.95681339502335, -693.8860781788826, -530.1682177186012, -342.03629034757614, 0.09600000455975533, -0.03200000151991844, 1.008000047877431, 0.0, 0.0, 0.0, 0.0, 0.0, 1.70638793331842E9, 0.0, 2024-01-27 15:38:53.318
23.0, -477.98913353681564, -684.5512878894806, -541.4178367853165, -274.29922235012054, 0.09600000455975533, -0.03200000151991844, 1.008000047877431, 0.0, 0.0, 0.0, 0.0, 0.0, 1.70638793331842E9, 0.0, 2024-01-27 15:38:53.318
24.0, -587.1343738436699, -689.5777134299278, -530.6469249129295, -431.7938892841339, 0.09600000455975533, -0.03200000151991844, 1.008000047877431, 0.0, 0.0, 0.0, 0.0, 0.0, 1.7063879333341987E9, 0.0, 2024-01-27 15:38:53.334
24.0, -528.7320961356163, -694.8434925675392, -532.8011072874069, -406.1830543875694, 0.09600000455975533, -0.03200000151991844, 1.008000047877431, 0.0, 0.0, 0.0, 0.0, 0.0, 1.7063879333341987E9, 0.0, 2024-01-27 15:38:53.334
25.0, -445.915751516819, -680.2429231405258, -533.7585216760635, -258.02317774295807, 0.09600000455975533, -0.03200000151991844, 1.008000047877431, 0.0, 0.0, 0.0, 0.0, 0.0, 1.7063879333347645E9, 0.0, 2024-01-27 15:38:53.334
25.0, -540.2210687994957, -675.6952047944069, -529.2108033299446, -364.5355284810066, 0.09600000455975533, -0.03200000151991844, 1.008000047877431, 0.0, 0.0, 0.0, 0.0, 0.0, 1.7063879333347645E9, 0.0, 2024-01-27 15:38:53.334
26.0, -565.8319036960602, -693.1680173873901, -526.5779137611389, -445.4370443224907, 0.09600000455975533, -0.03200000151991844, 1.008000047877431, 0.0, 0.0, 0.0, 0.0, 0.0, 1.7063879333482327E9, 0.0, 2024-01-27 15:38:53.348
26.0, -456.2079561948776, -689.0990062355995, -542.3752511739731, -288.6604381799698, 0.09600000455975533, -0.03200000151991844, 1.008000047877431, 0.0, 0.0, 0.0, 0.0, 0.0, 1.7063879333482327E9, 0.0, 2024-01-27 15:38:53.348
27.0, -516.2857090830803, -686.4661166667938, -545.7262015342712, -313.0745050907135, 0.09600000455975533, -0.03200000151991844, 1.008000047877431, 0.0, 0.0, 0.0, 0.0, 0.0, 1.7063879333639317E9, 0.0, 2024-01-27 15:38:53.363
27.0, -604.6071864366531, -707.7685868144035, -533.2798144817352, -464.1066249012947, 0.09600000455975533, -0.03200000151991844, 1.008000047877431, 0.0, 0.0, 0.0, 0.0, 0.0, 1.7063879333639317E9, 0.0, 2024-01-27 15:38:53.363
28.0, -493.7864709496498, -696.04026055336, -537.58817923069, -352.0891414284706, 0.09600000455975533, -0.03200000151991844, 1.008000047877431, 0.0, 0.0, 0.0, 0.0, 0.0, 1.7063879333646648E9, 0.0, 2024-01-27 15:38:53.364
28.0, -483.25491267442703, -694.8434925675392, -551.7100414633751, -277.88952630758286, 0.09600000455975533, -0.03200000151991844, 1.008000047877431, 0.0, 0.0, 0.0, 0.0, 0.0, 1.7063879333646648E9, 0.0, 2024-01-27 15:38:53.364
29.0, -587.8524346351624, -702.0241004824638, -536.6307648420334, -430.59712129831314, 0.09600000455975533, -0.03200000151991844, 1.008000047877431, 0.0, 0.0, 0.0, 0.0, 0.0, 1.7063879333783393E9, 0.0, 2024-01-27 15:38:53.378
29.0, -512.2166979312897, -676.6526191830635, -512.2166979312897, -388.2315346002579, 0.09600000455975533, -0.03200000151991844, 1.008000047877431, 0.0, 0.0, 0.0, 0.0, 0.0, 1.7063879333783393E9, 0.0, 2024-01-27 15:38:53.378
30.0, -439.2138507962227, -675.4558511972427, -534.476582467556, -261.3741281032562, 0.09600000455975533, -0.03200000151991844, 1.008000047877431, 0.0, 0.0, 0.0, 0.0, 0.0, 1.7063879333939264E9, 0.0, 2024-01-27 15:38:53.393
30.0, -527.0566209554672, -669.4720112681389, -526.0992065668106, -365.7322964668274, 0.09600000455975533, -0.03200000151991844, 1.008000047877431, 0.0, 0.0, 0.0, 0.0, 0.0, 1.7063879333939264E9, 0.0, 2024-01-27 15:38:53.393
31.0, -556.4971134066582, -690.7744814157486, -520.1153666377068, -445.67639791965485, 0.09600000455975533, -0.03200000151991844, 1.008000047877431, 0.0, 0.0, 0.0, 0.0, 0.0, 1.7063879333945768E9, 0.0, 2024-01-27 15:38:53.394
31.0, -437.5383756160736, -679.2855087518692, -539.0243008136749, -297.5165212750435, 0.09600000455975533, -0.03200000151991844, 1.008000047877431, 0.0, 0.0, 0.0, 0.0, 0.0, 1.7063879333945768E9, 0.0, 2024-01-27 15:38:53.394
32.0, -489.7174597978592, -673.3016688227654, -537.3488256335258, -315.7073946595192, 0.09600000455975533, -0.03200000151991844, 1.008000047877431, 0.0, 0.0, 0.0, 0.0, 0.0, 1.7063879334085531E9, 0.0, 2024-01-27 15:38:53.408
32.0, -567.7467324733734, -683.8332270979881, -522.2695490121841, -456.9260169863701, 0.09600000455975533, -0.03200000151991844, 1.008000047877431, 0.0, 0.0, 0.0, 0.0, 0.0, 1.7063879334085531E9, 0.0, 2024-01-27 15:38:53.408
33.0, -461.23438173532486, -675.934558391571, -526.5779137611389, -340.36081516742706, 0.09600000455975533, -0.03200000151991844, 1.008000047877431, 0.0, 0.0, 0.0, 0.0, 0.0, 1.70638793342417E9, 0.0, 2024-01-27 15:38:53.424
33.0, -449.26670187711716, -668.5145968794823, -536.3914112448692, -272.14503997564316, 0.09600000455975533, -0.03200000151991844, 1.008000047877431, 0.0, 0.0, 0.0, 0.0, 0.0, 1.70638793342417E9, 0.0, 2024-01-27 15:38:53.424
34.0, -566.7893180847168, -677.6100335717201, -524.6630849838257, -430.357767701149, 0.09600000455975533, -0.03200000151991844, 1.008000047877431, 0.0, 0.0, 0.0, 0.0, 0.0, 1.7063879334246635E9, 0.0, 2024-01-27 15:38:53.424
34.0, -506.47221159935, -673.5410224199295, -520.5940738320351, -400.6779216527939, 0.09600000455975533, -0.03200000151991844, 1.008000047877431, 0.0, 0.0, 0.0, 0.0, 0.0, 1.7063879334246635E9, 0.0, 2024-01-27 15:38:53.424
35.0, -421.022977411747, -667.5571824908257, -530.1682177186012, -260.4167137145996, 0.09600000455975533, -0.03200000151991844, 1.008000047877431, 0.0, 0.0, 0.0, 0.0, 0.0, 1.706387933438468E9, 0.0, 2024-01-27 15:38:53.438
35.0, -527.5353281497955, -666.8391216993332, -528.9714497327805, -370.2800148129463, 0.09600000455975533, -0.03200000151991844, 1.008000047877431, 0.0, 0.0, 0.0, 0.0, 0.0, 1.706387933438468E9, 0.0, 2024-01-27 15:38:53.438
36.0, -555.0609918236732, -684.3119342923164, -527.2959745526314, -454.05377382040024, 0.09600000455975533, -0.03200000151991844, 1.008000047877431, 0.0, 0.0, 0.0, 0.0, 0.0, 1.706387933453939E9, 0.0, 2024-01-27 15:38:53.453
36.0, -443.04350835084915, -684.0725806951523, -543.3326655626297, -299.6707036495209, 0.09600000455975533, -0.03200000151991844, 1.008000047877431, 0.0, 0.0, 0.0, 0.0, 0.0, 1.706387933453939E9, 0.0, 2024-01-27 15:38:53.453
37.0, -488.28133821487427, -675.2164976000786, -530.8862785100937, -310.20226192474365, 0.09600000455975533, -0.03200000151991844, 1.008000047877431, 0.0, 0.0, 0.0, 0.0, 0.0, 1.7063879334546664E9, 0.0, 2024-01-27 15:38:53.454
37.0, -571.0976828336716, -687.1841774582863, -526.8172673583031, -461.473735332489, 0.09600000455975533, -0.03200000151991844, 1.008000047877431, 0.0, 0.0, 0.0, 0.0, 0.0, 1.7063879334546664E9, 0.0, 2024-01-27 15:38:53.454
38.0, -481.3400838971138, -693.6467245817184, -535.4339968562126, -349.69560545682907, 0.09600000455975533, -0.03200000151991844, 1.008000047877431, 0.0, 0.0, 0.0, 0.0, 0.0, 1.7063879334681485E9, 0.0, 2024-01-27 15:38:53.468
38.0, -459.79826015233994, -679.7642159461975, -541.8965439796448, -277.88952630758286, 0.09600000455975533, -0.03200000151991844, 1.008000047877431, 0.0, 0.0, 0.0, 0.0, 0.0, 1.7063879334681485E9, 0.0, 2024-01-27 15:38:53.468
39.0, -572.7731580138206, -685.269348680973, -527.5353281497955, -427.48552453517914, 0.09600000455975533, -0.03200000151991844, 1.008000047877431, 0.0, 0.0, 0.0, 0.0, 0.0, 1.706387933483893E9, 0.0, 2024-01-27 15:38:53.483
39.0, -521.5514882206917, -690.0564206242561, -525.8598529696465, -404.50757920742035, 0.09600000455975533, -0.03200000151991844, 1.008000047877431, 0.0, 0.0, 0.0, 0.0, 0.0, 1.706387933483893E9, 0.0, 2024-01-27 15:38:53.483
40.0, -439.2138507962227, -679.2855087518692, -536.1520576477051, -260.65606731176376, 0.09600000455975533, -0.03200000151991844, 1.008000047877431, 0.0, 0.0, 0.0, 0.0, 0.0, 1.7063879334846237E9, 0.0, 2024-01-27 15:38:53.484
40.0, -539.0243008136749, -680.48227673769, -529.4501569271088, -369.801307618618, 0.09600000455975533, -0.03200000151991844, 1.008000047877431, 0.0, 0.0, 0.0, 0.0, 0.0, 1.7063879334846237E9, 0.0, 2024-01-27 15:38:53.484
41.0, -560.0874173641205, -689.3383598327637, -528.9714497327805, -444.9583371281624, 0.09600000455975533, -0.03200000151991844, 1.008000047877431, 0.0, 0.0, 0.0, 0.0, 0.0, 1.7063879335151172E9, 0.0, 2024-01-27 15:38:53.515
41.0, -446.8731659054756, -685.0299950838089, -544.5294335484505, -292.49009573459625, 0.09600000455975533, -0.03200000151991844, 1.008000047877431, 0.0, 0.0, 0.0, 0.0, 0.0, 1.7063879335151172E9, 0.0, 2024-01-27 15:38:53.515
42.0, -491.6322885751724, -669.711364865303, -535.6733504533768, -310.4416155219078, 0.09600000455975533, -0.03200000151991844, 1.008000047877431, 0.0, 0.0, 0.0, 0.0, 0.0, 1.7063879335153677E9, 0.0, 2024-01-27 15:38:53.515
42.0, -576.1241083741188, -688.380945444107, -529.6895105242729, -456.4473097920418, 0.09600000455975533, -0.03200000151991844, 1.008000047877431, 0.0, 0.0, 0.0, 0.0, 0.0, 1.7063879335153677E9, 0.0, 2024-01-27 15:38:53.515
43.0, -476.5530119538307, -684.7906414866447, -533.9978752732277, -344.1904727220535, 0.09600000455975533, -0.03200000151991844, 1.008000047877431, 0.0, 0.0, 0.0, 0.0, 0.0, 1.706387933516188E9, 0.0, 2024-01-27 15:38:53.516
43.0, -456.4473097920418, -676.6526191830635, -535.4339968562126, -268.55473601818085, 0.09600000455975533, -0.03200000151991844, 1.008000047877431, 0.0, 0.0, 0.0, 0.0, 0.0, 1.706387933516188E9, 0.0, 2024-01-27 15:38:53.516
44.0, -577.0815227627754, -689.5777134299278, -531.364985704422, -427.48552453517914, 0.09600000455975533, -0.03200000151991844, 1.008000047877431, 0.0, 0.0, 0.0, 0.0, 0.0, 1.7063879335281975E9, 0.0, 2024-01-27 15:38:53.528
44.0, -531.364985704422, -697.9550893306732, -533.5191680788994, -404.98628640174866, 0.09600000455975533, -0.03200000151991844, 1.008000047877431, 0.0, 0.0, 0.0, 0.0, 0.0, 1.7063879335281975E9, 0.0, 2024-01-27 15:38:53.528
45.0, -445.915751516819, -676.6526191830635, -540.699775993824, -257.7838241457939, 0.09600000455975533, -0.03200000151991844, 1.008000047877431, 0.0, 0.0, 0.0, 0.0, 0.0, 1.706387933544253E9, 0.0, 2024-01-27 15:38:53.544
45.0, -541.6571903824806, -680.48227673769, -529.4501569271088, -361.9026389122009, 0.09600000455975533, -0.03200000151991844, 1.008000047877431, 0.0, 0.0, 0.0, 0.0, 0.0, 1.706387933544253E9, 0.0, 2024-01-27 15:38:53.544
46.0, -566.7893180847168, -690.0564206242561, -527.5353281497955, -445.19769072532654, 0.09600000455975533, -0.03200000151991844, 1.008000047877431, 0.0, 0.0, 0.0, 0.0, 0.0, 1.7063879335446987E9, 0.0, 2024-01-27 15:38:53.544
46.0, -445.19769072532654, -681.2003375291824, -534.9552896618843, -283.8733662366867, 0.09600000455975533, -0.03200000151991844, 1.008000047877431, 0.0, 0.0, 0.0, 0.0, 0.0, 1.7063879335446987E9, 0.0, 2024-01-27 15:38:53.544
47.0, -500.24901807308197, -681.2003375291824, -529.9288641214371, -303.97906839847565, 0.09600000455975533, -0.03200000151991844, 1.008000047877431, 0.0, 0.0, 0.0, 0.0, 0.0, 1.7063879335582764E9, 0.0, 2024-01-27 15:38:53.558
47.0, -589.7672634124756, -702.5028076767921, -533.5191680788994, -458.8408457636833, 0.09600000455975533, -0.03200000151991844, 1.008000047877431, 0.0, 0.0, 0.0, 0.0, 0.0, 1.7063879335582764E9, 0.0, 2024-01-27 15:38:53.558
48.0, -492.3503493666649, -702.263454079628, -545.0081407427788, -349.4562518596649, 0.09600000455975533, -0.03200000151991844, 1.008000047877431, 0.0, 0.0, 0.0, 0.0, 0.0, 1.7063879335741873E9, 0.0, 2024-01-27 15:38:53.574
48.0, -468.65434324741364, -684.3119342923164, -545.7262015342712, -268.3153824210167, 0.09600000455975533, -0.03200000151991844, 1.008000047877431, 0.0, 0.0, 0.0, 0.0, 0.0, 1.7063879335741873E9, 0.0, 2024-01-27 15:38:53.574
49.0, -576.6028155684471, -689.0990062355995, -522.5089026093483, -415.7571982741356, 0.09600000455975533, -0.03200000151991844, 1.008000047877431, 0.0, 0.0, 0.0, 0.0, 0.0, 1.7063879335748737E9, 0.0, 2024-01-27 15:38:53.574
49.0, -536.3914112448692, -697.7157357335091, -535.4339968562126, -402.1140432357788, 0.09600000455975533, -0.03200000151991844, 1.008000047877431, 0.0, 0.0, 0.0, 0.0, 0.0, 1.7063879335748737E9, 0.0, 2024-01-27 15:38:53.574
50.0, -453.3357130289078, -688.6202990412712, -545.0081407427788, -263.28895688056946, 0.09600000455975533, -0.03200000151991844, 1.008000047877431, 0.0, 0.0, 0.0, 0.0, 0.0, 1.7063879335883E9, 0.0, 2024-01-27 15:38:53.588
50.0, -547.8803839087486, -688.1415918469429, -538.3062400221825, -370.5193684101105, 0.09600000455975533, -0.03200000151991844, 1.008000047877431, 0.0, 0.0, 0.0, 0.0, 0.0, 1.7063879335883E9, 0.0, 2024-01-27 15:38:53.588
51.0, -571.3370364308357, -702.9815148711205, -533.7585216760635, -450.94217705726624, 0.09600000455975533, -0.03200000151991844, 1.008000047877431, 0.0, 0.0, 0.0, 0.0, 0.0, 1.7063879336038928E9, 0.0, 2024-01-27 15:38:53.603
51.0, -451.42088425159454, -692.6893101930618, -544.5294335484505, -297.0378140807152, 0.09600000455975533, -0.03200000151991844, 1.008000047877431, 0.0, 0.0, 0.0, 0.0, 0.0, 1.7063879336038928E9, 0.0, 2024-01-27 15:38:53.603
52.0, -509.82316195964813, -698.4337965250015, -541.6571903824806, -315.46804106235504, 0.09600000455975533, -0.03200000151991844, 1.008000047877431, 0.0, 0.0, 0.0, 0.0, 0.0, 1.70638793360457E9, 0.0, 2024-01-27 15:38:53.604
52.0, -602.6923576593399, -712.7950123548508, -539.0243008136749, -466.7395144701004, 0.09600000455975533, -0.03200000151991844, 1.008000047877431, 0.0, 0.0, 0.0, 0.0, 0.0, 1.70638793360457E9, 0.0, 2024-01-27 15:38:53.604
53.0, -495.22259253263474, -701.5453932881355, -539.0243008136749, -350.89237344264984, 0.09600000455975533, -0.03200000151991844, 1.008000047877431, 0.0, 0.0, 0.0, 0.0, 0.0, 1.7063879336184058E9, 0.0, 2024-01-27 15:38:53.618
53.0, -473.68076878786087, -687.4235310554504, -549.5558590888977, -276.45340472459793, 0.09600000455975533, -0.03200000151991844, 1.008000047877431, 0.0, 0.0, 0.0, 0.0, 0.0, 1.7063879336184058E9, 0.0, 2024-01-27 15:38:53.618
54.0, -586.6556666493416, -704.6569900512695, -535.4339968562126, -430.357767701149, 0.09600000455975533, -0.03200000151991844, 1.008000047877431, 0.0, 0.0, 0.0, 0.0, 0.0, 1.706387933633837E9, 0.0, 2024-01-27 15:38:53.633
54.0, -541.8965439796448, -708.7260012030602, -538.0668864250183, -410.4914191365242, 0.09600000455975533, -0.03200000151991844, 1.008000047877431, 0.0, 0.0, 0.0, 0.0, 0.0, 1.706387933633837E9, 0.0, 2024-01-27 15:38:53.633
55.0, -458.8408457636833, -694.3647853732109, -550.034566283226, -267.3579680323601, 0.09600000455975533, -0.03200000151991844, 1.008000047877431, 0.0, 0.0, 0.0, 0.0, 0.0, 1.706387933634622E9, 0.0, 2024-01-27 15:38:53.634
55.0, -550.034566283226, -696.5189677476883, -536.6307648420334, -372.19484359025955, 0.09600000455975533, -0.03200000151991844, 1.008000047877431, 0.0, 0.0, 0.0, 0.0, 0.0, 1.706387933634622E9, 0.0, 2024-01-27 15:38:53.634
56.0, -581.6292411088943, -708.2472940087318, -537.1094720363617, -448.5486410856247, 0.09600000455975533, -0.03200000151991844, 1.008000047877431, 0.0, 0.0, 0.0, 0.0, 0.0, 1.706387933648193E9, 0.0, 2024-01-27 15:38:53.648
56.0, -462.90985691547394, -695.3221997618675, -545.2474943399429, -296.3197532892227, 0.09600000455975533, -0.03200000151991844, 1.008000047877431, 0.0, 0.0, 0.0, 0.0, 0.0, 1.706387933648193E9, 0.0, 2024-01-27 15:38:53.648
57.0, -506.47221159935, -683.8332270979881, -542.8539583683014, -316.1861018538475, 0.09600000455975533, -0.03200000151991844, 1.008000047877431, 0.0, 0.0, 0.0, 0.0, 0.0, 1.706387933664184E9, 0.0, 2024-01-27 15:38:53.664
57.0, -593.596920967102, -700.8273324966431, -530.1682177186012, -456.2079561948776, 0.09600000455975533, -0.03200000151991844, 1.008000047877431, 0.0, 0.0, 0.0, 0.0, 0.0, 1.706387933664184E9, 0.0, 2024-01-27 15:38:53.664
58.0, -491.8716421723366, -695.3221997618675, -531.6043393015862, -344.66917991638184, 0.09600000455975533, -0.03200000151991844, 1.008000047877431, 0.0, 0.0, 0.0, 0.0, 0.0, 1.7063879336647587E9, 0.0, 2024-01-27 15:38:53.664
58.0, -464.585332095623, -675.6952047944069, -536.1520576477051, -270.9482719898224, 0.09600000455975533, -0.03200000151991844, 1.008000047877431, 0.0, 0.0, 0.0, 0.0, 0.0, 1.7063879336647587E9, 0.0, 2024-01-27 15:38:53.664
59.0, -583.3047162890434, -688.380945444107, -526.3385601639748, -421.022977411747, 0.09600000455975533, -0.03200000151991844, 1.008000047877431, 0.0, 0.0, 0.0, 0.0, 0.0, 1.7063879336781561E9, 0.0, 2024-01-27 15:38:53.678
59.0, -525.6204993724823, -683.8332270979881, -525.8598529696465, -396.13020330667496, 0.09600000455975533, -0.03200000151991844, 1.008000047877431, 0.0, 0.0, 0.0, 0.0, 0.0, 1.7063879336781561E9, 0.0, 2024-01-27 15:38:53.678
60.0, -435.6235468387604, -674.0197296142578, -539.7423616051674, -260.17736011743546, 0.09600000455975533, -0.03200000151991844, 1.008000047877431, 0.0, 0.0, 0.0, 0.0, 0.0, 1.7063879336938355E9, 0.0, 2024-01-27 15:38:53.693
60.0, -541.1784831881523, -683.593873500824, -532.3224000930786, -364.5355284810066, 0.09600000455975533, -0.03200000151991844, 1.008000047877431, 0.0, 0.0, 0.0, 0.0, 0.0, 1.7063879336938355E9, 0.0, 2024-01-27 15:38:53.693
61.0, -571.0976828336716, -698.1944429278374, -523.9450241923332, -439.2138507962227, 0.09600000455975533, -0.03200000151991844, 1.008000047877431, 0.0, 0.0, 0.0, 0.0, 0.0, 1.7063879336945615E9, 0.0, 2024-01-27 15:38:53.694
61.0, -461.473735332489, -691.2531886100769, -538.5455936193466, -287.70302379131317, 0.09600000455975533, -0.03200000151991844, 1.008000047877431, 0.0, 0.0, 0.0, 0.0, 0.0, 1.7063879336945615E9, 0.0, 2024-01-27 15:38:53.694
62.0, -510.5412227511406, -685.5087022781372, -537.1094720363617, -311.6383835077286, 0.09600000455975533, -0.03200000151991844, 1.008000047877431, 0.0, 0.0, 0.0, 0.0, 0.0, 1.7063879337085028E9, 0.0, 2024-01-27 15:38:53.708
62.0, -605.0858936309814, -703.9389292597771, -535.6733504533768, -462.90985691547394, 0.09600000455975533, -0.03200000151991844, 1.008000047877431, 0.0, 0.0, 0.0, 0.0, 0.0, 1.7063879337085028E9, 0.0, 2024-01-27 15:38:53.708
63.0, -494.5045317411423, -697.7157357335091, -542.3752511739731, -350.6530198454857, 0.09600000455975533, -0.03200000151991844, 1.008000047877431, 0.0, 0.0, 0.0, 0.0, 0.0, 1.7063879337239256E9, 0.0, 2024-01-27 15:38:53.723
63.0, -477.031719148159, -689.0990062355995, -552.4281022548676, -281.7191838622093, 0.09600000455975533, -0.03200000151991844, 1.008000047877431, 0.0, 0.0, 0.0, 0.0, 0.0, 1.7063879337239256E9, 0.0, 2024-01-27 15:38:53.723
64.0, -593.3575673699379, -702.9815148711205, -534.7159360647202, -429.8790605068207, 0.09600000455975533, -0.03200000151991844, 1.008000047877431, 0.0, 0.0, 0.0, 0.0, 0.0, 1.706387933724574E9, 0.0, 2024-01-27 15:38:53.724
64.0, -544.2900799512863, -706.3324652314186, -533.2798144817352, -406.4224079847336, 0.09600000455975533, -0.03200000151991844, 1.008000047877431, 0.0, 0.0, 0.0, 0.0, 0.0, 1.706387933724574E9, 0.0, 2024-01-27 15:38:53.724
65.0, -452.6176522374153, -683.1151663064957, -540.9391295909882, -257.54447054862976, 0.09600000455975533, -0.03200000151991844, 1.008000047877431, 0.0, 0.0, 0.0, 0.0, 0.0, 1.7063879337381332E9, 0.0, 2024-01-27 15:38:53.738
65.0, -547.6410303115845, -682.3971055150032, -532.3224000930786, -360.22716373205185, 0.09600000455975533, -0.03200000151991844, 1.008000047877431, 0.0, 0.0, 0.0, 0.0, 0.0, 1.7063879337381332E9, 0.0, 2024-01-27 15:38:53.738
66.0, -578.2782907485962, -706.5718188285828, -530.8862785100937, -447.3518730998039, 0.09600000455975533, -0.03200000151991844, 1.008000047877431, 0.0, 0.0, 0.0, 0.0, 0.0, 1.706387933753793E9, 0.0, 2024-01-27 15:38:53.753
