%OpenBCI Raw EXG Data
%Number of channels = 4
%Sample Rate = 200 Hz
%Board = OpenBCI_GUI$BoardGanglionBLE
Sample Index, EXG Channel 0, EXG Channel 1, EXG Channel 2, EXG Channel 3, Accel Channel 0, Accel Channel 1, Accel Channel 2, Other, Other, Other, Other, Other, Timestamp, Other, Timestamp (Formatted)
0.0, -607.479429602623, -632.372203707695, -464.585332095623, -331.02602487802505, 0.0, 0.0, 1.008000047877431, 0.0, 0.0, 0.0, 0.0, 0.0, 1.706388049076652E9, 0.0, 2024-01-27 15:40:49.076
0.0, -552.6674558520317, -640.7495796084404, -476.5530119538307, -332.70150005817413, 0.0, 0.0, 1.008000047877431, 0.0, 0.0, 0.0, 0.0, 0.0, 1.706388049076652E9, 0.0, 2024-01-27 15:40:49.076
1.0, -467.696928858757, -631.8934965133667, -502.88190764188766, -232.41234284639359, 0.0, -1.008000047877431, 1.008000047877431, 0.0, 0.0, 0.0, 0.0, 0.0, 1.7063880490912113E9, 0.0, 2024-01-27 15:40:49.091
1.0, -571.3370364308357, -627.5851317644119, -470.56917202472687, -286.5062558054924, 0.0, -1.008000047877431, 1.008000047877431, 0.0, 0.0, 0.0, 0.0, 0.0, 1.7063880490912113E9, 0.0, 2024-01-27 15:40:49.091
2.0, -597.6659321188927, -651.2811378836632, -467.2182216644287, -352.5678486227989, -1.008000047877431, -1.008000047877431, 1.008000047877431, 0.0, 0.0, 0.0, 0.0, 0.0, 1.706388049105687E9, 0.0, 2024-01-27 15:40:49.105
2.0, -478.7071943283081, -638.1166900396347, -495.70129972696304, -264.2463712692261, -1.008000047877431, -1.008000047877431, 1.008000047877431, 0.0, 0.0, 0.0, 0.0, 0.0, 1.706388049105687E9, 0.0, 2024-01-27 15:40:49.105
3.0, -534.476582467556, -641.2282868027687, -481.3400838971138, -253.236105799675, -1.008000047877431, -1.008000047877431, 1.008000047877431, 0.0, 0.0, 0.0, 0.0, 0.0, 1.7063880491065042E9, 0.0, 2024-01-27 15:40:49.106
3.0, -619.2077558636665, -645.0579443573952, -468.65434324741364, -358.3123349547386, -1.008000047877431, -1.008000047877431, 1.008000047877431, 0.0, 0.0, 0.0, 0.0, 0.0, 1.7063880491065042E9, 0.0, 2024-01-27 15:40:49.106
4.0, -508.3870403766632, -644.3398835659027, -494.7438853383064, -304.2184219956398, -1.008000047877431, -1.008000047877431, 1.008000047877431, 0.0, 0.0, 0.0, 0.0, 0.0, 1.7063880491200123E9, 0.0, 2024-01-27 15:40:49.120
4.0, -476.7923655509949, -626.3883637785912, -485.4090950489044, -228.1039780974388, -1.008000047877431, -1.008000047877431, 1.008000047877431, 0.0, 0.0, 0.0, 0.0, 0.0, 1.7063880491200123E9, 0.0, 2024-01-27 15:40:49.120
5.0, -591.921445786953, -623.9948278069496, -455.01118820905685, -319.53705221414566, -1.008000047877431, -1.008000047877431, 1.008000047877431, 0.0, 0.0, 0.0, 0.0, 0.0, 1.7063880491356978E9, 0.0, 2024-01-27 15:40:49.135
5.0, -544.0507263541222, -635.7231540679932, -468.4149896502495, -327.91442811489105, -1.008000047877431, -1.008000047877431, 1.008000047877431, 0.0, 0.0, 0.0, 0.0, 0.0, 1.7063880491356978E9, 0.0, 2024-01-27 15:40:49.135
6.0, -446.8731659054756, -620.8832310438156, -488.5206918120384, -236.0026468038559, -1.008000047877431, -1.008000047877431, 1.008000047877431, 0.0, 0.0, 0.0, 0.0, 0.0, 1.7063880491364284E9, 0.0, 2024-01-27 15:40:49.136
6.0, -542.3752511739731, -605.8039544224739, -448.30928748846054, -268.794089615345, -1.008000047877431, -1.008000047877431, 1.008000047877431, 0.0, 0.0, 0.0, 0.0, 0.0, 1.7063880491364284E9, 0.0, 2024-01-27 15:40:49.136
7.0, -562.480953335762, -621.3619382381439, -457.4047241806984, -348.73819106817245, -1.008000047877431, -1.008000047877431, 1.008000047877431, 0.0, 0.0, 0.0, 0.0, 0.0, 1.706388049150395E9, 0.0, 2024-01-27 15:40:49.150
7.0, -449.74540907144547, -623.2767670154572, -488.28133821487427, -255.62964177131653, -1.008000047877431, -1.008000047877431, 1.008000047877431, 0.0, 0.0, 0.0, 0.0, 0.0, 1.706388049150395E9, 0.0, 2024-01-27 15:40:49.150
8.0, -520.1153666377068, -632.1328501105309, -479.9039623141289, -258.2625313401222, -1.008000047877431, -1.008000047877431, 1.008000047877431, 0.0, 0.0, 0.0, 0.0, 0.0, 1.7063880491657035E9, 0.0, 2024-01-27 15:40:49.165
8.0, -599.82011449337, -632.1328501105309, -454.05377382040024, -347.78077667951584, -1.008000047877431, -1.008000047877431, 1.008000047877431, 0.0, 0.0, 0.0, 0.0, 0.0, 1.7063880491657035E9, 0.0, 2024-01-27 15:40:49.165
9.0, -489.7174597978592, -639.3134580254555, -480.62202310562134, -294.64427810907364, -1.008000047877431, -1.008000047877431, 1.008000047877431, 0.0, 0.0, 0.0, 0.0, 0.0, 1.7063880491664405E9, 0.0, 2024-01-27 15:40:49.166
9.0, -464.82468569278717, -617.5322806835175, -486.1271558403969, -229.7794532775879, -1.008000047877431, -1.008000047877431, 1.008000047877431, 0.0, 0.0, 0.0, 0.0, 0.0, 1.7063880491664405E9, 0.0, 2024-01-27 15:40:49.166
10.0, -596.4691641330719, -628.5425461530685, -461.71308892965317, -337.72792559862137, -1.008000047877431, -1.008000047877431, 0.5280000250786543, 0.0, 0.0, 0.0, 0.0, 0.0, 1.7063880491803343E9, 0.0, 2024-01-27 15:40:49.180
10.0, -535.1946432590485, -633.0902644991875, -468.1756360530853, -328.1537817120552, -1.008000047877431, -1.008000047877431, 0.5280000250786543, 0.0, 0.0, 0.0, 0.0, 0.0, 1.7063880491803343E9, 0.0, 2024-01-27 15:40:49.180
11.0, -473.20206159353256, -647.2121267318726, -506.71156519651413, -248.92774105072021, -1.008000047877431, -0.5280000250786543, 0.5280000250786543, 0.0, 0.0, 0.0, 0.0, 0.0, 1.7063880491959217E9, 0.0, 2024-01-27 15:40:49.195
11.0, -573.0125116109848, -642.1857011914253, -489.7174597978592, -312.1170907020569, -1.008000047877431, -0.5280000250786543, 0.5280000250786543, 0.0, 0.0, 0.0, 0.0, 0.0, 1.7063880491959217E9, 0.0, 2024-01-27 15:40:49.195
12.0, -545.9655551314354, -602.4530040621758, -441.3680331707001, -335.573743224144, -0.5280000250786543, -0.5280000250786543, 0.5280000250786543, 0.0, 0.0, 0.0, 0.0, 0.0, 1.706388049196509E9, 0.0, 2024-01-27 15:40:49.196
12.0, -423.6558669805527, -607.9581367969513, -469.8511112332344, -244.8587298989296, -0.5280000250786543, -0.5280000250786543, 0.5280000250786543, 0.0, 0.0, 0.0, 0.0, 0.0, 1.706388049196509E9, 0.0, 2024-01-27 15:40:49.196
13.0, -470.808525621891, -593.8362745642662, -450.94217705726624, -242.2258403301239, -0.5280000250786543, -0.5280000250786543, 0.5280000250786543, 0.0, 0.0, 0.0, 0.0, 0.0, 1.7063880492100468E9, 0.0, 2024-01-27 15:40:49.210
13.0, -545.0081407427788, -592.6395065784454, -428.6822925209999, -340.83952236175537, -0.5280000250786543, -0.5280000250786543, 0.5280000250786543, 0.0, 0.0, 0.0, 0.0, 0.0, 1.7063880492100468E9, 0.0, 2024-01-27 15:40:49.210
14.0, -422.9378061890602, -588.0917882323265, -447.11251950263977, -277.88952630758286, -0.5280000250786543, -0.5280000250786543, 0.5280000250786543, 0.0, 0.0, 0.0, 0.0, 0.0, 1.7063880492257168E9, 0.0, 2024-01-27 15:40:49.225
14.0, -395.65149611234665, -569.6615612506866, -446.8731659054756, -216.85435903072357, -0.5280000250786543, -0.5280000250786543, 0.5280000250786543, 0.0, 0.0, 0.0, 0.0, 0.0, 1.7063880492257168E9, 0.0, 2024-01-27 15:40:49.225
15.0, -521.3121346235275, -575.6454011797905, -420.54427021741867, -315.2286874651909, -0.5280000250786543, -0.5280000250786543, 0.5280000250786543, 0.0, 0.0, 0.0, 0.0, 0.0, 1.7063880492264135E9, 0.0, 2024-01-27 15:40:49.226
15.0, -454.05377382040024, -573.7305724024773, -431.3151820898056, -320.4944666028023, -0.5280000250786543, -0.5280000250786543, 0.5280000250786543, 0.0, 0.0, 0.0, 0.0, 0.0, 1.7063880492264135E9, 0.0, 2024-01-27 15:40:49.226
16.0, -373.3916115760803, -576.1241083741188, -464.585332095623, -230.49751406908035, -0.5280000250786543, -0.5280000250786543, 0.5280000250786543, 0.0, 0.0, 0.0, 0.0, 0.0, 1.7063880492400632E9, 0.0, 2024-01-27 15:40:49.240
16.0, -477.98913353681564, -564.6351357102394, -432.2725964784622, -287.463670194149, -0.5280000250786543, -0.5280000250786543, 0.5280000250786543, 0.0, 0.0, 0.0, 0.0, 0.0, 1.7063880492400632E9, 0.0, 2024-01-27 15:40:49.240
17.0, -498.33418929576874, -582.586655497551, -430.59712129831314, -353.0465558171272, -0.5280000250786543, -0.5280000250786543, 0.5280000250786543, 0.0, 0.0, 0.0, 0.0, 0.0, 1.7063880492557456E9, 0.0, 2024-01-27 15:40:49.255
17.0, -374.5883795619011, -581.8685947060585, -461.71308892965317, -256.10834896564484, -0.5280000250786543, -0.5280000250786543, 0.5280000250786543, 0.0, 0.0, 0.0, 0.0, 0.0, 1.7063880492557456E9, 0.0, 2024-01-27 15:40:49.255
18.0, -431.07582849264145, -570.6189756393433, -450.2241162657738, -252.03933781385422, -0.5280000250786543, -0.5280000250786543, 0.5280000250786543, 0.0, 0.0, 0.0, 0.0, 0.0, 1.7063880492564614E9, 0.0, 2024-01-27 15:40:49.256
18.0, -517.4824770689011, -577.5602299571037, -427.246170938015, -348.9775446653366, -0.5280000250786543, -0.5280000250786543, 0.5280000250786543, 0.0, 0.0, 0.0, 0.0, 0.0, 1.7063880492564614E9, 0.0, 2024-01-27 15:40:49.256
19.0, -407.61917597055435, -583.3047162890434, -458.8408457636833, -302.7823004126549, -0.5280000250786543, -0.5280000250786543, 0.5280000250786543, 0.0, 0.0, 0.0, 0.0, 0.0, 1.706388049270007E9, 0.0, 2024-01-27 15:40:49.270
19.0, -398.28438568115234, -578.038937151432, -464.34597849845886, -239.5929507613182, -0.5280000250786543, -0.5280000250786543, 0.5280000250786543, 0.0, 0.0, 0.0, 0.0, 0.0, 1.706388049270007E9, 0.0, 2024-01-27 15:40:49.270
20.0, -509.82316195964813, -576.363461971283, -428.2035853266716, -324.80283135175705, -0.5280000250786543, -0.5280000250786543, 0.7680000364780426, 0.0, 0.0, 0.0, 0.0, 0.0, 1.7063880492858908E9, 0.0, 2024-01-27 15:40:49.285
20.0, -462.6705033183098, -593.8362745642662, -452.138945043087, -339.6427543759346, -0.5280000250786543, -0.5280000250786543, 0.7680000364780426, 0.0, 0.0, 0.0, 0.0, 0.0, 1.7063880492858908E9, 0.0, 2024-01-27 15:40:49.285
21.0, -385.11993783712387, -588.5704954266548, -478.2284871339798, -240.55036514997482, -0.5280000250786543, -0.7680000364780426, 0.7680000364780426, 0.0, 0.0, 0.0, 0.0, 0.0, 1.7063880492865124E9, 0.0, 2024-01-27 15:40:49.286
21.0, -493.3077637553215, -585.698252260685, -453.8144202232361, -305.1758363842964, -0.5280000250786543, -0.7680000364780426, 0.7680000364780426, 0.0, 0.0, 0.0, 0.0, 0.0, 1.7063880492865124E9, 0.0, 2024-01-27 15:40:49.286
22.0, -516.0463554859161, -600.0594680905342, -455.96860259771347, -366.689710855484, -0.7680000364780426, -0.7680000364780426, 0.7680000364780426, 0.0, 0.0, 0.0, 0.0, 0.0, 1.706388049300096E9, 0.0, 2024-01-27 15:40:49.300
22.0, -402.1140432357788, -604.367832839489, -491.8716421723366, -277.1714655160904, -0.7680000364780426, -0.7680000364780426, 0.7680000364780426, 0.0, 0.0, 0.0, 0.0, 0.0, 1.706388049300096E9, 0.0, 2024-01-27 15:40:49.300
23.0, -473.20206159353256, -605.5646008253098, -478.94654792547226, -276.2140511274338, -0.7680000364780426, -0.7680000364780426, 0.7680000364780426, 0.0, 0.0, 0.0, 0.0, 0.0, 1.7063880493157523E9, 0.0, 2024-01-27 15:40:49.315
23.0, -548.8377982974052, -600.7775288820267, -451.6602378487587, -364.29617488384247, -0.7680000364780426, -0.7680000364780426, 0.7680000364780426, 0.0, 0.0, 0.0, 0.0, 0.0, 1.7063880493157523E9, 0.0, 2024-01-27 15:40:49.315
24.0, -433.70871806144714, -600.0594680905342, -466.50016087293625, -303.7397148013115, -0.7680000364780426, -0.7680000364780426, 0.7680000364780426, 0.0, 0.0, 0.0, 0.0, 0.0, 1.7063880493164203E9, 0.0, 2024-01-27 15:40:49.316
24.0, -419.3475022315979, -588.5704954266548, -464.34597849845886, -234.08781802654266, -0.7680000364780426, -0.7680000364780426, 0.7680000364780426, 0.0, 0.0, 0.0, 0.0, 0.0, 1.7063880493164203E9, 0.0, 2024-01-27 15:40:49.316
25.0, -541.1784831881523, -593.596920967102, -443.7615691423416, -335.3343896269798, -0.7680000364780426, -0.7680000364780426, 0.7680000364780426, 0.0, 0.0, 0.0, 0.0, 0.0, 1.706388049330982E9, 0.0, 2024-01-27 15:40:49.330
25.0, -482.7762054800987, -601.9742968678474, -455.96860259771347, -336.0524504184723, -0.7680000364780426, -0.7680000364780426, 0.7680000364780426, 0.0, 0.0, 0.0, 0.0, 0.0, 1.706388049330982E9, 0.0, 2024-01-27 15:40:49.330
26.0, -399.72050726413727, -599.82011449337, -483.25491267442703, -242.46519392728806, -0.7680000364780426, -0.7680000364780426, 0.7680000364780426, 0.0, 0.0, 0.0, 0.0, 0.0, 1.7063880493460665E9, 0.0, 2024-01-27 15:40:49.346
26.0, -515.807001888752, -607.9581367969513, -461.23438173532486, -307.09066516160965, -0.7680000364780426, -0.7680000364780426, 0.7680000364780426, 0.0, 0.0, 0.0, 0.0, 0.0, 1.7063880493460665E9, 0.0, 2024-01-27 15:40:49.346
27.0, -534.476582467556, -612.5058551430702, -450.4634698629379, -357.354920566082, -0.7680000364780426, -0.7680000364780426, 0.7680000364780426, 0.0, 0.0, 0.0, 0.0, 0.0, 1.7063880493469377E9, 0.0, 2024-01-27 15:40:49.346
27.0, -412.1668943166733, -605.3252472281456, -484.69103425741196, -269.2727968096733, -0.7680000364780426, -0.7680000364780426, 0.7680000364780426, 0.0, 0.0, 0.0, 0.0, 0.0, 1.7063880493469377E9, 0.0, 2024-01-27 15:40:49.346
28.0, -475.35624396800995, -597.4265785217285, -470.808525621891, -261.13477450609207, -0.7680000364780426, -0.7680000364780426, 0.7680000364780426, 0.0, 0.0, 0.0, 0.0, 0.0, 1.7063880493602226E9, 0.0, 2024-01-27 15:40:49.360
28.0, -563.1990141272545, -619.4471094608307, -450.7028234601021, -365.01423567533493, -0.7680000364780426, -0.7680000364780426, 0.7680000364780426, 0.0, 0.0, 0.0, 0.0, 0.0, 1.7063880493602226E9, 0.0, 2024-01-27 15:40:49.360
29.0, -446.8731659054756, -613.4632695317268, -473.20206159353256, -302.5429468154907, -0.7680000364780426, -0.7680000364780426, 0.7680000364780426, 0.0, 0.0, 0.0, 0.0, 0.0, 1.7063880493757527E9, 0.0, 2024-01-27 15:40:49.375
29.0, -428.92164611816406, -600.0594680905342, -480.62202310562134, -243.66196191310883, -0.7680000364780426, -0.7680000364780426, 0.7680000364780426, 0.0, 0.0, 0.0, 0.0, 0.0, 1.7063880493757527E9, 0.0, 2024-01-27 15:40:49.375
30.0, -552.9068094491959, -603.6497720479965, -450.94217705726624, -336.5311576128006, -0.7680000364780426, -0.7680000364780426, 0.8640000410377979, 0.0, 0.0, 0.0, 0.0, 0.0, 1.7063880493765025E9, 0.0, 2024-01-27 15:40:49.376
30.0, -496.8980677127838, -615.1387447118759, -465.3033928871155, -339.1640471816063, -0.7680000364780426, -0.7680000364780426, 0.8640000410377979, 0.0, 0.0, 0.0, 0.0, 0.0, 1.7063880493765025E9, 0.0, 2024-01-27 15:40:49.376
31.0, -408.8159439563751, -604.367832839489, -483.4942662715912, -239.83230435848236, -0.7680000364780426, -0.8640000410377979, 0.8640000410377979, 0.0, 0.0, 0.0, 0.0, 0.0, 1.706388049389984E9, 0.0, 2024-01-27 15:40:49.389
31.0, -504.07867562770844, -589.5279098153114, -449.26670187711716, -287.70302379131317, -0.7680000364780426, -0.8640000410377979, 0.8640000410377979, 0.0, 0.0, 0.0, 0.0, 0.0, 1.706388049389984E9, 0.0, 2024-01-27 15:40:49.389
32.0, -509.583808362484, -595.2723961472511, -439.692557990551, -346.3446550965309, -0.8640000410377979, -0.8640000410377979, 0.8640000410377979, 0.0, 0.0, 0.0, 0.0, 0.0, 1.7063880494057643E9, 0.0, 2024-01-27 15:40:49.405
32.0, -400.91727524995804, -602.4530040621758, -482.2974982857704, -265.92184644937515, -0.8640000410377979, -0.8640000410377979, 0.8640000410377979, 0.0, 0.0, 0.0, 0.0, 0.0, 1.7063880494057643E9, 0.0, 2024-01-27 15:40:49.405
33.0, -475.83495116233826, -596.708517730236, -467.2182216644287, -255.39028817415237, -0.8640000410377979, -0.8640000410377979, 0.8640000410377979, 0.0, 0.0, 0.0, 0.0, 0.0, 1.7063880494064307E9, 0.0, 2024-01-27 15:40:49.406
33.0, -559.8480637669563, -614.8993911147118, -454.7718346118927, -365.01423567533493, -0.8640000410377979, -0.8640000410377979, 0.8640000410377979, 0.0, 0.0, 0.0, 0.0, 0.0, 1.7063880494064307E9, 0.0, 2024-01-27 15:40:49.406
34.0, -450.94217705726624, -613.702623128891, -479.6646087169647, -306.8513115644455, -0.8640000410377979, -0.8640000410377979, 0.8640000410377979, 0.0, 0.0, 0.0, 0.0, 0.0, 1.706388049420248E9, 0.0, 2024-01-27 15:40:49.420
34.0, -436.580961227417, -599.1020537018776, -482.05814468860626, -240.07165795564651, -0.8640000410377979, -0.8640000410377979, 0.8640000410377979, 0.0, 0.0, 0.0, 0.0, 0.0, 1.706388049420248E9, 0.0, 2024-01-27 15:40:49.420
35.0, -556.0184062123299, -607.0007224082947, -460.9950281381607, -348.02013027668, -0.8640000410377979, -0.8640000410377979, 0.8640000410377979, 0.0, 0.0, 0.0, 0.0, 0.0, 1.7063880494359856E9, 0.0, 2024-01-27 15:40:49.435
35.0, -505.2754436135292, -627.1064245700836, -483.25491267442703, -348.25948387384415, -0.8640000410377979, -0.8640000410377979, 0.8640000410377979, 0.0, 0.0, 0.0, 0.0, 0.0, 1.7063880494359856E9, 0.0, 2024-01-27 15:40:49.435
36.0, -422.69845259189606, -616.5748662948608, -502.40320044755936, -257.7838241457939, -0.8640000410377979, -0.8640000410377979, 0.8640000410377979, 0.0, 0.0, 0.0, 0.0, 0.0, 1.7063880494365563E9, 0.0, 2024-01-27 15:40:49.436
36.0, -524.6630849838257, -603.4104184508324, -466.50016087293625, -299.6707036495209, -0.8640000410377979, -0.8640000410377979, 0.8640000410377979, 0.0, 0.0, 0.0, 0.0, 0.0, 1.7063880494365563E9, 0.0, 2024-01-27 15:40:49.436
37.0, -530.6469249129295, -601.7349432706833, -449.26670187711716, -349.21689826250076, -0.8640000410377979, -0.8640000410377979, 0.8640000410377979, 0.0, 0.0, 0.0, 0.0, 0.0, 1.7063880494503984E9, 0.0, 2024-01-27 15:40:49.450
37.0, -423.4165133833885, -608.1974903941154, -483.73361986875534, -255.62964177131653, -0.8640000410377979, -0.8640000410377979, 0.8640000410377979, 0.0, 0.0, 0.0, 0.0, 0.0, 1.7063880494503984E9, 0.0, 2024-01-27 15:40:49.450
38.0, -477.2710727453232, -596.708517730236, -470.56917202472687, -257.06576335430145, -0.8640000410377979, -0.8640000410377979, 0.8640000410377979, 0.0, 0.0, 0.0, 0.0, 0.0, 1.70638804946576E9, 0.0, 2024-01-27 15:40:49.465
38.0, -567.2680252790451, -611.3090871572495, -452.85700583457947, -357.59427416324615, -0.8640000410377979, -0.8640000410377979, 0.8640000410377979, 0.0, 0.0, 0.0, 0.0, 0.0, 1.70638804946576E9, 0.0, 2024-01-27 15:40:49.465
39.0, -463.6279177069664, -621.6012918353081, -483.73361986875534, -306.3726043701172, -0.8640000410377979, -0.8640000410377979, 0.8640000410377979, 0.0, 0.0, 0.0, 0.0, 0.0, 1.7063880494665203E9, 0.0, 2024-01-27 15:40:49.466
39.0, -447.5912266969681, -602.9317112565041, -480.62202310562134, -236.72070759534836, -0.8640000410377979, -0.8640000410377979, 0.8640000410377979, 0.0, 0.0, 0.0, 0.0, 0.0, 1.7063880494665203E9, 0.0, 2024-01-27 15:40:49.466
40.0, -566.0712572932243, -607.2400760054588, -457.16537058353424, -342.51499754190445, -0.8640000410377979, -0.8640000410377979, 0.9280000440776348, 0.0, 0.0, 0.0, 0.0, 0.0, 1.7063880494803753E9, 0.0, 2024-01-27 15:40:49.480
40.0, -511.9773443341255, -623.9948278069496, -476.5530119538307, -336.0524504184723, -0.8640000410377979, -0.8640000410377979, 0.9280000440776348, 0.0, 0.0, 0.0, 0.0, 0.0, 1.7063880494803753E9, 0.0, 2024-01-27 15:40:49.480
41.0, -434.9054860472679, -618.4896950721741, -498.5735428929329, -244.61937630176544, -0.8640000410377979, -0.9280000440776348, 0.9280000440776348, 0.0, 0.0, 0.0, 0.0, 0.0, 1.7063880495122871E9, 0.0, 2024-01-27 15:40:49.512
41.0, -538.7849472165108, -610.8303799629211, -470.09046483039856, -301.5855324268341, -0.8640000410377979, -0.9280000440776348, 0.9280000440776348, 0.0, 0.0, 0.0, 0.0, 0.0, 1.7063880495122871E9, 0.0, 2024-01-27 15:40:49.512
42.0, -552.9068094491959, -618.4896950721741, -453.0963594317436, -355.2007381916046, -0.9280000440776348, -0.9280000440776348, 0.9280000440776348, 0.0, 0.0, 0.0, 0.0, 0.0, 1.7063880495129185E9, 0.0, 2024-01-27 15:40:49.512
42.0, -434.9054860472679, -620.4045238494873, -490.91422778367996, -265.92184644937515, -0.9280000440776348, -0.9280000440776348, 0.9280000440776348, 0.0, 0.0, 0.0, 0.0, 0.0, 1.7063880495129185E9, 0.0, 2024-01-27 15:40:49.512
43.0, -481.57943749427795, -598.8627001047134, -465.7821000814438, -251.5606306195259, -0.9280000440776348, -0.9280000440776348, 0.9280000440776348, 0.0, 0.0, 0.0, 0.0, 0.0, 1.7063880495137749E9, 0.0, 2024-01-27 15:40:49.513
43.0, -563.4383677244186, -608.6761975884438, -451.1815306544304, -354.48267740011215, -0.9280000440776348, -0.9280000440776348, 0.9280000440776348, 0.0, 0.0, 0.0, 0.0, 0.0, 1.7063880495137749E9, 0.0, 2024-01-27 15:40:49.513
44.0, -455.96860259771347, -615.3780983090401, -481.3400838971138, -295.8410460948944, -0.9280000440776348, -0.9280000440776348, 0.9280000440776348, 0.0, 0.0, 0.0, 0.0, 0.0, 1.706388049514462E9, 0.0, 2024-01-27 15:40:49.514
44.0, -457.8834313750267, -618.9684022665024, -495.4619461297989, -253.7148129940033, -0.9280000440776348, -0.9280000440776348, 0.9280000440776348, 0.0, 0.0, 0.0, 0.0, 0.0, 1.706388049514462E9, 0.0, 2024-01-27 15:40:49.514
45.0, -573.9699259996414, -622.0799990296364, -460.0376137495041, -342.2756439447403, -0.9280000440776348, -0.9280000440776348, 0.9280000440776348, 0.0, 0.0, 0.0, 0.0, 0.0, 1.70638804952508E9, 0.0, 2024-01-27 15:40:49.525
45.0, -505.03609001636505, -620.4045238494873, -469.3724040389061, -341.0788759589195, -0.9280000440776348, -0.9280000440776348, 0.9280000440776348, 0.0, 0.0, 0.0, 0.0, 0.0, 1.70638804952508E9, 0.0, 2024-01-27 15:40:49.525
46.0, -419.8262094259262, -614.8993911147118, -490.1961669921875, -241.98648673295975, -0.9280000440776348, -0.9280000440776348, 0.9280000440776348, 0.0, 0.0, 0.0, 0.0, 0.0, 1.706388049540286E9, 0.0, 2024-01-27 15:40:49.540
46.0, -536.1520576477051, -616.5748662948608, -470.808525621891, -308.5267867445946, -0.9280000440776348, -0.9280000440776348, 0.9280000440776348, 0.0, 0.0, 0.0, 0.0, 0.0, 1.706388049540286E9, 0.0, 2024-01-27 15:40:49.540
47.0, -552.1887486577034, -633.8083252906799, -474.87753677368164, -379.3754515051842, -0.9280000440776348, -0.9280000440776348, 0.9280000440776348, 0.0, 0.0, 0.0, 0.0, 0.0, 1.7063880495560086E9, 0.0, 2024-01-27 15:40:49.556
47.0, -434.4267788529396, -633.3296180963516, -508.3870403766632, -287.22431659698486, -0.9280000440776348, -0.9280000440776348, 0.9280000440776348, 0.0, 0.0, 0.0, 0.0, 0.0, 1.7063880495560086E9, 0.0, 2024-01-27 15:40:49.556
48.0, -488.7600454092026, -617.5322806835175, -490.6748741865158, -279.8043550848961, -0.9280000440776348, -0.9280000440776348, 0.9280000440776348, 0.0, 0.0, 0.0, 0.0, 0.0, 1.7063880495565052E9, 0.0, 2024-01-27 15:40:49.556
48.0, -574.6879867911339, -627.8244853615761, -474.6381831765175, -385.11993783712387, -0.9280000440776348, -0.9280000440776348, 0.9280000440776348, 0.0, 0.0, 0.0, 0.0, 0.0, 1.7063880495565052E9, 0.0, 2024-01-27 15:40:49.556
49.0, -467.696928858757, -638.595397233963, -493.3077637553215, -319.2976986169815, -0.9280000440776348, -0.9280000440776348, 0.9280000440776348, 0.0, 0.0, 0.0, 0.0, 0.0, 1.70638804957047E9, 0.0, 2024-01-27 15:40:49.570
49.0, -453.3357130289078, -620.8832310438156, -500.0096644759178, -257.7838241457939, -0.9280000440776348, -0.9280000440776348, 0.9280000440776348, 0.0, 0.0, 0.0, 0.0, 0.0, 1.70638804957047E9, 0.0, 2024-01-27 15:40:49.570
50.0, -567.5073788762093, -619.2077558636665, -466.7395144701004, -354.48267740011215, -0.9280000440776348, -0.9280000440776348, 0.9760000463575125, 0.0, 0.0, 0.0, 0.0, 0.0, 1.706388049586193E9, 0.0, 2024-01-27 15:40:49.586
50.0, -511.25928354263306, -631.8934965133667, -481.8187910914421, -353.0465558171272, -0.9280000440776348, -0.9280000440776348, 0.9760000463575125, 0.0, 0.0, 0.0, 0.0, 0.0, 1.706388049586193E9, 0.0, 2024-01-27 15:40:49.586
51.0, -438.7351436018944, -628.7818997502327, -510.0625155568123, -263.76766407489777, -0.9280000440776348, -0.9760000463575125, 0.9760000463575125, 0.0, 0.0, 0.0, 0.0, 0.0, 1.7063880495866344E9, 0.0, 2024-01-27 15:40:49.586
51.0, -554.3429310321808, -629.7393141388893, -485.4090950489044, -321.4518809914589, -0.9280000440776348, -0.9760000463575125, 0.9760000463575125, 0.0, 0.0, 0.0, 0.0, 0.0, 1.7063880495866344E9, 0.0, 2024-01-27 15:40:49.586
52.0, -566.3106108903885, -638.595397233963, -489.2387526035309, -380.8115730881691, -0.9760000463575125, -0.9760000463575125, 0.9760000463575125, 0.0, 0.0, 0.0, 0.0, 0.0, 1.7063880496000662E9, 0.0, 2024-01-27 15:40:49.600
52.0, -446.63381230831146, -639.7921652197838, -509.82316195964813, -279.56500148773193, -0.9760000463575125, -0.9760000463575125, 0.9760000463575125, 0.0, 0.0, 0.0, 0.0, 0.0, 1.7063880496000662E9, 0.0, 2024-01-27 15:40:49.600
53.0, -501.6851396560669, -625.4309493899345, -480.3826695084572, -265.92184644937515, -0.9760000463575125, -0.9760000463575125, 0.9760000463575125, 0.0, 0.0, 0.0, 0.0, 0.0, 1.7063880496154869E9, 0.0, 2024-01-27 15:40:49.615
53.0, -591.921445786953, -647.2121267318726, -476.5530119538307, -373.3916115760803, -0.9760000463575125, -0.9760000463575125, 0.9760000463575125, 0.0, 0.0, 0.0, 0.0, 0.0, 1.7063880496154869E9, 0.0, 2024-01-27 15:40:49.615
54.0, -472.72335439920425, -640.5102260112762, -502.6425540447235, -313.0745050907135, -0.9760000463575125, -0.9760000463575125, 0.9760000463575125, 0.0, 0.0, 0.0, 0.0, 0.0, 1.706388049630927E9, 0.0, 2024-01-27 15:40:49.630
54.0, -463.6279177069664, -631.6541429162025, -496.18000692129135, -245.09808349609375, -0.9760000463575125, -0.9760000463575125, 0.9760000463575125, 0.0, 0.0, 0.0, 0.0, 0.0, 1.706388049630927E9, 0.0, 2024-01-27 15:40:49.630
55.0, -580.9111803174019, -631.1754357218742, -472.9627079963684, -343.2330583333969, -0.9760000463575125, -0.9760000463575125, 0.9760000463575125, 0.0, 0.0, 0.0, 0.0, 0.0, 1.7063880496314716E9, 0.0, 2024-01-27 15:40:49.631
55.0, -523.7056705951691, -637.6379828453064, -484.4516806602478, -343.7117655277252, -0.9760000463575125, -0.9760000463575125, 0.9760000463575125, 0.0, 0.0, 0.0, 0.0, 0.0, 1.7063880496314716E9, 0.0, 2024-01-27 15:40:49.631
56.0, -435.3841932415962, -622.0799990296364, -495.22259253263474, -239.1142435669899, -0.9760000463575125, -0.9760000463575125, 0.9760000463575125, 0.0, 0.0, 0.0, 0.0, 0.0, 1.7063880496456845E9, 0.0, 2024-01-27 15:40:49.645
56.0, -545.9655551314354, -619.2077558636665, -480.8613767027855, -304.45777559280396, -0.9760000463575125, -0.9760000463575125, 0.9760000463575125, 0.0, 0.0, 0.0, 0.0, 0.0, 1.7063880496456845E9, 0.0, 2024-01-27 15:40:49.645
57.0, -551.4706878662109, -631.8934965133667, -467.45757526159286, -358.07298135757446, -0.9760000463575125, -0.9760000463575125, 0.9760000463575125, 0.0, 0.0, 0.0, 0.0, 0.0, 1.7063880496463833E9, 0.0, 2024-01-27 15:40:49.646
57.0, -437.0596684217453, -629.260606944561, -502.40320044755936, -260.65606731176376, -0.9760000463575125, -0.9760000463575125, 0.9760000463575125, 0.0, 0.0, 0.0, 0.0, 0.0, 1.7063880496463833E9, 0.0, 2024-01-27 15:40:49.646
58.0, -502.1638468503952, -618.9684022665024, -487.5632774233818, -264.4857248663902, -0.9760000463575125, -0.9760000463575125, 0.9760000463575125, 0.0, 0.0, 0.0, 0.0, 0.0, 1.7063880496604085E9, 0.0, 2024-01-27 15:40:49.660
58.0, -577.0815227627754, -623.9948278069496, -469.3724040389061, -361.18457812070847, -0.9760000463575125, -0.9760000463575125, 0.9760000463575125, 0.0, 0.0, 0.0, 0.0, 0.0, 1.7063880496604085E9, 0.0, 2024-01-27 15:40:49.660
59.0, -468.8936968445778, -630.4573749303818, -494.5045317411423, -301.34617882966995, -0.9760000463575125, -0.9760000463575125, 0.9760000463575125, 0.0, 0.0, 0.0, 0.0, 0.0, 1.706388049676128E9, 0.0, 2024-01-27 15:40:49.676
59.0, -475.35624396800995, -637.6379828453064, -504.3180292248726, -250.84256982803345, -0.9760000463575125, -0.9760000463575125, 0.9760000463575125, 0.0, 0.0, 0.0, 0.0, 0.0, 1.706388049676128E9, 0.0, 2024-01-27 15:40:49.676
60.0, -586.6556666493416, -632.6115573048592, -482.7762054800987, -349.9349590539932, -0.9760000463575125, -0.9760000463575125, 0.9920000471174717, 0.0, 0.0, 0.0, 0.0, 0.0, 1.7063880496765091E9, 0.0, 2024-01-27 15:40:49.676
60.0, -516.0463554859161, -643.8611763715744, -495.9406533241272, -353.2859094142914, -0.9760000463575125, -0.9760000463575125, 0.9920000471174717, 0.0, 0.0, 0.0, 0.0, 0.0, 1.7063880496765091E9, 0.0, 2024-01-27 15:40:49.676
61.0, -448.5486410856247, -634.2870324850082, -509.583808362484, -250.84256982803345, -0.9760000463575125, -0.9920000471174717, 0.9920000471174717, 0.0, 0.0, 0.0, 0.0, 0.0, 1.7063880496900315E9, 0.0, 2024-01-27 15:40:49.690
61.0, -556.257759809494, -626.8670709729195, -476.31365835666656, -304.93648278713226, -0.9760000463575125, -0.9920000471174717, 0.9920000471174717, 0.0, 0.0, 0.0, 0.0, 0.0, 1.7063880496900315E9, 0.0, 2024-01-27 15:40:49.690
62.0, -566.7893180847168, -634.7657396793365, -471.5265864133835, -360.22716373205185, -0.9920000471174717, -0.9920000471174717, 0.9920000471174717, 0.0, 0.0, 0.0, 0.0, 0.0, 1.7063880497057056E9, 0.0, 2024-01-27 15:40:49.705
62.0, -432.7513036727905, -621.3619382381439, -482.7762054800987, -243.90131551027298, -0.9920000471174717, -0.9920000471174717, 0.9920000471174717, 0.0, 0.0, 0.0, 0.0, 0.0, 1.7063880497057056E9, 0.0, 2024-01-27 15:40:49.705
63.0, -494.7438853383064, -610.8303799629211, -467.696928858757, -248.20968025922775, -0.9920000471174717, -0.9920000471174717, 0.9920000471174717, 0.0, 0.0, 0.0, 0.0, 0.0, 1.7063880497064068E9, 0.0, 2024-01-27 15:40:49.706
63.0, -575.4060475826263, -620.4045238494873, -449.9847626686096, -343.7117655277252, -0.9920000471174717, -0.9920000471174717, 0.9920000471174717, 0.0, 0.0, 0.0, 0.0, 0.0, 1.7063880497064068E9, 0.0, 2024-01-27 15:40:49.706
64.0, -468.4149896502495, -629.9786677360535, -484.4516806602478, -293.2081565260887, -0.9920000471174717, -0.9920000471174717, 0.9920000471174717, 0.0, 0.0, 0.0, 0.0, 0.0, 1.7063880497203603E9, 0.0, 2024-01-27 15:40:49.720
64.0, -464.34597849845886, -623.9948278069496, -488.5206918120384, -229.54009968042374, -0.9920000471174717, -0.9920000471174717, 0.9920000471174717, 0.0, 0.0, 0.0, 0.0, 0.0, 1.7063880497203603E9, 0.0, 2024-01-27 15:40:49.720
65.0, -586.8950202465057, -627.3457781672478, -462.6705033183098, -330.7866712808609, -0.9920000471174717, -0.9920000471174717, 0.9920000471174717, 0.0, 0.0, 0.0, 0.0, 0.0, 1.7063880497360485E9, 0.0, 2024-01-27 15:40:49.736
65.0, -529.9288641214371, -641.2282868027687, -483.73361986875534, -337.24921840429306, -0.9920000471174717, -0.9920000471174717, 0.9920000471174717, 0.0, 0.0, 0.0, 0.0, 0.0, 1.7063880497360485E9, 0.0, 2024-01-27 15:40:49.736
66.0, -445.19769072532654, -629.0212533473969, -496.65871411561966, -231.93363565206528, -0.9920000471174717, -0.9920000471174717, 0.9920000471174717, 0.0, 0.0, 0.0, 0.0, 0.0, 1.706388049736544E9, 0.0, 2024-01-27 15:40:49.736
66.0, -545.4868479371071, -615.1387447118759, -467.45757526159286, -291.2933277487755, -0.9920000471174717, -0.9920000471174717, 0.9920000471174717, 0.0, 0.0, 0.0, 0.0, 0.0, 1.706388049736544E9, 0.0, 2024-01-27 15:40:49.736
67.0, -566.5499644875526, -630.9360821247101, -468.65434324741364, -354.00397020578384, -0.9920000471174717, -0.9920000471174717, 0.9920000471174717, 0.0, 0.0, 0.0, 0.0, 0.0, 1.7063880497500668E9, 0.0, 2024-01-27 15:40:49.750
67.0, -454.53248101472855, -638.595397233963, -500.4883716702461, -263.76766407489777, -0.9920000471174717, -0.9920000471174717, 0.9920000471174717, 0.0, 0.0, 0.0, 0.0, 0.0, 1.7063880497500668E9, 0.0, 2024-01-27 15:40:49.750
68.0, -511.4986371397972, -625.9096565842628, -485.6484486460686, -261.85283529758453, -0.9920000471174717, -0.9920000471174717, 0.9920000471174717, 0.0, 0.0, 0.0, 0.0, 0.0, 1.7063880497657669E9, 0.0, 2024-01-27 15:40:49.765
68.0, -578.7569979429245, -619.2077558636665, -449.74540907144547, -349.69560545682907, -0.9920000471174717, -0.9920000471174717, 0.9920000471174717, 0.0, 0.0, 0.0, 0.0, 0.0, 1.7063880497657669E9, 0.0, 2024-01-27 15:40:49.765
69.0, -470.808525621891, -628.7818997502327, -484.69103425741196, -290.8146205544472, -0.9920000471174717, -0.9920000471174717, 0.9920000471174717, 0.0, 0.0, 0.0, 0.0, 0.0, 1.7063880497664776E9, 0.0, 2024-01-27 15:40:49.766
69.0, -445.915751516819, -606.0433080196381, -477.2710727453232, -226.42850291728973, -0.9920000471174717, -0.9920000471174717, 0.9920000471174717, 0.0, 0.0, 0.0, 0.0, 0.0, 1.7063880497664776E9, 0.0, 2024-01-27 15:40:49.766
70.0, -565.8319036960602, -607.0007224082947, -445.915751516819, -320.01575940847397, -0.9920000471174717, -0.9920000471174717, 1.008000047877431, 0.0, 0.0, 0.0, 0.0, 0.0, 1.706388049780008E9, 0.0, 2024-01-27 15:40:49.780
70.0, -505.51479721069336, -623.037413418293, -466.02145367860794, -322.8880025744438, -0.9920000471174717, -0.9920000471174717, 1.008000047877431, 0.0, 0.0, 0.0, 0.0, 0.0, 1.706388049780008E9, 0.0, 2024-01-27 15:40:49.780
71.0, -449.74540907144547, -624.4735350012779, -491.39293497800827, -235.04523241519928, -0.9920000471174717, -1.008000047877431, 1.008000047877431, 0.0, 0.0, 0.0, 0.0, 0.0, 1.706388049795794E9, 0.0, 2024-01-27 15:40:49.795
71.0, -550.7526270747185, -617.7716342806816, -465.3033928871155, -293.44751012325287, -0.9920000471174717, -1.008000047877431, 1.008000047877431, 0.0, 0.0, 0.0, 0.0, 0.0, 1.706388049795794E9, 0.0, 2024-01-27 15:40:49.795
72.0, -554.1035774350166, -627.8244853615761, -460.27696734666824, -343.7117655277252, -1.008000047877431, -1.008000047877431, 1.008000047877431, 0.0, 0.0, 0.0, 0.0, 0.0, 1.706388049796533E9, 0.0, 2024-01-27 15:40:49.796
72.0, -436.82031482458115, -626.149010181427, -498.81289649009705, -258.9805921316147, -1.008000047877431, -1.008000047877431, 1.008000047877431, 0.0, 0.0, 0.0, 0.0, 0.0, 1.706388049796533E9, 0.0, 2024-01-27 15:40:49.796
73.0, -498.0948356986046, -614.4206839203835, -476.7923655509949, -261.3741281032562, -1.008000047877431, -1.008000047877431, 1.008000047877431, 0.0, 0.0, 0.0, 0.0, 0.0, 1.706388049810042E9, 0.0, 2024-01-27 15:40:49.810
73.0, -568.4647932648659, -617.7716342806816, -455.48989540338516, -349.4562518596649, -1.008000047877431, -1.008000047877431, 1.008000047877431, 0.0, 0.0, 0.0, 0.0, 0.0, 1.706388049810042E9, 0.0, 2024-01-27 15:40:49.810
74.0, -470.56917202472687, -624.9522421956062, -481.10073029994965, -288.89979177713394, -1.008000047877431, -1.008000047877431, 1.008000047877431, 0.0, 0.0, 0.0, 0.0, 0.0, 1.7063880498258953E9, 0.0, 2024-01-27 15:40:49.825
74.0, -457.64407777786255, -607.0007224082947, -476.5530119538307, -226.42850291728973, -1.008000047877431, -1.008000047877431, 1.008000047877431, 0.0, 0.0, 0.0, 0.0, 0.0, 1.7063880498258953E9, 0.0, 2024-01-27 15:40:49.825
75.0, -573.4912188053131, -612.2665015459061, -441.3680331707001, -318.8189914226532, -1.008000047877431, -1.008000047877431, 1.008000047877431, 0.0, 0.0, 0.0, 0.0, 0.0, 1.7063880498264463E9, 0.0, 2024-01-27 15:40:49.826
75.0, -504.3180292248726, -620.4045238494873, -462.6705033183098, -318.57963782548904, -1.008000047877431, -1.008000047877431, 1.008000047877431, 0.0, 0.0, 0.0, 0.0, 0.0, 1.7063880498264463E9, 0.0, 2024-01-27 15:40:49.826
76.0, -440.1712651848793, -616.0961591005325, -492.58970296382904, -232.17298924922943, -1.008000047877431, -1.008000047877431, 1.008000047877431, 0.0, 0.0, 0.0, 0.0, 0.0, 1.7063880498400629E9, 0.0, 2024-01-27 15:40:49.840
76.0, -538.3062400221825, -603.4104184508324, -454.05377382040024, -287.463670194149, -1.008000047877431, -1.008000047877431, 1.008000047877431, 0.0, 0.0, 0.0, 0.0, 0.0, 1.7063880498400629E9, 0.0, 2024-01-27 15:40:49.840
77.0, -551.9493950605392, -622.7980598211288, -459.3195529580116, -349.4562518596649, -1.008000047877431, -1.008000047877431, 1.008000047877431, 0.0, 0.0, 0.0, 0.0, 0.0, 1.7063880498557396E9, 0.0, 2024-01-27 15:40:49.855
77.0, -445.915751516819, -625.9096565842628, -485.8878022432327, -249.88515543937683, -1.008000047877431, -1.008000047877431, 1.008000047877431, 0.0, 0.0, 0.0, 0.0, 0.0, 1.7063880498557396E9, 0.0, 2024-01-27 15:40:49.855
78.0, -502.6425540447235, -612.9845623373985, -472.4840008020401, -252.75739860534668, -1.008000047877431, -1.008000047877431, 1.008000047877431, 0.0, 0.0, 0.0, 0.0, 0.0, 1.7063880498564644E9, 0.0, 2024-01-27 15:40:49.856
78.0, -580.9111803174019, -618.0109878778458, -453.3357130289078, -353.2859094142914, -1.008000047877431, -1.008000047877431, 1.008000047877431, 0.0, 0.0, 0.0, 0.0, 0.0, 1.7063880498564644E9, 0.0, 2024-01-27 15:40:49.856
79.0, -478.2284871339798, -633.3296180963516, -487.80263102054596, -292.01138854026794, -1.008000047877431, -1.008000047877431, 1.008000047877431, 0.0, 0.0, 0.0, 0.0, 0.0, 1.7063880498700583E9, 0.0, 2024-01-27 15:40:49.870
79.0, -462.90985691547394, -613.702623128891, -478.46784073114395, -232.17298924922943, -1.008000047877431, -1.008000047877431, 1.008000047877431, 0.0, 0.0, 0.0, 0.0, 0.0, 1.7063880498700583E9, 0.0, 2024-01-27 15:40:49.870
80.0, -583.5440698862076, -620.4045238494873, -451.89959144592285, -330.06861048936844, -1.008000047877431, -1.008000047877431, 1.008000047877431, 0.0, 0.0, 0.0, 0.0, 0.0, 1.70638804988586E9, 0.0, 2024-01-27 15:40:49.885
80.0, -517.2431234717369, -625.4309493899345, -468.65434324741364, -326.95701372623444, -1.008000047877431, -1.008000047877431, 1.008000047877431, 0.0, 0.0, 0.0, 0.0, 0.0, 1.70638804988586E9, 0.0, 2024-01-27 15:40:49.885
81.0, -450.94217705726624, -622.7980598211288, -494.5045317411423, -238.39618277549744, -1.008000047877431, -1.008000047877431, 1.008000047877431, 0.0, 0.0, 0.0, 0.0, 0.0, 1.706388049886525E9, 0.0, 2024-01-27 15:40:49.886
81.0, -560.5661245584488, -617.7716342806816, -465.7821000814438, -295.8410460948944, -1.008000047877431, -1.008000047877431, 1.008000047877431, 0.0, 0.0, 0.0, 0.0, 0.0, 1.706388049886525E9, 0.0, 2024-01-27 15:40:49.886
82.0, -556.0184062123299, -620.6438774466515, -462.6705033183098, -358.07298135757446, -1.008000047877431, -1.008000047877431, 1.008000047877431, 0.0, 0.0, 0.0, 0.0, 0.0, 1.7063880499003444E9, 0.0, 2024-01-27 15:40:49.900
82.0, -450.2241162657738, -632.372203707695, -502.40320044755936, -264.7250784635544, -1.008000047877431, -1.008000047877431, 1.008000047877431, 0.0, 0.0, 0.0, 0.0, 0.0, 1.7063880499003444E9, 0.0, 2024-01-27 15:40:49.900
83.0, -520.8334274291992, -624.4735350012779, -487.5632774233818, -269.2727968096733, -1.008000047877431, -1.008000047877431, 1.008000047877431, 0.0, 0.0, 0.0, 0.0, 0.0, 1.7063880499161732E9, 0.0, 2024-01-27 15:40:49.916
83.0, -595.7511033415794, -629.260606944561, -460.27696734666824, -368.12583243846893, -1.008000047877431, -1.008000047877431, 1.008000047877431, 0.0, 0.0, 0.0, 0.0, 0.0, 1.7063880499161732E9, 0.0, 2024-01-27 15:40:49.916
84.0, -468.65434324741364, -629.260606944561, -487.0845702290535, -294.16557091474533, -1.008000047877431, -1.008000047877431, 1.008000047877431, 0.0, 0.0, 0.0, 0.0, 0.0, 1.7063880499165664E9, 0.0, 2024-01-27 15:40:49.916
84.0, -472.4840008020401, -622.3193526268005, -484.9303878545761, -236.4813539981842, -1.008000047877431, -1.008000047877431, 1.008000047877431, 0.0, 0.0, 0.0, 0.0, 0.0, 1.7063880499165664E9, 0.0, 2024-01-27 15:40:49.916
85.0, -592.4001529812813, -627.1064245700836, -459.0801993608475, -342.7543511390686, -1.008000047877431, -1.008000047877431, 1.008000047877431, 0.0, 0.0, 0.0, 0.0, 0.0, 1.7063880499302998E9, 0.0, 2024-01-27 15:40:49.930
85.0, -517.9611842632294, -632.8509109020233, -478.7071943283081, -337.24921840429306, -1.008000047877431, -1.008000047877431, 1.008000047877431, 0.0, 0.0, 0.0, 0.0, 0.0, 1.7063880499302998E9, 0.0, 2024-01-27 15:40:49.930
86.0, -452.37829864025116, -632.372203707695, -500.7277252674103, -243.66196191310883, -1.008000047877431, -1.008000047877431, 1.008000047877431, 0.0, 0.0, 0.0, 0.0, 0.0, 1.7063880499459493E9, 0.0, 2024-01-27 15:40:49.945
86.0, -564.3957821130753, -626.149010181427, -474.39882957935333, -303.97906839847565, -1.008000047877431, -1.008000047877431, 1.008000047877431, 0.0, 0.0, 0.0, 0.0, 0.0, 1.7063880499459493E9, 0.0, 2024-01-27 15:40:49.945
87.0, -559.8480637669563, -624.9522421956062, -463.6279177069664, -357.8336277604103, -1.008000047877431, -1.008000047877431, 1.008000047877431, 0.0, 0.0, 0.0, 0.0, 0.0, 1.7063880499464784E9, 0.0, 2024-01-27 15:40:49.946
87.0, -439.692557990551, -621.1225846409798, -488.0419846177101, -251.5606306195259, -1.008000047877431, -1.008000047877431, 1.008000047877431, 0.0, 0.0, 0.0, 0.0, 0.0, 1.7063880499464784E9, 0.0, 2024-01-27 15:40:49.946
88.0, -497.6161285042763, -598.8627001047134, -471.5265864133835, -252.51804500818253, -1.008000047877431, -1.008000047877431, 1.008000047877431, 0.0, 0.0, 0.0, 0.0, 0.0, 1.7063880499600282E9, 0.0, 2024-01-27 15:40:49.960
88.0, -576.6028155684471, -613.702623128891, -449.027348279953, -348.73819106817245, -1.008000047877431, -1.008000047877431, 1.008000047877431, 0.0, 0.0, 0.0, 0.0, 0.0, 1.7063880499600282E9, 0.0, 2024-01-27 15:40:49.960
89.0, -468.8936968445778, -622.5587062239647, -480.3826695084572, -291.2933277487755, -1.008000047877431, -1.008000047877431, 1.008000047877431, 0.0, 0.0, 0.0, 0.0, 0.0, 1.706388049975744E9, 0.0, 2024-01-27 15:40:49.975
89.0, -466.2608072757721, -616.814219892025, -480.14331591129303, -234.08781802654266, -1.008000047877431, -1.008000047877431, 1.008000047877431, 0.0, 0.0, 0.0, 0.0, 0.0, 1.706388049975744E9, 0.0, 2024-01-27 15:40:49.975
90.0, -587.373727440834, -619.2077558636665, -458.12278497219086, -336.0524504184723, -1.008000047877431, -1.008000047877431, 1.008000047877431, 0.0, 0.0, 0.0, 0.0, 0.0, 1.7063880499764907E9, 0.0, 2024-01-27 15:40:49.976
90.0, -517.2431234717369, -626.3883637785912, -470.808525621891, -332.70150005817413, -1.008000047877431, -1.008000047877431, 1.008000047877431, 0.0, 0.0, 0.0, 0.0, 0.0, 1.7063880499764907E9, 0.0, 2024-01-27 15:40:49.976
91.0, -442.56480115652084, -617.5322806835175, -490.91422778367996, -234.56652522087097, -1.008000047877431, -1.008000047877431, 1.008000047877431, 0.0, 0.0, 0.0, 0.0, 0.0, 1.706388049990112E9, 0.0, 2024-01-27 15:40:49.990
91.0, -563.1990141272545, -625.4309493899345, -470.56917202472687, -313.0745050907135, -1.008000047877431, -1.008000047877431, 1.008000047877431, 0.0, 0.0, 0.0, 0.0, 0.0, 1.706388049990112E9, 0.0, 2024-01-27 15:40:49.990
92.0, -564.1564285159111, -630.2180213332176, -465.7821000814438, -353.0465558171272, -1.008000047877431, -1.008000047877431, 1.008000047877431, 0.0, 0.0, 0.0, 0.0, 0.0, 1.706388050005805E9, 0.0, 2024-01-27 15:40:50.005
92.0, -451.6602378487587, -627.8244853615761, -501.92449325323105, -255.86899536848068, -1.008000047877431, -1.008000047877431, 1.008000047877431, 0.0, 0.0, 0.0, 0.0, 0.0, 1.706388050005805E9, 0.0, 2024-01-27 15:40:50.005
93.0, -512.695405125618, -613.702623128891, -478.46784073114395, -260.65606731176376, -1.008000047877431, -1.008000047877431, 1.008000047877431, 0.0, 0.0, 0.0, 0.0, 0.0, 1.706388050006488E9, 0.0, 2024-01-27 15:40:50.006
93.0, -581.3898875117302, -617.0535734891891, -459.5589065551758, -353.0465558171272, -1.008000047877431, -1.008000047877431, 1.008000047877431, 0.0, 0.0, 0.0, 0.0, 0.0, 1.706388050006488E9, 0.0, 2024-01-27 15:40:50.006
94.0, -482.53685188293457, -629.7393141388893, -488.7600454092026, -297.0378140807152, -1.008000047877431, -1.008000047877431, 1.008000047877431, 0.0, 0.0, 0.0, 0.0, 0.0, 1.7063880500205631E9, 0.0, 2024-01-27 15:40:50.020
94.0, -463.1492105126381, -609.8729655742645, -489.95681339502335, -234.32717162370682, -1.008000047877431, -1.008000047877431, 1.008000047877431, 0.0, 0.0, 0.0, 0.0, 0.0, 1.7063880500205631E9, 0.0, 2024-01-27 15:40:50.020
95.0, -582.3473019003868, -614.8993911147118, -453.57506662607193, -335.573743224144, -1.008000047877431, -1.008000047877431, 1.008000047877431, 0.0, 0.0, 0.0, 0.0, 0.0, 1.7063880500358596E9, 0.0, 2024-01-27 15:40:50.035
95.0, -516.2857090830803, -628.7818997502327, -470.09046483039856, -321.4518809914589, -1.008000047877431, -1.008000047877431, 1.008000047877431, 0.0, 0.0, 0.0, 0.0, 0.0, 1.7063880500358596E9, 0.0, 2024-01-27 15:40:50.035
96.0, -454.2931274175644, -625.9096565842628, -499.0522500872612, -241.50777953863144, -1.008000047877431, -1.008000047877431, 1.008000047877431, 0.0, 0.0, 0.0, 0.0, 0.0, 1.7063880500366263E9, 0.0, 2024-01-27 15:40:50.036
96.0, -557.9332349896431, -616.5748662948608, -469.61175763607025, -297.75587487220764, -1.008000047877431, -1.008000047877431, 1.008000047877431, 0.0, 0.0, 0.0, 0.0, 0.0, 1.7063880500366263E9, 0.0, 2024-01-27 15:40:50.036
97.0, -553.14616304636, -619.925816655159, -469.13305044174194, -352.5678486227989, -1.008000047877431, -1.008000047877431, 1.008000047877431, 0.0, 0.0, 0.0, 0.0, 0.0, 1.7063880500657413E9, 0.0, 2024-01-27 15:40:50.065
97.0, -437.77772921323776, -620.8832310438156, -486.1271558403969, -248.68838745355606, -1.008000047877431, -1.008000047877431, 1.008000047877431, 0.0, 0.0, 0.0, 0.0, 0.0, 1.7063880500657413E9, 0.0, 2024-01-27 15:40:50.065
98.0, -508.8657475709915, -609.6336119771004, -473.4414151906967, -253.95416659116745, -1.008000047877431, -1.008000047877431, 1.008000047877431, 0.0, 0.0, 0.0, 0.0, 0.0, 1.706388050066476E9, 0.0, 2024-01-27 15:40:50.066
98.0, -586.4163130521774, -621.6012918353081, -458.12278497219086, -351.6104342341423, -1.008000047877431, -1.008000047877431, 1.008000047877431, 0.0, 0.0, 0.0, 0.0, 0.0, 1.706388050066476E9, 0.0, 2024-01-27 15:40:50.066
0.0, -459.79826015233994, -604.367832839489, -485.16974145174026, -232.17298924922943, -1.008000047877431, -1.008000047877431, 1.008000047877431, 0.0, 0.0, 0.0, 0.0, 0.0, 1.7063880500810735E9, 0.0, 2024-01-27 15:40:50.081
0.0, -594.5543353557587, -616.814219892025, -461.23438173532486, -334.13762164115906, -1.008000047877431, -1.008000047877431, 1.008000047877431, 0.0, 0.0, 0.0, 0.0, 0.0, 1.7063880500810735E9, 0.0, 2024-01-27 15:40:50.081
1.0, -521.3121346235275, -628.0638389587402, -482.7762054800987, -332.9408536553383, -1.008000047877431, -0.01600000075995922, 1.008000047877431, 0.0, 0.0, 0.0, 0.0, 0.0, 1.706388050081575E9, 0.0, 2024-01-27 15:40:50.081
1.0, -447.3518730998039, -621.8406454324722, -497.85548210144043, -237.19941478967667, -1.008000047877431, -0.01600000075995922, 1.008000047877431, 0.0, 0.0, 0.0, 0.0, 0.0, 1.706388050081575E9, 0.0, 2024-01-27 15:40:50.081
2.0, -557.4545277953148, -613.9419767260551, -460.75567454099655, -295.60169249773026, 0.09600000455975533, -0.01600000075995922, 1.008000047877431, 0.0, 0.0, 0.0, 0.0, 0.0, 1.706388050095096E9, 0.0, 2024-01-27 15:40:50.095
2.0, -562.0022461414337, -628.7818997502327, -471.5265864133835, -356.15815258026123, 0.09600000455975533, -0.01600000075995922, 1.008000047877431, 0.0, 0.0, 0.0, 0.0, 0.0, 1.706388050095096E9, 0.0, 2024-01-27 15:40:50.095
3.0, -447.3518730998039, -626.6277173757553, -500.0096644759178, -259.69865292310715, 0.09600000455975533, -0.01600000075995922, 1.008000047877431, 0.0, 0.0, 0.0, 0.0, 0.0, 1.7063880501107364E9, 0.0, 2024-01-27 15:40:50.110
3.0, -511.9773443341255, -617.0535734891891, -477.51042634248734, -261.6134817004204, 0.09600000455975533, -0.01600000075995922, 1.008000047877431, 0.0, 0.0, 0.0, 0.0, 0.0, 1.7063880501107364E9, 0.0, 2024-01-27 15:40:50.110
4.0, -593.3575673699379, -623.9948278069496, -460.9950281381607, -360.9452245235443, 0.09600000455975533, -0.01600000075995922, 1.008000047877431, 0.0, 0.0, 0.0, 0.0, 0.0, 1.7063880501115036E9, 0.0, 2024-01-27 15:40:50.111
4.0, -482.53685188293457, -634.5263860821724, -495.22259253263474, -296.55910688638687, 0.09600000455975533, -0.01600000075995922, 1.008000047877431, 0.0, 0.0, 0.0, 0.0, 0.0, 1.7063880501115036E9, 0.0, 2024-01-27 15:40:50.111
5.0, -478.94654792547226, -617.0535734891891, -495.70129972696304, -242.7045475244522, 0.09600000455975533, -0.01600000075995922, 1.008000047877431, 0.0, 0.0, 0.0, 0.0, 0.0, 1.70638805012512E9, 0.0, 2024-01-27 15:40:50.125
5.0, -589.7672634124756, -622.7980598211288, -456.9260169863701, -335.3343896269798, 0.09600000455975533, -0.01600000075995922, 1.008000047877431, 0.0, 0.0, 0.0, 0.0, 0.0, 1.70638805012512E9, 0.0, 2024-01-27 15:40:50.125
6.0, -522.7482562065125, -634.0476788878441, -478.94654792547226, -331.02602487802505, 0.09600000455975533, -0.01600000075995922, 1.008000047877431, 0.0, 0.0, 0.0, 0.0, 0.0, 1.7063880501412265E9, 0.0, 2024-01-27 15:40:50.141
6.0, -454.53248101472855, -626.3883637785912, -497.13742130994797, -237.67812198400497, 0.09600000455975533, -0.01600000075995922, 1.008000047877431, 0.0, 0.0, 0.0, 0.0, 0.0, 1.7063880501412265E9, 0.0, 2024-01-27 15:40:50.141
7.0, -565.3531965017319, -619.2077558636665, -468.4149896502495, -301.5855324268341, 0.09600000455975533, -0.01600000075995922, 1.008000047877431, 0.0, 0.0, 0.0, 0.0, 0.0, 1.7063880501416092E9, 0.0, 2024-01-27 15:40:50.141
7.0, -554.8216382265091, -617.0535734891891, -461.473735332489, -345.14788711071014, 0.09600000455975533, -0.01600000075995922, 1.008000047877431, 0.0, 0.0, 0.0, 0.0, 0.0, 1.7063880501416092E9, 0.0, 2024-01-27 15:40:50.141
8.0, -438.97449719905853, -619.4471094608307, -489.7174597978592, -249.88515543937683, 0.09600000455975533, -0.01600000075995922, 1.008000047877431, 0.0, 0.0, 0.0, 0.0, 0.0, 1.7063880501550653E9, 0.0, 2024-01-27 15:40:50.155
8.0, -521.3121346235275, -619.4471094608307, -472.4840008020401, -265.44313925504684, 0.09600000455975533, -0.01600000075995922, 1.008000047877431, 0.0, 0.0, 0.0, 0.0, 0.0, 1.7063880501550653E9, 0.0, 2024-01-27 15:40:50.155
9.0, -596.2298105359077, -633.8083252906799, -461.9524425268173, -354.96138459444046, 0.09600000455975533, -0.01600000075995922, 1.008000047877431, 0.0, 0.0, 0.0, 0.0, 0.0, 1.7063880501711168E9, 0.0, 2024-01-27 15:40:50.171
9.0, -481.57943749427795, -630.6967285275459, -494.7438853383064, -295.8410460948944, 0.09600000455975533, -0.01600000075995922, 1.008000047877431, 0.0, 0.0, 0.0, 0.0, 0.0, 1.7063880501711168E9, 0.0, 2024-01-27 15:40:50.171
10.0, -474.39882957935333, -618.0109878778458, -489.7174597978592, -241.98648673295975, 0.09600000455975533, -0.01600000075995922, 1.008000047877431, 0.0, 0.0, 0.0, 0.0, 0.0, 1.7063880501857927E9, 0.0, 2024-01-27 15:40:50.185
10.0, -596.708517730236, -627.1064245700836, -462.6705033183098, -340.36081516742706, 0.09600000455975533, -0.01600000075995922, 1.008000047877431, 0.0, 0.0, 0.0, 0.0, 0.0, 1.7063880501857927E9, 0.0, 2024-01-27 15:40:50.185
11.0, -521.3121346235275, -626.8670709729195, -476.31365835666656, -328.87184250354767, 0.09600000455975533, -0.01600000075995922, 1.008000047877431, 0.0, 0.0, 0.0, 0.0, 0.0, 1.7063880501864848E9, 0.0, 2024-01-27 15:40:50.186
11.0, -459.0801993608475, -624.4735350012779, -500.7277252674103, -236.72070759534836, 0.09600000455975533, -0.01600000075995922, 1.008000047877431, 0.0, 0.0, 0.0, 0.0, 0.0, 1.7063880501864848E9, 0.0, 2024-01-27 15:40:50.186
12.0, -563.1990141272545, -619.4471094608307, -455.96860259771347, -292.2507421374321, 0.09600000455975533, -0.01600000075995922, 1.008000047877431, 0.0, 0.0, 0.0, 0.0, 0.0, 1.7063880502010753E9, 0.0, 2024-01-27 15:40:50.201
12.0, -557.2151741981506, -622.3193526268005, -462.1917961239815, -344.908533513546, 0.09600000455975533, -0.01600000075995922, 1.008000047877431, 0.0, 0.0, 0.0, 0.0, 0.0, 1.7063880502010753E9, 0.0, 2024-01-27 15:40:50.201
13.0, -449.9847626686096, -626.149010181427, -489.7174597978592, -252.99675220251083, 0.09600000455975533, -0.01600000075995922, 1.008000047877431, 0.0, 0.0, 0.0, 0.0, 0.0, 1.7063880502015927E9, 0.0, 2024-01-27 15:40:50.201
13.0, -510.5412227511406, -609.6336119771004, -471.0478792190552, -253.7148129940033, 0.09600000455975533, -0.01600000075995922, 1.008000047877431, 0.0, 0.0, 0.0, 0.0, 0.0, 1.7063880502015927E9, 0.0, 2024-01-27 15:40:50.201
14.0, -574.6879867911339, -617.2929270863533, -450.94217705726624, -347.78077667951584, 0.09600000455975533, -0.01600000075995922, 1.008000047877431, 0.0, 0.0, 0.0, 0.0, 0.0, 1.70638805021526E9, 0.0, 2024-01-27 15:40:50.215
14.0, -472.9627079963684, -624.4735350012779, -491.1535813808441, -288.42108458280563, 0.09600000455975533, -0.01600000075995922, 1.008000047877431, 0.0, 0.0, 0.0, 0.0, 0.0, 1.70638805021526E9, 0.0, 2024-01-27 15:40:50.215
15.0, -470.56917202472687, -609.6336119771004, -479.6646087169647, -230.01880687475204, 0.09600000455975533, -0.01600000075995922, 1.008000047877431, 0.0, 0.0, 0.0, 0.0, 0.0, 1.7063880502307415E9, 0.0, 2024-01-27 15:40:50.230
15.0, -579.2357051372528, -612.2665015459061, -453.3357130289078, -334.3769752383232, 0.09600000455975533, -0.01600000075995922, 1.008000047877431, 0.0, 0.0, 0.0, 0.0, 0.0, 1.7063880502307415E9, 0.0, 2024-01-27 15:40:50.230
16.0, -511.25928354263306, -622.3193526268005, -474.87753677368164, -326.7176601290703, 0.09600000455975533, -0.01600000075995922, 1.008000047877431, 0.0, 0.0, 0.0, 0.0, 0.0, 1.7063880502314608E9, 0.0, 2024-01-27 15:40:50.231
16.0, -444.9583371281624, -613.9419767260551, -491.1535813808441, -230.2581604719162, 0.09600000455975533, -0.01600000075995922, 1.008000047877431, 0.0, 0.0, 0.0, 0.0, 0.0, 1.7063880502314608E9, 0.0, 2024-01-27 15:40:50.231
17.0, -563.4383677244186, -618.7290486693382, -468.8936968445778, -305.1758363842964, 0.09600000455975533, -0.01600000075995922, 1.008000047877431, 0.0, 0.0, 0.0, 0.0, 0.0, 1.7063880502452295E9, 0.0, 2024-01-27 15:40:50.245
17.0, -553.6248702406883, -620.1651702523232, -465.0640392899513, -349.9349590539932, 0.09600000455975533, -0.01600000075995922, 1.008000047877431, 0.0, 0.0, 0.0, 0.0, 0.0, 1.7063880502452295E9, 0.0, 2024-01-27 15:40:50.245
18.0, -446.63381230831146, -629.9786677360535, -493.54711735248566, -252.27869141101837, 0.09600000455975533, -0.01600000075995922, 1.008000047877431, 0.0, 0.0, 0.0, 0.0, 0.0, 1.706388050260831E9, 0.0, 2024-01-27 15:40:50.260
18.0, -516.2857090830803, -614.4206839203835, -469.8511112332344, -262.570896089077, 0.09600000455975533, -0.01600000075995922, 1.008000047877431, 0.0, 0.0, 0.0, 0.0, 0.0, 1.706388050260831E9, 0.0, 2024-01-27 15:40:50.260
19.0, -581.3898875117302, -620.6438774466515, -452.6176522374153, -354.96138459444046, 0.09600000455975533, -0.01600000075995922, 1.008000047877431, 0.0, 0.0, 0.0, 0.0, 0.0, 1.7063880502616622E9, 0.0, 2024-01-27 15:40:50.261
19.0, -464.82468569278717, -629.0212533473969, -484.4516806602478, -287.70302379131317, 0.09600000455975533, -0.01600000075995922, 1.008000047877431, 0.0, 0.0, 0.0, 0.0, 0.0, 1.7063880502616622E9, 0.0, 2024-01-27 15:40:50.261
20.0, -479.42525511980057, -623.2767670154572, -489.2387526035309, -241.50777953863144, 0.09600000455975533, -0.01600000075995922, 1.008000047877431, 0.0, 0.0, 0.0, 0.0, 0.0, 1.7063880502754223E9, 0.0, 2024-01-27 15:40:50.275
20.0, -582.8260090947151, -611.5484407544136, -453.0963594317436, -333.8982680439949, 0.09600000455975533, -0.01600000075995922, 1.008000047877431, 0.0, 0.0, 0.0, 0.0, 0.0, 1.7063880502754223E9, 0.0, 2024-01-27 15:40:50.275
21.0, -510.78057634830475, -623.7554742097855, -471.76594001054764, -318.3402842283249, 0.09600000455975533, -0.03200000151991844, 1.008000047877431, 0.0, 0.0, 0.0, 0.0, 0.0, 1.706388050290969E9, 0.0, 2024-01-27 15:40:50.290
21.0, -434.4267788529396, -604.1284792423248, -483.25491267442703, -225.94979572296143, 0.09600000455975533, -0.03200000151991844, 1.008000047877431, 0.0, 0.0, 0.0, 0.0, 0.0, 1.706388050290969E9, 0.0, 2024-01-27 15:40:50.290
22.0, -549.0771518945694, -607.9581367969513, -453.8144202232361, -297.75587487220764, 0.09600000455975533, -0.03200000151991844, 1.008000047877431, 0.0, 0.0, 0.0, 0.0, 0.0, 1.7063880502915392E9, 0.0, 2024-01-27 15:40:50.291
22.0, -546.6836159229279, -616.0961591005325, -451.42088425159454, -338.92469358444214, 0.09600000455975533, -0.03200000151991844, 1.008000047877431, 0.0, 0.0, 0.0, 0.0, 0.0, 1.7063880502915392E9, 0.0, 2024-01-27 15:40:50.291
23.0, -436.580961227417, -612.9845623373985, -488.99939900636673, -243.90131551027298, 0.09600000455975533, -0.03200000151991844, 1.008000047877431, 0.0, 0.0, 0.0, 0.0, 0.0, 1.7063880503054357E9, 0.0, 2024-01-27 15:40:50.305
23.0, -513.4134659171104, -614.4206839203835, -476.7923655509949, -263.28895688056946, 0.09600000455975533, -0.03200000151991844, 1.008000047877431, 0.0, 0.0, 0.0, 0.0, 0.0, 1.7063880503054357E9, 0.0, 2024-01-27 15:40:50.305
24.0, -584.0227770805359, -625.1915957927704, -452.37829864025116, -353.2859094142914, 0.09600000455975533, -0.03200000151991844, 1.008000047877431, 0.0, 0.0, 0.0, 0.0, 0.0, 1.7063880503209493E9, 0.0, 2024-01-27 15:40:50.320
24.0, -470.56917202472687, -626.149010181427, -489.7174597978592, -289.6178525686264, 0.09600000455975533, -0.03200000151991844, 1.008000047877431, 0.0, 0.0, 0.0, 0.0, 0.0, 1.7063880503209493E9, 0.0, 2024-01-27 15:40:50.320
25.0, -477.51042634248734, -623.9948278069496, -489.47810620069504, -241.26842594146729, 0.09600000455975533, -0.03200000151991844, 1.008000047877431, 0.0, 0.0, 0.0, 0.0, 0.0, 1.7063880503216348E9, 0.0, 2024-01-27 15:40:50.321
25.0, -577.3208763599396, -617.0535734891891, -451.89959144592285, -336.5311576128006, 0.09600000455975533, -0.03200000151991844, 1.008000047877431, 0.0, 0.0, 0.0, 0.0, 0.0, 1.7063880503216348E9, 0.0, 2024-01-27 15:40:50.321
26.0, -507.19027239084244, -622.3193526268005, -474.87753677368164, -321.9305881857872, 0.09600000455975533, -0.03200000151991844, 1.008000047877431, 0.0, 0.0, 0.0, 0.0, 0.0, 1.7063880503353477E9, 0.0, 2024-01-27 15:40:50.335
26.0, -443.04350835084915, -615.8568055033684, -498.0948356986046, -240.78971874713898, 0.09600000455975533, -0.03200000151991844, 1.008000047877431, 0.0, 0.0, 0.0, 0.0, 0.0, 1.7063880503353477E9, 0.0, 2024-01-27 15:40:50.335
27.0, -563.4383677244186, -619.6864630579948, -470.56917202472687, -309.24484753608704, 0.09600000455975533, -0.03200000151991844, 1.008000047877431, 0.0, 0.0, 0.0, 0.0, 0.0, 1.7063880503509789E9, 0.0, 2024-01-27 15:40:50.350
27.0, -568.70414686203, -634.2870324850082, -475.1168903708458, -361.4239317178726, 0.09600000455975533, -0.03200000151991844, 1.008000047877431, 0.0, 0.0, 0.0, 0.0, 0.0, 1.7063880503509789E9, 0.0, 2024-01-27 15:40:50.350
28.0, -442.804154753685, -631.1754357218742, -503.8393220305443, -268.55473601818085, 0.09600000455975533, -0.03200000151991844, 1.008000047877431, 0.0, 0.0, 0.0, 0.0, 0.0, 1.7063880503516266E9, 0.0, 2024-01-27 15:40:50.351
28.0, -507.66897958517075, -607.9581367969513, -470.09046483039856, -261.85283529758453, 0.09600000455975533, -0.03200000151991844, 1.008000047877431, 0.0, 0.0, 0.0, 0.0, 0.0, 1.7063880503516266E9, 0.0, 2024-01-27 15:40:50.351
29.0, -583.5440698862076, -624.9522421956062, -451.1815306544304, -362.1419925093651, 0.09600000455975533, -0.03200000151991844, 1.008000047877431, 0.0, 0.0, 0.0, 0.0, 0.0, 1.7063880503650415E9, 0.0, 2024-01-27 15:40:50.365
29.0, -462.6705033183098, -626.149010181427, -489.47810620069504, -295.3623389005661, 0.09600000455975533, -0.03200000151991844, 1.008000047877431, 0.0, 0.0, 0.0, 0.0, 0.0, 1.7063880503650415E9, 0.0, 2024-01-27 15:40:50.365
30.0, -458.8408457636833, -610.591026365757, -481.3400838971138, -235.5239396095276, 0.09600000455975533, -0.03200000151991844, 0.9920000471174717, 0.0, 0.0, 0.0, 0.0, 0.0, 1.7063880503807418E9, 0.0, 2024-01-27 15:40:50.380
30.0, -579.9537659287453, -616.814219892025, -459.3195529580116, -347.0627158880234, 0.09600000455975533, -0.03200000151991844, 0.9920000471174717, 0.0, 0.0, 0.0, 0.0, 0.0, 1.7063880503807418E9, 0.0, 2024-01-27 15:40:50.380
31.0, -511.4986371397972, -634.0476788878441, -482.05814468860626, -334.8556824326515, 0.09600000455975533, -0.03200000151991844, 0.9920000471174717, 0.0, 0.0, 0.0, 0.0, 0.0, 1.7063880503813913E9, 0.0, 2024-01-27 15:40:50.381
31.0, -442.56480115652084, -623.037413418293, -496.4193605184555, -239.5929507613182, 0.09600000455975533, -0.03200000151991844, 0.9920000471174717, 0.0, 0.0, 0.0, 0.0, 0.0, 1.7063880503813913E9, 0.0, 2024-01-27 15:40:50.381
32.0, -551.4706878662109, -613.9419767260551, -465.0640392899513, -307.56937235593796, 0.09600000455975533, -0.03200000151991844, 0.9920000471174717, 0.0, 0.0, 0.0, 0.0, 0.0, 1.7063880503952289E9, 0.0, 2024-01-27 15:40:50.395
32.0, -547.1623231172562, -614.4206839203835, -451.6602378487587, -341.796936750412, 0.09600000455975533, -0.03200000151991844, 0.9920000471174717, 0.0, 0.0, 0.0, 0.0, 0.0, 1.7063880503952289E9, 0.0, 2024-01-27 15:40:50.395
33.0, -426.0494029521942, -605.3252472281456, -477.98913353681564, -240.55036514997482, 0.09600000455975533, -0.03200000151991844, 0.9920000471174717, 0.0, 0.0, 0.0, 0.0, 0.0, 1.7063880504107616E9, 0.0, 2024-01-27 15:40:50.410
33.0, -499.77031087875366, -603.6497720479965, -473.4414151906967, -262.0921888947487, 0.09600000455975533, -0.03200000151991844, 0.9920000471174717, 0.0, 0.0, 0.0, 0.0, 0.0, 1.7063880504107616E9, 0.0, 2024-01-27 15:40:50.410
34.0, -579.2357051372528, -621.8406454324722, -455.48989540338516, -358.7910421490669, 0.09600000455975533, -0.03200000151991844, 0.9920000471174717, 0.0, 0.0, 0.0, 0.0, 0.0, 1.7063880504115188E9, 0.0, 2024-01-27 15:40:50.411
34.0, -461.71308892965317, -629.7393141388893, -493.06841015815735, -295.60169249773026, 0.09600000455975533, -0.03200000151991844, 0.9920000471174717, 0.0, 0.0, 0.0, 0.0, 0.0, 1.7063880504115188E9, 0.0, 2024-01-27 15:40:50.411
35.0, -470.09046483039856, -613.702623128891, -490.91422778367996, -249.88515543937683, 0.09600000455975533, -0.03200000151991844, 0.9920000471174717, 0.0, 0.0, 0.0, 0.0, 0.0, 1.706388050425102E9, 0.0, 2024-01-27 15:40:50.425
35.0, -584.2621306777, -615.3780983090401, -454.53248101472855, -341.55758315324783, 0.09600000455975533, -0.03200000151991844, 0.9920000471174717, 0.0, 0.0, 0.0, 0.0, 0.0, 1.706388050425102E9, 0.0, 2024-01-27 15:40:50.425
36.0, -510.0625155568123, -629.7393141388893, -473.920122385025, -328.6324889063835, 0.09600000455975533, -0.03200000151991844, 0.9920000471174717, 0.0, 0.0, 0.0, 0.0, 0.0, 1.7063880504409287E9, 0.0, 2024-01-27 15:40:50.440
36.0, -441.8467403650284, -615.6174519062042, -492.11099576950073, -236.24200040102005, 0.09600000455975533, -0.03200000151991844, 0.9920000471174717, 0.0, 0.0, 0.0, 0.0, 0.0, 1.7063880504409287E9, 0.0, 2024-01-27 15:40:50.440
37.0, -555.3003454208374, -615.1387447118759, -457.16537058353424, -295.3623389005661, 0.09600000455975533, -0.03200000151991844, 0.9920000471174717, 0.0, 0.0, 0.0, 0.0, 0.0, 1.706388050441524E9, 0.0, 2024-01-27 15:40:50.441
37.0, -540.699775993824, -619.4471094608307, -463.86727130413055, -351.37108063697815, 0.09600000455975533, -0.03200000151991844, 0.9920000471174717, 0.0, 0.0, 0.0, 0.0, 0.0, 1.706388050441524E9, 0.0, 2024-01-27 15:40:50.441
38.0, -428.92164611816406, -618.9684022665024, -494.7438853383064, -252.03933781385422, 0.09600000455975533, -0.03200000151991844, 0.9920000471174717, 0.0, 0.0, 0.0, 0.0, 0.0, 1.7063880504550784E9, 0.0, 2024-01-27 15:40:50.455
38.0, -514.6102339029312, -614.6600375175476, -476.0743047595024, -268.794089615345, 0.09600000455975533, -0.03200000151991844, 0.9920000471174717, 0.0, 0.0, 0.0, 0.0, 0.0, 1.7063880504550784E9, 0.0, 2024-01-27 15:40:50.455
39.0, -585.2195450663567, -629.7393141388893, -463.38856410980225, -365.7322964668274, 0.09600000455975533, -0.03200000151991844, 0.9920000471174717, 0.0, 0.0, 0.0, 0.0, 0.0, 1.7063880504708793E9, 0.0, 2024-01-27 15:40:50.470
39.0, -470.3298184275627, -635.7231540679932, -491.6322885751724, -298.9526428580284, 0.09600000455975533, -0.03200000151991844, 0.9920000471174717, 0.0, 0.0, 0.0, 0.0, 0.0, 1.7063880504708793E9, 0.0, 2024-01-27 15:40:50.470
40.0, -471.0478792190552, -621.8406454324722, -490.1961669921875, -247.25226587057114, 0.09600000455975533, -0.03200000151991844, 0.9920000471174717, 0.0, 0.0, 0.0, 0.0, 0.0, 1.706388050471491E9, 0.0, 2024-01-27 15:40:50.471
40.0, -583.3047162890434, -618.4896950721741, -462.1917961239815, -343.2330583333969, 0.09600000455975533, -0.03200000151991844, 0.9920000471174717, 0.0, 0.0, 0.0, 0.0, 0.0, 1.706388050471491E9, 0.0, 2024-01-27 15:40:50.471
41.0, -502.1638468503952, -623.2767670154572, -479.9039623141289, -325.76024574041367, 0.09600000455975533, -0.03200000151991844, 0.9920000471174717, 0.0, 0.0, 0.0, 0.0, 0.0, 1.7063880504853704E9, 0.0, 2024-01-27 15:40:50.485
41.0, -448.0699338912964, -622.7980598211288, -492.58970296382904, -238.87488996982574, 0.09600000455975533, -0.03200000151991844, 0.9920000471174717, 0.0, 0.0, 0.0, 0.0, 0.0, 1.7063880504853704E9, 0.0, 2024-01-27 15:40:50.485
42.0, -563.4383677244186, -618.4896950721741, -461.71308892965317, -300.38876444101334, 0.09600000455975533, -0.03200000151991844, 0.9920000471174717, 0.0, 0.0, 0.0, 0.0, 0.0, 1.706388050500955E9, 0.0, 2024-01-27 15:40:50.500
42.0, -550.034566283226, -630.6967285275459, -469.13305044174194, -352.32849502563477, 0.09600000455975533, -0.03200000151991844, 0.9920000471174717, 0.0, 0.0, 0.0, 0.0, 0.0, 1.706388050500955E9, 0.0, 2024-01-27 15:40:50.500
43.0, -440.41061878204346, -631.6541429162025, -500.7277252674103, -257.54447054862976, 0.09600000455975533, -0.03200000151991844, 0.9920000471174717, 0.0, 0.0, 0.0, 0.0, 0.0, 1.7063880505017292E9, 0.0, 2024-01-27 15:40:50.501
43.0, -510.78057634830475, -614.1813303232193, -475.5955975651741, -263.0496032834053, 0.09600000455975533, -0.03200000151991844, 0.9920000471174717, 0.0, 0.0, 0.0, 0.0, 0.0, 1.7063880505017292E9, 0.0, 2024-01-27 15:40:50.501
44.0, -573.7305724024773, -622.7980598211288, -456.2079561948776, -356.15815258026123, 0.09600000455975533, -0.03200000151991844, 0.9920000471174717, 0.0, 0.0, 0.0, 0.0, 0.0, 1.7063880505152652E9, 0.0, 2024-01-27 15:40:50.515
44.0, -463.6279177069664, -625.6703029870987, -488.28133821487427, -289.6178525686264, 0.09600000455975533, -0.03200000151991844, 0.9920000471174717, 0.0, 0.0, 0.0, 0.0, 0.0, 1.7063880505152652E9, 0.0, 2024-01-27 15:40:50.515
45.0, -475.83495116233826, -620.6438774466515, -495.4619461297989, -250.12450903654099, 0.09600000455975533, -0.03200000151991844, 0.9920000471174717, 0.0, 0.0, 0.0, 0.0, 0.0, 1.7063880505307896E9, 0.0, 2024-01-27 15:40:50.530
45.0, -590.0066170096397, -622.0799990296364, -460.5163209438324, -350.41366624832153, 0.09600000455975533, -0.03200000151991844, 0.9920000471174717, 0.0, 0.0, 0.0, 0.0, 0.0, 1.7063880505307896E9, 0.0, 2024-01-27 15:40:50.530
46.0, -509.583808362484, -633.5689716935158, -484.69103425741196, -332.9408536553383, 0.09600000455975533, -0.03200000151991844, 0.9920000471174717, 0.0, 0.0, 0.0, 0.0, 0.0, 1.706388050531565E9, 0.0, 2024-01-27 15:40:50.531
46.0, -443.7615691423416, -620.6438774466515, -497.6161285042763, -239.83230435848236, 0.09600000455975533, -0.03200000151991844, 0.9920000471174717, 0.0, 0.0, 0.0, 0.0, 0.0, 1.706388050531565E9, 0.0, 2024-01-27 15:40:50.531
47.0, -550.034566283226, -608.4368439912796, -461.9524425268173, -306.8513115644455, 0.09600000455975533, -0.03200000151991844, 0.9920000471174717, 0.0, 0.0, 0.0, 0.0, 0.0, 1.7063880505451746E9, 0.0, 2024-01-27 15:40:50.545
47.0, -546.6836159229279, -618.9684022665024, -460.9950281381607, -346.58400869369507, 0.09600000455975533, -0.03200000151991844, 0.9920000471174717, 0.0, 0.0, 0.0, 0.0, 0.0, 1.7063880505451746E9, 0.0, 2024-01-27 15:40:50.545
48.0, -429.1609997153282, -617.7716342806816, -494.9832389354706, -254.91158097982407, 0.09600000455975533, -0.03200000151991844, 0.9920000471174717, 0.0, 0.0, 0.0, 0.0, 0.0, 1.706388050560879E9, 0.0, 2024-01-27 15:40:50.560
48.0, -508.3870403766632, -610.591026365757, -479.42525511980057, -267.1186144351959, 0.09600000455975533, -0.03200000151991844, 0.9920000471174717, 0.0, 0.0, 0.0, 0.0, 0.0, 1.706388050560879E9, 0.0, 2024-01-27 15:40:50.560
49.0, -582.8260090947151, -632.1328501105309, -466.02145367860794, -363.81746768951416, 0.09600000455975533, -0.03200000151991844, 0.9920000471174717, 0.0, 0.0, 0.0, 0.0, 0.0, 1.7063880505615096E9, 0.0, 2024-01-27 15:40:50.561
49.0, -468.4149896502495, -636.6805684566498, -495.4619461297989, -297.75587487220764, 0.09600000455975533, -0.03200000151991844, 0.9920000471174717, 0.0, 0.0, 0.0, 0.0, 0.0, 1.7063880505615096E9, 0.0, 2024-01-27 15:40:50.561
50.0, -467.2182216644287, -621.6012918353081, -492.8290565609932, -245.09808349609375, 0.09600000455975533, -0.03200000151991844, 0.9920000471174717, 0.0, 0.0, 0.0, 0.0, 0.0, 1.7063880505751076E9, 0.0, 2024-01-27 15:40:50.575
50.0, -578.2782907485962, -613.2239159345627, -453.0963594317436, -337.9672791957855, 0.09600000455975533, -0.03200000151991844, 0.9920000471174717, 0.0, 0.0, 0.0, 0.0, 0.0, 1.7063880505751076E9, 0.0, 2024-01-27 15:40:50.575
51.0, -501.6851396560669, -621.3619382381439, -475.35624396800995, -327.6750745177269, 0.09600000455975533, -0.03200000151991844, 0.9920000471174717, 0.0, 0.0, 0.0, 0.0, 0.0, 1.7063880505907736E9, 0.0, 2024-01-27 15:40:50.590
51.0, -444.9583371281624, -616.3355126976967, -495.4619461297989, -236.72070759534836, 0.09600000455975533, -0.03200000151991844, 0.9920000471174717, 0.0, 0.0, 0.0, 0.0, 0.0, 1.7063880505907736E9, 0.0, 2024-01-27 15:40:50.590
52.0, -546.4442623257637, -610.3516727685928, -460.9950281381607, -308.04807955026627, 0.09600000455975533, -0.03200000151991844, 0.9920000471174717, 0.0, 0.0, 0.0, 0.0, 0.0, 1.7063880505914805E9, 0.0, 2024-01-27 15:40:50.591
52.0, -544.7687871456146, -624.9522421956062, -460.5163209438324, -347.78077667951584, 0.09600000455975533, -0.03200000151991844, 0.9920000471174717, 0.0, 0.0, 0.0, 0.0, 0.0, 1.7063880505914805E9, 0.0, 2024-01-27 15:40:50.591
53.0, -440.1712651848793, -629.7393141388893, -498.33418929576874, -255.62964177131653, 0.09600000455975533, -0.03200000151991844, 0.9920000471174717, 0.0, 0.0, 0.0, 0.0, 0.0, 1.7063880506220148E9, 0.0, 2024-01-27 15:40:50.622
53.0, -511.9773443341255, -612.5058551430702, -472.24464720487595, -266.1612000465393, 0.09600000455975533, -0.03200000151991844, 0.9920000471174717, 0.0, 0.0, 0.0, 0.0, 0.0, 1.7063880506220148E9, 0.0, 2024-01-27 15:40:50.622
54.0, -584.5014842748642, -629.9786677360535, -461.473735332489, -365.97165006399155, 0.09600000455975533, -0.03200000151991844, 0.9920000471174717, 0.0, 0.0, 0.0, 0.0, 0.0, 1.706388050622272E9, 0.0, 2024-01-27 15:40:50.622
54.0, -454.53248101472855, -623.5161206126213, -482.05814468860626, -282.1978910565376, 0.09600000455975533, -0.03200000151991844, 0.9920000471174717, 0.0, 0.0, 0.0, 0.0, 0.0, 1.706388050622272E9, 0.0, 2024-01-27 15:40:50.622
55.0, -464.1066249012947, -606.5220152139664, -478.7071943283081, -234.80587881803513, 0.09600000455975533, -0.03200000151991844, 0.9920000471174717, 0.0, 0.0, 0.0, 0.0, 0.0, 1.7063880506230419E9, 0.0, 2024-01-27 15:40:50.623
55.0, -571.0976828336716, -614.1813303232193, -455.01118820905685, -339.1640471816063, 0.09600000455975533, -0.03200000151991844, 0.9920000471174717, 0.0, 0.0, 0.0, 0.0, 0.0, 1.7063880506230419E9, 0.0, 2024-01-27 15:40:50.623
56.0, -498.33418929576874, -629.260606944561, -474.39882957935333, -321.69123458862305, 0.09600000455975533, -0.03200000151991844, 0.9920000471174717, 0.0, 0.0, 0.0, 0.0, 0.0, 1.706388050635398E9, 0.0, 2024-01-27 15:40:50.635
56.0, -445.915751516819, -625.9096565842628, -492.3503493666649, -238.39618277549744, 0.09600000455975533, -0.03200000151991844, 0.9920000471174717, 0.0, 0.0, 0.0, 0.0, 0.0, 1.706388050635398E9, 0.0, 2024-01-27 15:40:50.635
57.0, -566.0712572932243, -619.4471094608307, -464.1066249012947, -307.8087259531021, 0.09600000455975533, -0.03200000151991844, 0.9920000471174717, 0.0, 0.0, 0.0, 0.0, 0.0, 1.7063880506512885E9, 0.0, 2024-01-27 15:40:50.651
57.0, -546.2049087285995, -624.9522421956062, -463.86727130413055, -347.0627158880234, 0.09600000455975533, -0.03200000151991844, 0.9920000471174717, 0.0, 0.0, 0.0, 0.0, 0.0, 1.7063880506512885E9, 0.0, 2024-01-27 15:40:50.651
58.0, -435.14483964443207, -630.2180213332176, -497.13742130994797, -251.5606306195259, 0.09600000455975533, -0.03200000151991844, 0.9920000471174717, 0.0, 0.0, 0.0, 0.0, 0.0, 1.7063880506659367E9, 0.0, 2024-01-27 15:40:50.665
58.0, -516.2857090830803, -616.814219892025, -482.7762054800987, -272.3843935728073, 0.09600000455975533, -0.03200000151991844, 0.9920000471174717, 0.0, 0.0, 0.0, 0.0, 0.0, 1.7063880506659367E9, 0.0, 2024-01-27 15:40:50.665
59.0, -563.917074918747, -616.3355126976967, -455.48989540338516, -354.7220309972763, 0.09600000455975533, -0.03200000151991844, 0.9920000471174717, 0.0, 0.0, 0.0, 0.0, 0.0, 1.7063880506665192E9, 0.0, 2024-01-27 15:40:50.666
59.0, -458.60149216651917, -622.7980598211288, -488.0419846177101, -286.26690220832825, 0.09600000455975533, -0.03200000151991844, 0.9920000471174717, 0.0, 0.0, 0.0, 0.0, 0.0, 1.7063880506665192E9, 0.0, 2024-01-27 15:40:50.666
60.0, -469.8511112332344, -615.1387447118759, -483.25491267442703, -237.43876838684082, 0.09600000455975533, -0.03200000151991844, 0.9920000471174717, 0.0, 0.0, 0.0, 0.0, 0.0, 1.7063880506807961E9, 0.0, 2024-01-27 15:40:50.680
60.0, -583.7834234833717, -616.814219892025, -449.74540907144547, -336.77051120996475, 0.09600000455975533, -0.03200000151991844, 0.9920000471174717, 0.0, 0.0, 0.0, 0.0, 0.0, 1.7063880506807961E9, 0.0, 2024-01-27 15:40:50.680
61.0, -503.8393220305443, -623.2767670154572, -470.56917202472687, -320.01575940847397, 0.09600000455975533, -0.03200000151991844, 0.9920000471174717, 0.0, 0.0, 0.0, 0.0, 0.0, 1.7063880506814275E9, 0.0, 2024-01-27 15:40:50.681
61.0, -451.42088425159454, -622.5587062239647, -496.65871411561966, -234.80587881803513, 0.09600000455975533, -0.03200000151991844, 0.9920000471174717, 0.0, 0.0, 0.0, 0.0, 0.0, 1.7063880506814275E9, 0.0, 2024-01-27 15:40:50.681
62.0, -544.7687871456146, -606.2826616168022, -453.3357130289078, -297.75587487220764, 0.09600000455975533, -0.03200000151991844, 0.9920000471174717, 0.0, 0.0, 0.0, 0.0, 0.0, 1.7063880506954937E9, 0.0, 2024-01-27 15:40:50.695
62.0, -539.7423616051674, -616.3355126976967, -461.473735332489, -353.7646166086197, 0.09600000455975533, -0.03200000151991844, 0.9920000471174717, 0.0, 0.0, 0.0, 0.0, 0.0, 1.7063880506954937E9, 0.0, 2024-01-27 15:40:50.695
63.0, -440.1712651848793, -625.6703029870987, -494.7438853383064, -247.9703266620636, 0.09600000455975533, -0.03200000151991844, 0.9920000471174717, 0.0, 0.0, 0.0, 0.0, 0.0, 1.7063880507108903E9, 0.0, 2024-01-27 15:40:50.710
63.0, -518.2005378603935, -622.5587062239647, -479.1859015226364, -266.87926083803177, 0.09600000455975533, -0.03200000151991844, 0.9920000471174717, 0.0, 0.0, 0.0, 0.0, 0.0, 1.7063880507108903E9, 0.0, 2024-01-27 15:40:50.710
64.0, -576.363461971283, -622.7980598211288, -453.57506662607193, -350.41366624832153, 0.09600000455975533, -0.03200000151991844, 0.9920000471174717, 0.0, 0.0, 0.0, 0.0, 0.0, 1.7063880507115037E9, 0.0, 2024-01-27 15:40:50.711
64.0, -469.13305044174194, -639.5528116226196, -490.91422778367996, -286.74560940265656, 0.09600000455975533, -0.03200000151991844, 0.9920000471174717, 0.0, 0.0, 0.0, 0.0, 0.0, 1.7063880507115037E9, 0.0, 2024-01-27 15:40:50.711
65.0, -481.10073029994965, -624.7128885984421, -483.4942662715912, -232.65169644355774, 0.09600000455975533, -0.03200000151991844, 0.9920000471174717, 0.0, 0.0, 0.0, 0.0, 0.0, 1.7063880507251427E9, 0.0, 2024-01-27 15:40:50.725
65.0, -590.7246778011322, -624.9522421956062, -461.9524425268173, -344.4298263192177, 0.09600000455975533, -0.03200000151991844, 0.9920000471174717, 0.0, 0.0, 0.0, 0.0, 0.0, 1.7063880507251427E9, 0.0, 2024-01-27 15:40:50.725
66.0, -513.6528195142746, -630.9360821247101, -480.8613767027855, -325.5208921432495, 0.09600000455975533, -0.03200000151991844, 0.9920000471174717, 0.0, 0.0, 0.0, 0.0, 0.0, 1.706388050740768E9, 0.0, 2024-01-27 15:40:50.740
66.0, -446.63381230831146, -624.4735350012779, -500.4883716702461, -231.93363565206528, 0.09600000455975533, -0.03200000151991844, 0.9920000471174717, 0.0, 0.0, 0.0, 0.0, 0.0, 1.706388050740768E9, 0.0, 2024-01-27 15:40:50.740
67.0, -565.1138429045677, -623.037413418293, -470.09046483039856, -309.24484753608704, 0.09600000455975533, -0.03200000151991844, 0.9920000471174717, 0.0, 0.0, 0.0, 0.0, 0.0, 1.7063880507414505E9, 0.0, 2024-01-27 15:40:50.741
67.0, -544.2900799512863, -622.3193526268005, -459.0801993608475, -346.8233622908592, 0.09600000455975533, -0.03200000151991844, 0.9920000471174717, 0.0, 0.0, 0.0, 0.0, 0.0, 1.7063880507414505E9, 0.0, 2024-01-27 15:40:50.741
68.0, -432.9906572699547, -627.8244853615761, -494.7438853383064, -249.88515543937683, 0.09600000455975533, -0.03200000151991844, 0.9920000471174717, 0.0, 0.0, 0.0, 0.0, 0.0, 1.7063880507554824E9, 0.0, 2024-01-27 15:40:50.755
68.0, -520.3547202348709, -622.7980598211288, -477.51042634248734, -264.96443206071854, 0.09600000455975533, -0.03200000151991844, 0.9920000471174717, 0.0, 0.0, 0.0, 0.0, 0.0, 1.7063880507554824E9, 0.0, 2024-01-27 15:40:50.755
69.0, -578.7569979429245, -628.7818997502327, -451.42088425159454, -348.9775446653366, 0.09600000455975533, -0.03200000151991844, 0.9920000471174717, 0.0, 0.0, 0.0, 0.0, 0.0, 1.706388050770687E9, 0.0, 2024-01-27 15:40:50.770
69.0, -468.1756360530853, -632.6115573048592, -488.28133821487427, -280.04370868206024, 0.09600000455975533, -0.03200000151991844, 0.9920000471174717, 0.0, 0.0, 0.0, 0.0, 0.0, 1.706388050770687E9, 0.0, 2024-01-27 15:40:50.770
70.0, -482.7762054800987, -622.5587062239647, -493.7864709496498, -240.31101155281067, 0.09600000455975533, -0.03200000151991844, 1.008000047877431, 0.0, 0.0, 0.0, 0.0, 0.0, 1.7063880507714448E9, 0.0, 2024-01-27 15:40:50.771
70.0, -583.7834234833717, -615.6174519062042, -455.48989540338516, -332.46214646101, 0.09600000455975533, -0.03200000151991844, 1.008000047877431, 0.0, 0.0, 0.0, 0.0, 0.0, 1.7063880507714448E9, 0.0, 2024-01-27 15:40:50.771
71.0, -495.70129972696304, -623.9948278069496, -469.61175763607025, -314.27127307653427, 0.09600000455975533, -0.03200000151991844, 1.008000047877431, 0.0, 0.0, 0.0, 0.0, 0.0, 1.706388050785158E9, 0.0, 2024-01-27 15:40:50.785
71.0, -434.18742525577545, -610.3516727685928, -488.0419846177101, -227.1465637087822, 0.09600000455975533, -0.03200000151991844, 1.008000047877431, 0.0, 0.0, 0.0, 0.0, 0.0, 1.706388050785158E9, 0.0, 2024-01-27 15:40:50.785
72.0, -564.3957821130753, -623.9948278069496, -466.2608072757721, -306.61195796728134, 0.09600000455975533, -0.03200000151991844, 1.008000047877431, 0.0, 0.0, 0.0, 0.0, 0.0, 1.706388050801007E9, 0.0, 2024-01-27 15:40:50.801
72.0, -557.9332349896431, -633.0902644991875, -466.50016087293625, -345.62659430503845, 0.09600000455975533, -0.03200000151991844, 1.008000047877431, 0.0, 0.0, 0.0, 0.0, 0.0, 1.706388050801007E9, 0.0, 2024-01-27 15:40:50.801
73.0, -438.0170828104019, -624.2341814041138, -488.5206918120384, -237.43876838684082, 0.09600000455975533, -0.03200000151991844, 1.008000047877431, 0.0, 0.0, 0.0, 0.0, 0.0, 1.7063880508015292E9, 0.0, 2024-01-27 15:40:50.801
73.0, -509.82316195964813, -602.6923576593399, -467.45757526159286, -257.54447054862976, 0.09600000455975533, -0.03200000151991844, 1.008000047877431, 0.0, 0.0, 0.0, 0.0, 0.0, 1.7063880508015292E9, 0.0, 2024-01-27 15:40:50.801
74.0, -574.927340388298, -627.8244853615761, -458.362138569355, -354.00397020578384, 0.09600000455975533, -0.03200000151991844, 1.008000047877431, 0.0, 0.0, 0.0, 0.0, 0.0, 1.7063880508152168E9, 0.0, 2024-01-27 15:40:50.815
74.0, -469.3724040389061, -638.8347508311272, -496.18000692129135, -282.4372446537018, 0.09600000455975533, -0.03200000151991844, 1.008000047877431, 0.0, 0.0, 0.0, 0.0, 0.0, 1.7063880508152168E9, 0.0, 2024-01-27 15:40:50.815
75.0, -475.1168903708458, -619.2077558636665, -488.0419846177101, -239.35359716415405, 0.09600000455975533, -0.03200000151991844, 1.008000047877431, 0.0, 0.0, 0.0, 0.0, 0.0, 1.7063880508307295E9, 0.0, 2024-01-27 15:40:50.830
75.0, -575.8847547769547, -616.5748662948608, -450.4634698629379, -334.13762164115906, 0.09600000455975533, -0.03200000151991844, 1.008000047877431, 0.0, 0.0, 0.0, 0.0, 0.0, 1.7063880508307295E9, 0.0, 2024-01-27 15:40:50.830
76.0, -499.29160368442535, -626.149010181427, -474.1594759821892, -315.46804106235504, 0.09600000455975533, -0.03200000151991844, 1.008000047877431, 0.0, 0.0, 0.0, 0.0, 0.0, 1.7063880508314571E9, 0.0, 2024-01-27 15:40:50.831
76.0, -435.3841932415962, -612.0271479487419, -495.70129972696304, -232.17298924922943, 0.09600000455975533, -0.03200000151991844, 1.008000047877431, 0.0, 0.0, 0.0, 0.0, 0.0, 1.7063880508314571E9, 0.0, 2024-01-27 15:40:50.831
77.0, -545.7262015342712, -605.8039544224739, -461.71308892965317, -301.82488602399826, 0.09600000455975533, -0.03200000151991844, 1.008000047877431, 0.0, 0.0, 0.0, 0.0, 0.0, 1.7063880508450215E9, 0.0, 2024-01-27 15:40:50.845
77.0, -546.2049087285995, -626.6277173757553, -474.1594759821892, -352.5678486227989, 0.09600000455975533, -0.03200000151991844, 1.008000047877431, 0.0, 0.0, 0.0, 0.0, 0.0, 1.7063880508450215E9, 0.0, 2024-01-27 15:40:50.845
78.0, -441.1286795735359, -631.1754357218742, -505.2754436135292, -248.20968025922775, 0.09600000455975533, -0.03200000151991844, 1.008000047877431, 0.0, 0.0, 0.0, 0.0, 0.0, 1.706388050860765E9, 0.0, 2024-01-27 15:40:50.860
78.0, -522.03019541502, -622.7980598211288, -485.6484486460686, -274.5385759472847, 0.09600000455975533, -0.03200000151991844, 1.008000047877431, 0.0, 0.0, 0.0, 0.0, 0.0, 1.706388050860765E9, 0.0, 2024-01-27 15:40:50.860
79.0, -576.6028155684471, -623.2767670154572, -459.3195529580116, -355.9187989830971, 0.09600000455975533, -0.03200000151991844, 1.008000047877431, 0.0, 0.0, 0.0, 0.0, 0.0, 1.7063880508615096E9, 0.0, 2024-01-27 15:40:50.861
79.0, -460.9950281381607, -628.5425461530685, -496.65871411561966, -287.70302379131317, 0.09600000455975533, -0.03200000151991844, 1.008000047877431, 0.0, 0.0, 0.0, 0.0, 0.0, 1.7063880508615096E9, 0.0, 2024-01-27 15:40:50.861
80.0, -476.31365835666656, -624.2341814041138, -495.22259253263474, -242.46519392728806, 0.09600000455975533, -0.03200000151991844, 1.008000047877431, 0.0, 0.0, 0.0, 0.0, 0.0, 1.7063880508753393E9, 0.0, 2024-01-27 15:40:50.875
80.0, -590.0066170096397, -625.9096565842628, -457.16537058353424, -340.36081516742706, 0.09600000455975533, -0.03200000151991844, 1.008000047877431, 0.0, 0.0, 0.0, 0.0, 0.0, 1.7063880508753393E9, 0.0, 2024-01-27 15:40:50.875
81.0, -505.51479721069336, -635.7231540679932, -487.32392382621765, -324.5634777545929, 0.09600000455975533, -0.03200000151991844, 1.008000047877431, 0.0, 0.0, 0.0, 0.0, 0.0, 1.7063880508908825E9, 0.0, 2024-01-27 15:40:50.890
81.0, -446.3944587111473, -615.6174519062042, -499.0522500872612, -231.21557486057281, 0.09600000455975533, -0.03200000151991844, 1.008000047877431, 0.0, 0.0, 0.0, 0.0, 0.0, 1.7063880508908825E9, 0.0, 2024-01-27 15:40:50.890
82.0, -556.0184062123299, -610.1123191714287, -463.1492105126381, -302.30359321832657, 0.09600000455975533, -0.03200000151991844, 1.008000047877431, 0.0, 0.0, 0.0, 0.0, 0.0, 1.7063880508914905E9, 0.0, 2024-01-27 15:40:50.891
82.0, -535.4339968562126, -613.4632695317268, -456.2079561948776, -342.03629034757614, 0.09600000455975533, -0.03200000151991844, 1.008000047877431, 0.0, 0.0, 0.0, 0.0, 0.0, 1.7063880508914905E9, 0.0, 2024-01-27 15:40:50.891
83.0, -440.1712651848793, -621.6012918353081, -495.9406533241272, -243.42260831594467, 0.09600000455975533, -0.03200000151991844, 1.008000047877431, 0.0, 0.0, 0.0, 0.0, 0.0, 1.7063880509050484E9, 0.0, 2024-01-27 15:40:50.905
83.0, -517.9611842632294, -616.0961591005325, -478.2284871339798, -263.28895688056946, 0.09600000455975533, -0.03200000151991844, 1.008000047877431, 0.0, 0.0, 0.0, 0.0, 0.0, 1.7063880509050484E9, 0.0, 2024-01-27 15:40:50.905
84.0, -585.9376058578491, -627.5851317644119, -457.4047241806984, -354.48267740011215, 0.09600000455975533, -0.03200000151991844, 1.008000047877431, 0.0, 0.0, 0.0, 0.0, 0.0, 1.7063880509207878E9, 0.0, 2024-01-27 15:40:50.920
84.0, -460.9950281381607, -629.0212533473969, -494.02582454681396, -281.00112307071686, 0.09600000455975533, -0.03200000151991844, 1.008000047877431, 0.0, 0.0, 0.0, 0.0, 0.0, 1.7063880509207878E9, 0.0, 2024-01-27 15:40:50.920
85.0, -468.8936968445778, -615.6174519062042, -475.83495116233826, -227.86462450027466, 0.09600000455975533, -0.03200000151991844, 1.008000047877431, 0.0, 0.0, 0.0, 0.0, 0.0, 1.70638805092149E9, 0.0, 2024-01-27 15:40:50.921
85.0, -582.8260090947151, -617.2929270863533, -444.71898353099823, -329.8292568922043, 0.09600000455975533, -0.03200000151991844, 1.008000047877431, 0.0, 0.0, 0.0, 0.0, 0.0, 1.70638805092149E9, 0.0, 2024-01-27 15:40:50.921
86.0, -495.9406533241272, -612.5058551430702, -464.34597849845886, -303.7397148013115, 0.09600000455975533, -0.03200000151991844, 1.008000047877431, 0.0, 0.0, 0.0, 0.0, 0.0, 1.7063880509353037E9, 0.0, 2024-01-27 15:40:50.935
86.0, -444.9583371281624, -614.6600375175476, -485.4090950489044, -224.75302773714066, 0.09600000455975533, -0.03200000151991844, 1.008000047877431, 0.0, 0.0, 0.0, 0.0, 0.0, 1.7063880509353037E9, 0.0, 2024-01-27 15:40:50.935
87.0, -576.1241083741188, -625.4309493899345, -465.0640392899513, -305.1758363842964, 0.09600000455975533, -0.03200000151991844, 1.008000047877431, 0.0, 0.0, 0.0, 0.0, 0.0, 1.7063880509509988E9, 0.0, 2024-01-27 15:40:50.950
87.0, -552.9068094491959, -629.0212533473969, -463.6279177069664, -345.62659430503845, 0.09600000455975533, -0.03200000151991844, 1.008000047877431, 0.0, 0.0, 0.0, 0.0, 0.0, 1.7063880509509988E9, 0.0, 2024-01-27 15:40:50.950
88.0, -440.6499723792076, -637.6379828453064, -504.7967364192009, -249.64580184221268, 0.09600000455975533, -0.03200000151991844, 1.008000047877431, 0.0, 0.0, 0.0, 0.0, 0.0, 1.7063880509515095E9, 0.0, 2024-01-27 15:40:50.951
88.0, -526.0992065668106, -619.925816655159, -480.62202310562134, -269.2727968096733, 0.09600000455975533, -0.03200000151991844, 1.008000047877431, 0.0, 0.0, 0.0, 0.0, 0.0, 1.7063880509515095E9, 0.0, 2024-01-27 15:40:50.951
89.0, -587.373727440834, -631.1754357218742, -462.90985691547394, -356.3975061774254, 0.09600000455975533, -0.03200000151991844, 1.008000047877431, 0.0, 0.0, 0.0, 0.0, 0.0, 1.706388050965142E9, 0.0, 2024-01-27 15:40:50.965
89.0, -455.250541806221, -622.0799990296364, -487.80263102054596, -279.3256478905678, 0.09600000455975533, -0.03200000151991844, 1.008000047877431, 0.0, 0.0, 0.0, 0.0, 0.0, 1.706388050965142E9, 0.0, 2024-01-27 15:40:50.965
90.0, -462.43114972114563, -602.6923576593399, -475.5955975651741, -237.91747558116913, 0.09600000455975533, -0.03200000151991844, 1.008000047877431, 0.0, 0.0, 0.0, 0.0, 0.0, 1.7063880509973464E9, 0.0, 2024-01-27 15:40:50.997
90.0, -585.2195450663567, -619.2077558636665, -450.4634698629379, -341.3182295560837, 0.09600000455975533, -0.03200000151991844, 1.008000047877431, 0.0, 0.0, 0.0, 0.0, 0.0, 1.7063880509973464E9, 0.0, 2024-01-27 15:40:50.997
91.0, -505.99350440502167, -631.1754357218742, -483.0155590772629, -324.80283135175705, 0.09600000455975533, -0.03200000151991844, 1.008000047877431, 0.0, 0.0, 0.0, 0.0, 0.0, 1.7063880509984236E9, 0.0, 2024-01-27 15:40:50.998
91.0, -441.8467403650284, -616.0961591005325, -497.3767749071121, -235.5239396095276, 0.09600000455975533, -0.03200000151991844, 1.008000047877431, 0.0, 0.0, 0.0, 0.0, 0.0, 1.7063880509984236E9, 0.0, 2024-01-27 15:40:50.998
92.0, -556.257759809494, -612.5058551430702, -454.2931274175644, -297.27716767787933, 0.11200000531971455, -0.03200000151991844, 1.008000047877431, 0.0, 0.0, 0.0, 0.0, 0.0, 1.706388050998665E9, 0.0, 2024-01-27 15:40:50.998
92.0, -538.0668864250183, -614.8993911147118, -455.01118820905685, -341.0788759589195, 0.11200000531971455, -0.03200000151991844, 1.008000047877431, 0.0, 0.0, 0.0, 0.0, 0.0, 1.706388050998665E9, 0.0, 2024-01-27 15:40:50.998
93.0, -430.357767701149, -618.7290486693382, -483.4942662715912, -235.04523241519928, 0.11200000531971455, -0.03200000151991844, 1.008000047877431, 0.0, 0.0, 0.0, 0.0, 0.0, 1.7063880509994767E9, 0.0, 2024-01-27 15:40:50.999
93.0, -524.1843777894974, -622.0799990296364, -473.920122385025, -265.92184644937515, 0.11200000531971455, -0.03200000151991844, 1.008000047877431, 0.0, 0.0, 0.0, 0.0, 0.0, 1.7063880509994767E9, 0.0, 2024-01-27 15:40:50.999
94.0, -581.3898875117302, -630.2180213332176, -464.585332095623, -363.57811409235, 0.11200000531971455, -0.03200000151991844, 1.008000047877431, 0.0, 0.0, 0.0, 0.0, 0.0, 1.7063880510101144E9, 0.0, 2024-01-27 15:40:51.010
94.0, -460.75567454099655, -630.2180213332176, -494.2651781439781, -286.9849629998207, 0.11200000531971455, -0.03200000151991844, 1.008000047877431, 0.0, 0.0, 0.0, 0.0, 0.0, 1.7063880510101144E9, 0.0, 2024-01-27 15:40:51.010
95.0, -465.54274648427963, -615.1387447118759, -483.0155590772629, -238.6355363726616, 0.11200000531971455, -0.03200000151991844, 1.008000047877431, 0.0, 0.0, 0.0, 0.0, 0.0, 1.706388051025436E9, 0.0, 2024-01-27 15:40:51.025
95.0, -589.7672634124756, -623.9948278069496, -460.27696734666824, -348.02013027668, 0.11200000531971455, -0.03200000151991844, 1.008000047877431, 0.0, 0.0, 0.0, 0.0, 0.0, 1.706388051025436E9, 0.0, 2024-01-27 15:40:51.025
96.0, -491.6322885751724, -618.2503414750099, -473.920122385025, -318.57963782548904, 0.11200000531971455, -0.03200000151991844, 1.008000047877431, 0.0, 0.0, 0.0, 0.0, 0.0, 1.7063880510411901E9, 0.0, 2024-01-27 15:40:51.041
96.0, -445.4370443224907, -618.7290486693382, -492.8290565609932, -233.8484644293785, 0.11200000531971455, -0.03200000151991844, 1.008000047877431, 0.0, 0.0, 0.0, 0.0, 0.0, 1.7063880510411901E9, 0.0, 2024-01-27 15:40:51.041
97.0, -569.1828540563583, -625.6703029870987, -465.0640392899513, -309.24484753608704, 0.11200000531971455, -0.03200000151991844, 1.008000047877431, 0.0, 0.0, 0.0, 0.0, 0.0, 1.7063880510416095E9, 0.0, 2024-01-27 15:40:51.041
97.0, -547.4016767144203, -629.4999605417252, -470.56917202472687, -351.131727039814, 0.11200000531971455, -0.03200000151991844, 1.008000047877431, 0.0, 0.0, 0.0, 0.0, 0.0, 1.7063880510416095E9, 0.0, 2024-01-27 15:40:51.041
98.0, -432.5119500756264, -619.6864630579948, -496.18000692129135, -246.05549788475037, 0.11200000531971455, -0.03200000151991844, 1.008000047877431, 0.0, 0.0, 0.0, 0.0, 0.0, 1.7063880510553625E9, 0.0, 2024-01-27 15:40:51.055
98.0, -523.4663169980049, -624.4735350012779, -475.83495116233826, -267.59732162952423, 0.11200000531971455, -0.03200000151991844, 1.008000047877431, 0.0, 0.0, 0.0, 0.0, 0.0, 1.7063880510553625E9, 0.0, 2024-01-27 15:40:51.055
99.0, -587.1343738436699, -631.4147893190384, -461.473735332489, -361.6632853150368, 0.11200000531971455, -0.03200000151991844, 1.008000047877431, 0.0, 0.0, 0.0, 0.0, 0.0, 1.7063880510701196E9, 0.0, 2024-01-27 15:40:51.070
99.0, -468.8936968445778, -633.0902644991875, -489.2387526035309, -281.240476667881, 0.11200000531971455, -0.03200000151991844, 1.008000047877431, 0.0, 0.0, 0.0, 0.0, 0.0, 1.7063880510701196E9, 0.0, 2024-01-27 15:40:51.070
0.0, -604.8465400338173, -632.8509109020233, -463.6279177069664, -350.1743126511574, 0.11200000531971455, -0.03200000151991844, 1.008000047877431, 0.0, 0.0, 0.0, 0.0, 0.0, 1.7063880510860248E9, 0.0, 2024-01-27 15:40:51.086
0.0, -503.360614836216, -628.0638389587402, -474.1594759821892, -319.05834501981735, 0.11200000531971455, -0.03200000151991844, 1.008000047877431, 0.0, 0.0, 0.0, 0.0, 0.0, 1.7063880510860248E9, 0.0, 2024-01-27 15:40:51.086
1.0, -441.6073867678642, -616.0961591005325, -481.3400838971138, -224.9923813343048, 0.11200000531971455, -0.03200000151991844, 1.008000047877431, 0.0, 0.0, 0.0, 0.0, 0.0, 1.706388051086514E9, 0.0, 2024-01-27 15:40:51.086
1.0, -566.5499644875526, -620.4045238494873, -459.3195529580116, -303.2610076069832, 0.11200000531971455, -0.03200000151991844, 1.008000047877431, 0.0, 0.0, 0.0, 0.0, 0.0, 1.706388051086514E9, 0.0, 2024-01-27 15:40:51.086
2.0, -539.9817152023315, -621.6012918353081, -463.86727130413055, -345.3872407078743, 0.09600000455975533, -0.03200000151991844, 1.008000047877431, 0.0, 0.0, 0.0, 0.0, 0.0, 1.706388051100166E9, 0.0, 2024-01-27 15:40:51.100
2.0, -434.18742525577545, -625.1915957927704, -496.18000692129135, -244.3800227046013, 0.09600000455975533, -0.03200000151991844, 1.008000047877431, 0.0, 0.0, 0.0, 0.0, 0.0, 1.706388051100166E9, 0.0, 2024-01-27 15:40:51.100
3.0, -517.4824770689011, -613.9419767260551, -475.35624396800995, -266.40055364370346, 0.09600000455975533, -0.03200000151991844, 1.008000047877431, 0.0, 0.0, 0.0, 0.0, 0.0, 1.7063880511160347E9, 0.0, 2024-01-27 15:40:51.116
3.0, -578.038937151432, -624.2341814041138, -462.6705033183098, -366.45035725831985, 0.09600000455975533, -0.03200000151991844, 1.008000047877431, 0.0, 0.0, 0.0, 0.0, 0.0, 1.7063880511160347E9, 0.0, 2024-01-27 15:40:51.116
4.0, -456.68666338920593, -630.4573749303818, -488.28133821487427, -286.0275486111641, 0.09600000455975533, -0.03200000151991844, 1.008000047877431, 0.0, 0.0, 0.0, 0.0, 0.0, 1.7063880511164496E9, 0.0, 2024-01-27 15:40:51.116
4.0, -478.2284871339798, -621.3619382381439, -491.8716421723366, -249.40644824504852, 0.09600000455975533, -0.03200000151991844, 1.008000047877431, 0.0, 0.0, 0.0, 0.0, 0.0, 1.7063880511164496E9, 0.0, 2024-01-27 15:40:51.116
5.0, -582.3473019003868, -609.3942583799362, -455.7292490005493, -342.99370473623276, 0.09600000455975533, -0.03200000151991844, 1.008000047877431, 0.0, 0.0, 0.0, 0.0, 0.0, 1.706388051130123E9, 0.0, 2024-01-27 15:40:51.130
5.0, -500.0096644759178, -626.3883637785912, -472.4840008020401, -316.1861018538475, 0.09600000455975533, -0.03200000151991844, 1.008000047877431, 0.0, 0.0, 0.0, 0.0, 0.0, 1.706388051130123E9, 0.0, 2024-01-27 15:40:51.130
6.0, -438.25643640756607, -609.1549047827721, -489.2387526035309, -229.06139248609543, 0.09600000455975533, -0.03200000151991844, 1.008000047877431, 0.0, 0.0, 0.0, 0.0, 0.0, 1.70638805114603E9, 0.0, 2024-01-27 15:40:51.146
6.0, -543.5720191597939, -595.033042550087, -452.37829864025116, -301.82488602399826, 0.09600000455975533, -0.03200000151991844, 1.008000047877431, 0.0, 0.0, 0.0, 0.0, 0.0, 1.70638805114603E9, 0.0, 2024-01-27 15:40:51.146
7.0, -538.5455936193466, -621.6012918353081, -463.38856410980225, -341.0788759589195, 0.09600000455975533, -0.03200000151991844, 1.008000047877431, 0.0, 0.0, 0.0, 0.0, 0.0, 1.706388051146598E9, 0.0, 2024-01-27 15:40:51.146
7.0, -439.2138507962227, -628.3031925559044, -500.24901807308197, -244.61937630176544, 0.09600000455975533, -0.03200000151991844, 1.008000047877431, 0.0, 0.0, 0.0, 0.0, 0.0, 1.706388051146598E9, 0.0, 2024-01-27 15:40:51.146
8.0, -528.253388941288, -615.8568055033684, -477.51042634248734, -275.73534393310547, 0.09600000455975533, -0.03200000151991844, 1.008000047877431, 0.0, 0.0, 0.0, 0.0, 0.0, 1.7063880511767807E9, 0.0, 2024-01-27 15:40:51.176
8.0, -564.1564285159111, -615.6174519062042, -456.68666338920593, -352.5678486227989, 0.09600000455975533, -0.03200000151991844, 1.008000047877431, 0.0, 0.0, 0.0, 0.0, 0.0, 1.7063880511767807E9, 0.0, 2024-01-27 15:40:51.176
9.0, -454.53248101472855, -625.9096565842628, -487.0845702290535, -279.3256478905678, 0.09600000455975533, -0.03200000151991844, 1.008000047877431, 0.0, 0.0, 0.0, 0.0, 0.0, 1.7063880511773667E9, 0.0, 2024-01-27 15:40:51.177
9.0, -475.35624396800995, -619.2077558636665, -489.47810620069504, -241.26842594146729, 0.09600000455975533, -0.03200000151991844, 1.008000047877431, 0.0, 0.0, 0.0, 0.0, 0.0, 1.7063880511773667E9, 0.0, 2024-01-27 15:40:51.177
10.0, -591.6820921897888, -620.6438774466515, -469.3724040389061, -345.3872407078743, 0.09600000455975533, -0.03200000151991844, 0.9920000471174717, 0.0, 0.0, 0.0, 0.0, 0.0, 1.7063880511782935E9, 0.0, 2024-01-27 15:40:51.178
10.0, -504.55738282203674, -638.595397233963, -491.6322885751724, -330.3079640865326, 0.09600000455975533, -0.03200000151991844, 0.9920000471174717, 0.0, 0.0, 0.0, 0.0, 0.0, 1.7063880511782935E9, 0.0, 2024-01-27 15:40:51.178
11.0, -456.68666338920593, -629.0212533473969, -504.07867562770844, -241.02907234430313, 0.09600000455975533, -0.03200000151991844, 0.9920000471174717, 0.0, 0.0, 0.0, 0.0, 0.0, 1.706388051190036E9, 0.0, 2024-01-27 15:40:51.190
11.0, -571.0976828336716, -623.037413418293, -465.7821000814438, -306.3726043701172, 0.09600000455975533, -0.03200000151991844, 0.9920000471174717, 0.0, 0.0, 0.0, 0.0, 0.0, 1.706388051190036E9, 0.0, 2024-01-27 15:40:51.190
12.0, -548.1197375059128, -623.5161206126213, -470.3298184275627, -342.99370473623276, 0.09600000455975533, -0.03200000151991844, 0.9920000471174717, 0.0, 0.0, 0.0, 0.0, 0.0, 1.706388051205751E9, 0.0, 2024-01-27 15:40:51.205
12.0, -447.5912266969681, -628.0638389587402, -503.1212612390518, -242.94390112161636, 0.09600000455975533, -0.03200000151991844, 0.9920000471174717, 0.0, 0.0, 0.0, 0.0, 0.0, 1.706388051205751E9, 0.0, 2024-01-27 15:40:51.205
13.0, -536.3914112448692, -630.9360821247101, -484.9303878545761, -278.36823350191116, 0.09600000455975533, -0.03200000151991844, 0.9920000471174717, 0.0, 0.0, 0.0, 0.0, 0.0, 1.7063880512064345E9, 0.0, 2024-01-27 15:40:51.206
13.0, -591.4427385926247, -637.6379828453064, -464.34597849845886, -363.81746768951416, 0.09600000455975533, -0.03200000151991844, 0.9920000471174717, 0.0, 0.0, 0.0, 0.0, 0.0, 1.7063880512064345E9, 0.0, 2024-01-27 15:40:51.206
14.0, -473.68076878786087, -642.1857011914253, -505.99350440502167, -289.37849897146225, 0.09600000455975533, -0.03200000151991844, 0.9920000471174717, 0.0, 0.0, 0.0, 0.0, 0.0, 1.7063880512203796E9, 0.0, 2024-01-27 15:40:51.220
14.0, -492.8290565609932, -624.9522421956062, -492.11099576950073, -247.9703266620636, 0.09600000455975533, -0.03200000151991844, 0.9920000471174717, 0.0, 0.0, 0.0, 0.0, 0.0, 1.7063880512203796E9, 0.0, 2024-01-27 15:40:51.220
15.0, -601.256236076355, -633.8083252906799, -461.9524425268173, -346.10530149936676, 0.09600000455975533, -0.03200000151991844, 0.9920000471174717, 0.0, 0.0, 0.0, 0.0, 0.0, 1.7063880512361925E9, 0.0, 2024-01-27 15:40:51.236
15.0, -502.6425540447235, -632.8509109020233, -479.42525511980057, -318.10093063116074, 0.09600000455975533, -0.03200000151991844, 0.9920000471174717, 0.0, 0.0, 0.0, 0.0, 0.0, 1.7063880512361925E9, 0.0, 2024-01-27 15:40:51.236
16.0, -448.78799468278885, -620.6438774466515, -497.3767749071121, -231.93363565206528, 0.09600000455975533, -0.03200000151991844, 0.9920000471174717, 0.0, 0.0, 0.0, 0.0, 0.0, 1.7063880512367108E9, 0.0, 2024-01-27 15:40:51.236
16.0, -572.7731580138206, -618.4896950721741, -462.1917961239815, -303.2610076069832, 0.09600000455975533, -0.03200000151991844, 0.9920000471174717, 0.0, 0.0, 0.0, 0.0, 0.0, 1.7063880512367108E9, 0.0, 2024-01-27 15:40:51.236
17.0, -553.8642238378525, -638.595397233963, -469.8511112332344, -339.1640471816063, 0.09600000455975533, -0.03200000151991844, 0.9920000471174717, 0.0, 0.0, 0.0, 0.0, 0.0, 1.7063880512500503E9, 0.0, 2024-01-27 15:40:51.250
17.0, -439.45320439338684, -629.4999605417252, -499.0522500872612, -241.50777953863144, 0.09600000455975533, -0.03200000151991844, 0.9920000471174717, 0.0, 0.0, 0.0, 0.0, 0.0, 1.7063880512500503E9, 0.0, 2024-01-27 15:40:51.250
18.0, -528.0140353441238, -623.5161206126213, -480.62202310562134, -275.017283141613, 0.09600000455975533, -0.03200000151991844, 0.9920000471174717, 0.0, 0.0, 0.0, 0.0, 0.0, 1.7063880512658885E9, 0.0, 2024-01-27 15:40:51.265
18.0, -574.2092795968056, -623.7554742097855, -456.68666338920593, -355.9187989830971, 0.09600000455975533, -0.03200000151991844, 0.9920000471174717, 0.0, 0.0, 0.0, 0.0, 0.0, 1.7063880512658885E9, 0.0, 2024-01-27 15:40:51.265
19.0, -457.64407777786255, -633.0902644991875, -501.6851396560669, -285.78819501399994, 0.09600000455975533, -0.03200000151991844, 0.9920000471174717, 0.0, 0.0, 0.0, 0.0, 0.0, 1.706388051266485E9, 0.0, 2024-01-27 15:40:51.266
19.0, -471.76594001054764, -607.9581367969513, -484.21232706308365, -239.83230435848236, 0.09600000455975533, -0.03200000151991844, 0.9920000471174717, 0.0, 0.0, 0.0, 0.0, 0.0, 1.706388051266485E9, 0.0, 2024-01-27 15:40:51.266
20.0, -586.8950202465057, -621.8406454324722, -463.86727130413055, -350.6530198454857, 0.09600000455975533, -0.03200000151991844, 1.008000047877431, 0.0, 0.0, 0.0, 0.0, 0.0, 1.7063880512800868E9, 0.0, 2024-01-27 15:40:51.280
20.0, -494.9832389354706, -627.5851317644119, -486.36650943756104, -321.4518809914589, 0.09600000455975533, -0.03200000151991844, 1.008000047877431, 0.0, 0.0, 0.0, 0.0, 0.0, 1.7063880512800868E9, 0.0, 2024-01-27 15:40:51.280
21.0, -455.250541806221, -628.7818997502327, -503.360614836216, -239.5929507613182, 0.09600000455975533, -0.03200000151991844, 1.008000047877431, 0.0, 0.0, 0.0, 0.0, 0.0, 1.706388051296003E9, 0.0, 2024-01-27 15:40:51.296
21.0, -573.9699259996414, -626.149010181427, -474.39882957935333, -317.8615770339966, 0.09600000455975533, -0.03200000151991844, 1.008000047877431, 0.0, 0.0, 0.0, 0.0, 0.0, 1.706388051296003E9, 0.0, 2024-01-27 15:40:51.296
22.0, -555.0609918236732, -639.3134580254555, -481.3400838971138, -359.26974934339523, 0.09600000455975533, -0.03200000151991844, 1.008000047877431, 0.0, 0.0, 0.0, 0.0, 0.0, 1.7063880512965777E9, 0.0, 2024-01-27 15:40:51.296
22.0, -457.64407777786255, -643.6218227744102, -511.25928354263306, -261.13477450609207, 0.09600000455975533, -0.03200000151991844, 1.008000047877431, 0.0, 0.0, 0.0, 0.0, 0.0, 1.7063880512965777E9, 0.0, 2024-01-27 15:40:51.296
23.0, -534.7159360647202, -625.9096565842628, -482.53685188293457, -280.2830622792244, 0.09600000455975533, -0.03200000151991844, 1.008000047877431, 0.0, 0.0, 0.0, 0.0, 0.0, 1.706388051310047E9, 0.0, 2024-01-27 15:40:51.310
23.0, -583.0653626918793, -632.6115573048592, -471.5265864133835, -364.7748820781708, 0.09600000455975533, -0.03200000151991844, 1.008000047877431, 0.0, 0.0, 0.0, 0.0, 0.0, 1.706388051310047E9, 0.0, 2024-01-27 15:40:51.310
24.0, -463.6279177069664, -633.3296180963516, -501.6851396560669, -286.0275486111641, 0.09600000455975533, -0.03200000151991844, 1.008000047877431, 0.0, 0.0, 0.0, 0.0, 0.0, 1.7063880513257916E9, 0.0, 2024-01-27 15:40:51.325
24.0, -486.84521663188934, -624.2341814041138, -497.13742130994797, -247.01291227340698, 0.09600000455975533, -0.03200000151991844, 1.008000047877431, 0.0, 0.0, 0.0, 0.0, 0.0, 1.7063880513257916E9, 0.0, 2024-01-27 15:40:51.325
25.0, -595.5117497444153, -628.5425461530685, -466.97886806726456, -353.0465558171272, 0.09600000455975533, -0.03200000151991844, 1.008000047877431, 0.0, 0.0, 0.0, 0.0, 0.0, 1.706388051326496E9, 0.0, 2024-01-27 15:40:51.326
25.0, -508.3870403766632, -635.9625076651573, -486.84521663188934, -324.32412415742874, 0.09600000455975533, -0.03200000151991844, 1.008000047877431, 0.0, 0.0, 0.0, 0.0, 0.0, 1.706388051326496E9, 0.0, 2024-01-27 15:40:51.326
26.0, -460.9950281381607, -629.0212533473969, -499.29160368442535, -233.13040363788605, 0.09600000455975533, -0.03200000151991844, 1.008000047877431, 0.0, 0.0, 0.0, 0.0, 0.0, 1.7063880513400743E9, 0.0, 2024-01-27 15:40:51.340
26.0, -571.5763900279999, -628.3031925559044, -467.696928858757, -309.72355473041534, 0.09600000455975533, -0.03200000151991844, 1.008000047877431, 0.0, 0.0, 0.0, 0.0, 0.0, 1.7063880513400743E9, 0.0, 2024-01-27 15:40:51.340
27.0, -554.5822846293449, -635.0050932765007, -471.5265864133835, -356.15815258026123, 0.09600000455975533, -0.03200000151991844, 1.008000047877431, 0.0, 0.0, 0.0, 0.0, 0.0, 1.7063880513561406E9, 0.0, 2024-01-27 15:40:51.356
27.0, -441.3680331707001, -626.3883637785912, -501.92449325323105, -252.51804500818253, 0.09600000455975533, -0.03200000151991844, 1.008000047877431, 0.0, 0.0, 0.0, 0.0, 0.0, 1.7063880513561406E9, 0.0, 2024-01-27 15:40:51.356
28.0, -528.9714497327805, -620.6438774466515, -477.98913353681564, -272.62374716997147, 0.09600000455975533, -0.03200000151991844, 1.008000047877431, 0.0, 0.0, 0.0, 0.0, 0.0, 1.7063880513566427E9, 0.0, 2024-01-27 15:40:51.356
28.0, -577.0815227627754, -628.5425461530685, -458.12278497219086, -359.74845653772354, 0.09600000455975533, -0.03200000151991844, 1.008000047877431, 0.0, 0.0, 0.0, 0.0, 0.0, 1.7063880513566427E9, 0.0, 2024-01-27 15:40:51.356
29.0, -450.94217705726624, -623.5161206126213, -477.51042634248734, -270.2302111983299, 0.09600000455975533, -0.03200000151991844, 1.008000047877431, 0.0, 0.0, 0.0, 0.0, 0.0, 1.706388051370592E9, 0.0, 2024-01-27 15:40:51.370
29.0, -483.73361986875534, -623.037413418293, -485.4090950489044, -243.42260831594467, 0.09600000455975533, -0.03200000151991844, 1.008000047877431, 0.0, 0.0, 0.0, 0.0, 0.0, 1.706388051370592E9, 0.0, 2024-01-27 15:40:51.370
30.0, -586.8950202465057, -620.1651702523232, -451.42088425159454, -334.8556824326515, 0.09600000455975533, -0.03200000151991844, 1.008000047877431, 0.0, 0.0, 0.0, 0.0, 0.0, 1.7063880513861492E9, 0.0, 2024-01-27 15:40:51.386
30.0, -495.4619461297989, -628.0638389587402, -476.0743047595024, -317.6222234368324, 0.09600000455975533, -0.03200000151991844, 1.008000047877431, 0.0, 0.0, 0.0, 0.0, 0.0, 1.7063880513861492E9, 0.0, 2024-01-27 15:40:51.386
31.0, -446.8731659054756, -618.7290486693382, -495.70129972696304, -233.8484644293785, 0.09600000455975533, -0.03200000151991844, 1.008000047877431, 0.0, 0.0, 0.0, 0.0, 0.0, 1.7063880513865955E9, 0.0, 2024-01-27 15:40:51.386
31.0, -556.9758206009865, -620.8832310438156, -465.0640392899513, -309.24484753608704, 0.09600000455975533, -0.03200000151991844, 1.008000047877431, 0.0, 0.0, 0.0, 0.0, 0.0, 1.7063880513865955E9, 0.0, 2024-01-27 15:40:51.386
32.0, -540.9391295909882, -634.0476788878441, -466.7395144701004, -344.4298263192177, 0.09600000455975533, -0.03200000151991844, 1.008000047877431, 0.0, 0.0, 0.0, 0.0, 0.0, 1.7063880514000854E9, 0.0, 2024-01-27 15:40:51.400
32.0, -435.6235468387604, -625.6703029870987, -497.6161285042763, -245.3374370932579, 0.09600000455975533, -0.03200000151991844, 1.008000047877431, 0.0, 0.0, 0.0, 0.0, 0.0, 1.7063880514000854E9, 0.0, 2024-01-27 15:40:51.400
33.0, -522.2695490121841, -613.2239159345627, -477.7497799396515, -272.14503997564316, 0.09600000455975533, -0.03200000151991844, 1.008000047877431, 0.0, 0.0, 0.0, 0.0, 0.0, 1.7063880514158084E9, 0.0, 2024-01-27 15:40:51.415
33.0, -574.4486331939697, -623.9948278069496, -457.64407777786255, -350.89237344264984, 0.09600000455975533, -0.03200000151991844, 1.008000047877431, 0.0, 0.0, 0.0, 0.0, 0.0, 1.7063880514158084E9, 0.0, 2024-01-27 15:40:51.415
34.0, -450.4634698629379, -622.3193526268005, -488.28133821487427, -273.3418079614639, 0.09600000455975533, -0.03200000151991844, 1.008000047877431, 0.0, 0.0, 0.0, 0.0, 0.0, 1.7063880514164808E9, 0.0, 2024-01-27 15:40:51.416
34.0, -472.72335439920425, -611.7877943515778, -486.1271558403969, -248.20968025922775, 0.09600000455975533, -0.03200000151991844, 1.008000047877431, 0.0, 0.0, 0.0, 0.0, 0.0, 1.7063880514164808E9, 0.0, 2024-01-27 15:40:51.416
35.0, -583.5440698862076, -620.4045238494873, -450.94217705726624, -338.2066327929497, 0.09600000455975533, -0.03200000151991844, 1.008000047877431, 0.0, 0.0, 0.0, 0.0, 0.0, 1.7063880514299924E9, 0.0, 2024-01-27 15:40:51.429
35.0, -499.29160368442535, -632.8509109020233, -478.46784073114395, -316.6648090481758, 0.09600000455975533, -0.03200000151991844, 1.008000047877431, 0.0, 0.0, 0.0, 0.0, 0.0, 1.7063880514299924E9, 0.0, 2024-01-27 15:40:51.429
36.0, -451.6602378487587, -622.3193526268005, -498.5735428929329, -240.55036514997482, 0.09600000455975533, -0.03200000151991844, 1.008000047877431, 0.0, 0.0, 0.0, 0.0, 0.0, 1.706388051446149E9, 0.0, 2024-01-27 15:40:51.446
36.0, -573.7305724024773, -620.6438774466515, -463.1492105126381, -308.5267867445946, 0.09600000455975533, -0.03200000151991844, 1.008000047877431, 0.0, 0.0, 0.0, 0.0, 0.0, 1.706388051446149E9, 0.0, 2024-01-27 15:40:51.446
37.0, -553.3855166435242, -636.6805684566498, -472.72335439920425, -350.1743126511574, 0.09600000455975533, -0.03200000151991844, 1.008000047877431, 0.0, 0.0, 0.0, 0.0, 0.0, 1.70638805144651E9, 0.0, 2024-01-27 15:40:51.446
37.0, -444.2402763366699, -628.7818997502327, -501.92449325323105, -250.6032162308693, 0.09600000455975533, -0.03200000151991844, 1.008000047877431, 0.0, 0.0, 0.0, 0.0, 0.0, 1.70638805144651E9, 0.0, 2024-01-27 15:40:51.446
38.0, -530.8862785100937, -618.0109878778458, -476.7923655509949, -274.5385759472847, 0.09600000455975533, -0.03200000151991844, 1.008000047877431, 0.0, 0.0, 0.0, 0.0, 0.0, 1.706388051460333E9, 0.0, 2024-01-27 15:40:51.460
38.0, -579.9537659287453, -625.6703029870987, -453.57506662607193, -350.6530198454857, 0.09600000455975533, -0.03200000151991844, 1.008000047877431, 0.0, 0.0, 0.0, 0.0, 0.0, 1.706388051460333E9, 0.0, 2024-01-27 15:40:51.460
39.0, -469.8511112332344, -634.7657396793365, -488.99939900636673, -274.29922235012054, 0.09600000455975533, -0.03200000151991844, 1.008000047877431, 0.0, 0.0, 0.0, 0.0, 0.0, 1.7063880514761052E9, 0.0, 2024-01-27 15:40:51.476
39.0, -487.5632774233818, -626.149010181427, -480.8613767027855, -238.6355363726616, 0.09600000455975533, -0.03200000151991844, 1.008000047877431, 0.0, 0.0, 0.0, 0.0, 0.0, 1.7063880514761052E9, 0.0, 2024-01-27 15:40:51.476
40.0, -591.2033849954605, -622.7980598211288, -449.9847626686096, -340.83952236175537, 0.09600000455975533, -0.03200000151991844, 1.008000047877431, 0.0, 0.0, 0.0, 0.0, 0.0, 1.7063880514766774E9, 0.0, 2024-01-27 15:40:51.476
40.0, -506.2328580021858, -633.3296180963516, -478.46784073114395, -318.10093063116074, 0.09600000455975533, -0.03200000151991844, 1.008000047877431, 0.0, 0.0, 0.0, 0.0, 0.0, 1.7063880514766774E9, 0.0, 2024-01-27 15:40:51.476
41.0, -453.3357130289078, -618.7290486693382, -495.4619461297989, -229.7794532775879, 0.09600000455975533, -0.03200000151991844, 1.008000047877431, 0.0, 0.0, 0.0, 0.0, 0.0, 1.7063880514901571E9, 0.0, 2024-01-27 15:40:51.490
41.0, -575.4060475826263, -623.5161206126213, -467.45757526159286, -308.2874331474304, 0.09600000455975533, -0.03200000151991844, 1.008000047877431, 0.0, 0.0, 0.0, 0.0, 0.0, 1.7063880514901571E9, 0.0, 2024-01-27 15:40:51.490
42.0, -547.8803839087486, -631.6541429162025, -469.61175763607025, -344.908533513546, 0.09600000455975533, -0.03200000151991844, 1.008000047877431, 0.0, 0.0, 0.0, 0.0, 0.0, 1.7063880515058587E9, 0.0, 2024-01-27 15:40:51.505
42.0, -447.3518730998039, -628.5425461530685, -493.7864709496498, -239.35359716415405, 0.09600000455975533, -0.03200000151991844, 1.008000047877431, 0.0, 0.0, 0.0, 0.0, 0.0, 1.7063880515058587E9, 0.0, 2024-01-27 15:40:51.505
43.0, -534.2372288703918, -619.2077558636665, -468.65434324741364, -263.76766407489777, 0.09600000455975533, -0.03200000151991844, 1.008000047877431, 0.0, 0.0, 0.0, 0.0, 0.0, 1.7063880515065684E9, 0.0, 2024-01-27 15:40:51.506
43.0, -580.4324731230736, -622.7980598211288, -446.63381230831146, -341.55758315324783, 0.09600000455975533, -0.03200000151991844, 1.008000047877431, 0.0, 0.0, 0.0, 0.0, 0.0, 1.7063880515065684E9, 0.0, 2024-01-27 15:40:51.506
44.0, -451.6602378487587, -612.7452087402344, -481.3400838971138, -265.44313925504684, 0.09600000455975533, -0.03200000151991844, 1.008000047877431, 0.0, 0.0, 0.0, 0.0, 0.0, 1.7063880515200589E9, 0.0, 2024-01-27 15:40:51.520
44.0, -478.7071943283081, -607.2400760054588, -476.7923655509949, -232.17298924922943, 0.09600000455975533, -0.03200000151991844, 1.008000047877431, 0.0, 0.0, 0.0, 0.0, 0.0, 1.7063880515200589E9, 0.0, 2024-01-27 15:40:51.520
45.0, -590.0066170096397, -616.5748662948608, -443.7615691423416, -333.18020725250244, 0.09600000455975533, -0.03200000151991844, 1.008000047877431, 0.0, 0.0, 0.0, 0.0, 0.0, 1.7063880515357852E9, 0.0, 2024-01-27 15:40:51.535
45.0, -500.0096644759178, -621.8406454324722, -473.68076878786087, -307.09066516160965, 0.09600000455975533, -0.03200000151991844, 1.008000047877431, 0.0, 0.0, 0.0, 0.0, 0.0, 1.7063880515357852E9, 0.0, 2024-01-27 15:40:51.535
46.0, -456.2079561948776, -617.0535734891891, -483.4942662715912, -221.4020773768425, 0.09600000455975533, -0.03200000151991844, 1.008000047877431, 0.0, 0.0, 0.0, 0.0, 0.0, 1.706388051536494E9, 0.0, 2024-01-27 15:40:51.536
46.0, -571.5763900279999, -616.814219892025, -451.89959144592285, -301.1068252325058, 0.09600000455975533, -0.03200000151991844, 1.008000047877431, 0.0, 0.0, 0.0, 0.0, 0.0, 1.706388051536494E9, 0.0, 2024-01-27 15:40:51.536
47.0, -545.2474943399429, -627.5851317644119, -452.85700583457947, -328.87184250354767, 0.09600000455975533, -0.03200000151991844, 1.008000047877431, 0.0, 0.0, 0.0, 0.0, 0.0, 1.706388051550279E9, 0.0, 2024-01-27 15:40:51.550
47.0, -447.11251950263977, -621.8406454324722, -490.91422778367996, -236.72070759534836, 0.09600000455975533, -0.03200000151991844, 1.008000047877431, 0.0, 0.0, 0.0, 0.0, 0.0, 1.706388051550279E9, 0.0, 2024-01-27 15:40:51.550
48.0, -535.6733504533768, -617.7716342806816, -468.1756360530853, -262.81024968624115, 0.09600000455975533, -0.03200000151991844, 1.008000047877431, 0.0, 0.0, 0.0, 0.0, 0.0, 1.706388051566115E9, 0.0, 2024-01-27 15:40:51.566
48.0, -574.6879867911339, -623.7554742097855, -452.6176522374153, -351.84978783130646, 0.09600000455975533, -0.03200000151991844, 1.008000047877431, 0.0, 0.0, 0.0, 0.0, 0.0, 1.706388051566115E9, 0.0, 2024-01-27 15:40:51.566
49.0, -465.54274648427963, -634.7657396793365, -491.6322885751724, -274.29922235012054, 0.09600000455975533, -0.03200000151991844, 1.008000047877431, 0.0, 0.0, 0.0, 0.0, 0.0, 1.7063880515665495E9, 0.0, 2024-01-27 15:40:51.566
49.0, -490.1961669921875, -622.5587062239647, -481.10073029994965, -241.7471331357956, 0.09600000455975533, -0.03200000151991844, 1.008000047877431, 0.0, 0.0, 0.0, 0.0, 0.0, 1.7063880515665495E9, 0.0, 2024-01-27 15:40:51.566
50.0, -590.9640313982964, -618.0109878778458, -448.0699338912964, -341.0788759589195, 0.09600000455975533, -0.03200000151991844, 1.008000047877431, 0.0, 0.0, 0.0, 0.0, 0.0, 1.7063880515802617E9, 0.0, 2024-01-27 15:40:51.580
50.0, -488.5206918120384, -618.4896950721741, -464.585332095623, -299.4313500523567, 0.09600000455975533, -0.03200000151991844, 1.008000047877431, 0.0, 0.0, 0.0, 0.0, 0.0, 1.7063880515802617E9, 0.0, 2024-01-27 15:40:51.580
51.0, -450.2241162657738, -618.2503414750099, -483.73361986875534, -229.06139248609543, 0.09600000455975533, -0.03200000151991844, 1.008000047877431, 0.0, 0.0, 0.0, 0.0, 0.0, 1.706388051596236E9, 0.0, 2024-01-27 15:40:51.596
51.0, -570.140268445015, -614.8993911147118, -452.85700583457947, -301.5855324268341, 0.09600000455975533, -0.03200000151991844, 1.008000047877431, 0.0, 0.0, 0.0, 0.0, 0.0, 1.706388051596236E9, 0.0, 2024-01-27 15:40:51.596
52.0, -553.14616304636, -622.7980598211288, -461.9524425268173, -336.0524504184723, 0.09600000455975533, -0.03200000151991844, 1.008000047877431, 0.0, 0.0, 0.0, 0.0, 0.0, 1.7063880515966876E9, 0.0, 2024-01-27 15:40:51.596
52.0, -444.4796299338341, -622.5587062239647, -483.9729734659195, -230.97622126340866, 0.09600000455975533, -0.03200000151991844, 1.008000047877431, 0.0, 0.0, 0.0, 0.0, 0.0, 1.7063880515966876E9, 0.0, 2024-01-27 15:40:51.596
53.0, -522.5089026093483, -608.4368439912796, -455.01118820905685, -258.74123853445053, 0.09600000455975533, -0.03200000151991844, 1.008000047877431, 0.0, 0.0, 0.0, 0.0, 0.0, 1.7063880516103077E9, 0.0, 2024-01-27 15:40:51.610
53.0, -568.4647932648659, -614.1813303232193, -441.1286795735359, -338.92469358444214, 0.09600000455975533, -0.03200000151991844, 1.008000047877431, 0.0, 0.0, 0.0, 0.0, 0.0, 1.7063880516103077E9, 0.0, 2024-01-27 15:40:51.610
54.0, -448.30928748846054, -616.0961591005325, -477.98913353681564, -260.65606731176376, 0.09600000455975533, -0.03200000151991844, 1.008000047877431, 0.0, 0.0, 0.0, 0.0, 0.0, 1.7063880516258292E9, 0.0, 2024-01-27 15:40:51.625
54.0, -481.3400838971138, -612.0271479487419, -468.65434324741364, -230.7368676662445, 0.09600000455975533, -0.03200000151991844, 1.008000047877431, 0.0, 0.0, 0.0, 0.0, 0.0, 1.7063880516258292E9, 0.0, 2024-01-27 15:40:51.625
55.0, -593.3575673699379, -623.9948278069496, -447.11251950263977, -340.36081516742706, 0.09600000455975533, -0.03200000151991844, 1.008000047877431, 0.0, 0.0, 0.0, 0.0, 0.0, 1.706388051626496E9, 0.0, 2024-01-27 15:40:51.626
55.0, -502.40320044755936, -628.5425461530685, -474.39882957935333, -307.56937235593796, 0.09600000455975533, -0.03200000151991844, 1.008000047877431, 0.0, 0.0, 0.0, 0.0, 0.0, 1.706388051626496E9, 0.0, 2024-01-27 15:40:51.626
56.0, -452.37829864025116, -612.7452087402344, -482.2974982857704, -221.8807845711708, 0.09600000455975533, -0.03200000151991844, 1.008000047877431, 0.0, 0.0, 0.0, 0.0, 0.0, 1.7063880516401198E9, 0.0, 2024-01-27 15:40:51.640
56.0, -573.7305724024773, -614.6600375175476, -459.3195529580116, -306.8513115644455, 0.09600000455975533, -0.03200000151991844, 1.008000047877431, 0.0, 0.0, 0.0, 0.0, 0.0, 1.7063880516401198E9, 0.0, 2024-01-27 15:40:51.640
57.0, -546.922969520092, -624.4735350012779, -460.5163209438324, -336.29180401563644, 0.09600000455975533, -0.03200000151991844, 1.008000047877431, 0.0, 0.0, 0.0, 0.0, 0.0, 1.706388051655772E9, 0.0, 2024-01-27 15:40:51.655
57.0, -438.25643640756607, -623.7554742097855, -492.3503493666649, -231.45492845773697, 0.09600000455975533, -0.03200000151991844, 1.008000047877431, 0.0, 0.0, 0.0, 0.0, 0.0, 1.706388051655772E9, 0.0, 2024-01-27 15:40:51.655
58.0, -527.5353281497955, -609.3942583799362, -466.2608072757721, -261.6134817004204, 0.09600000455975533, -0.03200000151991844, 1.008000047877431, 0.0, 0.0, 0.0, 0.0, 0.0, 1.706388051656522E9, 0.0, 2024-01-27 15:40:51.656
58.0, -573.9699259996414, -621.8406454324722, -453.57506662607193, -344.66917991638184, 0.09600000455975533, -0.03200000151991844, 1.008000047877431, 0.0, 0.0, 0.0, 0.0, 0.0, 1.706388051656522E9, 0.0, 2024-01-27 15:40:51.656
59.0, -464.34597849845886, -634.0476788878441, -486.84521663188934, -267.3579680323601, 0.09600000455975533, -0.03200000151991844, 1.008000047877431, 0.0, 0.0, 0.0, 0.0, 0.0, 1.7063880516703646E9, 0.0, 2024-01-27 15:40:51.670
59.0, -481.10073029994965, -610.3516727685928, -478.2284871339798, -234.32717162370682, 0.09600000455975533, -0.03200000151991844, 1.008000047877431, 0.0, 0.0, 0.0, 0.0, 0.0, 1.7063880516703646E9, 0.0, 2024-01-27 15:40:51.670
60.0, -584.0227770805359, -611.3090871572495, -446.8731659054756, -333.4195608496666, 0.09600000455975533, -0.03200000151991844, 1.0240000486373901, 0.0, 0.0, 0.0, 0.0, 0.0, 1.70638805168605E9, 0.0, 2024-01-27 15:40:51.686
60.0, -484.9303878545761, -613.702623128891, -467.2182216644287, -298.71328926086426, 0.09600000455975533, -0.03200000151991844, 1.0240000486373901, 0.0, 0.0, 0.0, 0.0, 0.0, 1.70638805168605E9, 0.0, 2024-01-27 15:40:51.686
61.0, -455.48989540338516, -616.0961591005325, -486.36650943756104, -224.5136741399765, 0.09600000455975533, -0.01600000075995922, 1.0240000486373901, 0.0, 0.0, 0.0, 0.0, 0.0, 1.7063880516865587E9, 0.0, 2024-01-27 15:40:51.686
61.0, -571.0976828336716, -620.1651702523232, -456.4473097920418, -305.41518998146057, 0.09600000455975533, -0.01600000075995922, 1.0240000486373901, 0.0, 0.0, 0.0, 0.0, 0.0, 1.7063880516865587E9, 0.0, 2024-01-27 15:40:51.686
62.0, -552.9068094491959, -637.8773364424706, -472.72335439920425, -347.30206948518753, 0.09600000455975533, -0.01600000075995922, 1.0240000486373901, 0.0, 0.0, 0.0, 0.0, 0.0, 1.7063880517003343E9, 0.0, 2024-01-27 15:40:51.700
62.0, -454.7718346118927, -636.2018612623215, -505.51479721069336, -254.6722273826599, 0.09600000455975533, -0.01600000075995922, 1.0240000486373901, 0.0, 0.0, 0.0, 0.0, 0.0, 1.7063880517003343E9, 0.0, 2024-01-27 15:40:51.700
63.0, -541.1784831881523, -624.7128885984421, -477.031719148159, -280.7617694735527, 0.09600000455975533, -0.01600000075995922, 1.0240000486373901, 0.0, 0.0, 0.0, 0.0, 0.0, 1.7063880517322378E9, 0.0, 2024-01-27 15:40:51.732
63.0, -583.0653626918793, -629.7393141388893, -460.5163209438324, -359.26974934339523, 0.09600000455975533, -0.01600000075995922, 1.0240000486373901, 0.0, 0.0, 0.0, 0.0, 0.0, 1.7063880517322378E9, 0.0, 2024-01-27 15:40:51.732
64.0, -459.3195529580116, -632.8509109020233, -496.65871411561966, -284.8307806253433, 0.09600000455975533, -0.01600000075995922, 1.0240000486373901, 0.0, 0.0, 0.0, 0.0, 0.0, 1.706388051732942E9, 0.0, 2024-01-27 15:40:51.732
64.0, -489.2387526035309, -617.7716342806816, -484.21232706308365, -244.14066910743713, 0.09600000455975533, -0.01600000075995922, 1.0240000486373901, 0.0, 0.0, 0.0, 0.0, 0.0, 1.706388051732942E9, 0.0, 2024-01-27 15:40:51.732
65.0, -594.7936889529228, -622.7980598211288, -462.90985691547394, -348.4988374710083, 0.09600000455975533, -0.01600000075995922, 1.0240000486373901, 0.0, 0.0, 0.0, 0.0, 0.0, 1.7063880517338204E9, 0.0, 2024-01-27 15:40:51.733
65.0, -495.4619461297989, -624.2341814041138, -475.5955975651741, -312.35644429922104, 0.09600000455975533, -0.01600000075995922, 1.0240000486373901, 0.0, 0.0, 0.0, 0.0, 0.0, 1.7063880517338204E9, 0.0, 2024-01-27 15:40:51.733
66.0, -450.7028234601021, -614.4206839203835, -488.0419846177101, -228.1039780974388, 0.09600000455975533, -0.01600000075995922, 1.0240000486373901, 0.0, 0.0, 0.0, 0.0, 0.0, 1.706388051734429E9, 0.0, 2024-01-27 15:40:51.734
