%OpenBCI Raw EXG Data
%Number of channels = 4
%Sample Rate = 200 Hz
%Board = OpenBCI_GUI$BoardGanglionBLE
Sample Index, EXG Channel 0, EXG Channel 1, EXG Channel 2, EXG Channel 3, Accel Channel 0, Accel Channel 1, Accel Channel 2, Other, Other, Other, Other, Other, Timestamp, Other, Timestamp (Formatted)
49.0, -432.9906572699547, -351.131727039814, -269.7515040040016, -222.83819895982742, 0.0, 0.0, 0.0, 0.0, 0.0, 0.0, 0.0, 0.0, 1.7063894862284322E9, 0.0, 2024-01-27 16:04:46.228
49.0, 0.0, 0.0, 0.0, 0.0, 0.0, 0.0, 0.0, 0.0, 0.0, 0.0, 0.0, 0.0, 1.7063894862284322E9, 0.0, 2024-01-27 16:04:46.228
0.0, -295.3623389005661, -365.2535892724991, -320.4944666028023, -126.13934570550919, 0.0, 0.0, 0.9920000471174717, 0.0, 0.0, 0.0, 0.0, 0.0, 1.7063894862722347E9, 0.0, 2024-01-27 16:04:46.272
0.0, -424.134574174881, -370.04066121578217, -296.55910688638687, -189.0893417596817, 0.0, 0.0, 0.9920000471174717, 0.0, 0.0, 0.0, 0.0, 0.0, 1.7063894862722347E9, 0.0, 2024-01-27 16:04:46.272
1.0, -400.43856805562973, -359.26974934339523, -286.9849629998207, -214.70017665624619, 0.0, -0.9920000471174717, 0.9920000471174717, 0.0, 0.0, 0.0, 0.0, 0.0, 1.7063894862868493E9, 0.0, 2024-01-27 16:04:46.286
1.0, -288.89979177713394, -375.0670867562294, -329.58990329504013, -146.72375506162643, 0.0, -0.9920000471174717, 0.9920000471174717, 0.0, 0.0, 0.0, 0.0, 0.0, 1.7063894862868493E9, 0.0, 2024-01-27 16:04:46.286
2.0, -380.3328658938408, -366.45035725831985, -305.1758363842964, -153.1863021850586, -0.9920000471174717, -0.9920000471174717, 0.9920000471174717, 0.0, 0.0, 0.0, 0.0, 0.0, 1.7063894863013153E9, 0.0, 2024-01-27 16:04:46.301
2.0, -422.21974539756775, -349.21689826250076, -270.70891839265823, -215.1788838505745, -0.9920000471174717, -0.9920000471174717, 0.9920000471174717, 0.0, 0.0, 0.0, 0.0, 0.0, 1.7063894863013153E9, 0.0, 2024-01-27 16:04:46.301
3.0, -307.8087259531021, -365.97165006399155, -306.61195796728134, -158.45208132266998, -0.9920000471174717, -0.9920000471174717, 0.9920000471174717, 0.0, 0.0, 0.0, 0.0, 0.0, 1.7063894863020136E9, 0.0, 2024-01-27 16:04:46.302
3.0, -343.47241193056107, -380.57221949100494, -321.9305881857872, -143.13345110416412, -0.9920000471174717, -0.9920000471174717, 0.9920000471174717, 0.0, 0.0, 0.0, 0.0, 0.0, 1.7063894863020136E9, 0.0, 2024-01-27 16:04:46.302
4.0, -457.8834313750267, -365.01423567533493, -281.9585374593735, -207.2802151441574, -0.9920000471174717, -0.9920000471174717, 0.9920000471174717, 0.0, 0.0, 0.0, 0.0, 0.0, 1.7063894863158245E9, 0.0, 2024-01-27 16:04:46.315
4.0, -352.0891414284706, -358.7910421490669, -291.2933277487755, -180.95131945610046, -0.9920000471174717, -0.9920000471174717, 0.9920000471174717, 0.0, 0.0, 0.0, 0.0, 0.0, 1.7063894863158245E9, 0.0, 2024-01-27 16:04:46.315
5.0, -312.35644429922104, -379.3754515051842, -329.8292568922043, -130.44771045446396, -0.9920000471174717, -0.9920000471174717, 0.9920000471174717, 0.0, 0.0, 0.0, 0.0, 0.0, 1.7063894863315067E9, 0.0, 2024-01-27 16:04:46.331
5.0, -433.9480716586113, -373.87031877040863, -293.9262173175812, -183.10550183057785, -0.9920000471174717, -0.9920000471174717, 0.9920000471174717, 0.0, 0.0, 0.0, 0.0, 0.0, 1.7063894863315067E9, 0.0, 2024-01-27 16:04:46.331
6.0, -406.66176158189774, -366.45035725831985, -284.8307806253433, -209.4343975186348, -0.9920000471174717, -0.9920000471174717, 0.9920000471174717, 0.0, 0.0, 0.0, 0.0, 0.0, 1.7063894863320808E9, 0.0, 2024-01-27 16:04:46.332
6.0, -306.3726043701172, -387.27412021160126, -332.2227928638458, -145.04827988147736, -0.9920000471174717, -0.9920000471174717, 0.9920000471174717, 0.0, 0.0, 0.0, 0.0, 0.0, 1.7063894863320808E9, 0.0, 2024-01-27 16:04:46.332
7.0, -393.01860654354095, -376.024501144886, -309.72355473041534, -159.64884930849075, -0.9920000471174717, -0.9920000471174717, 0.9920000471174717, 0.0, 0.0, 0.0, 0.0, 0.0, 1.706389486345606E9, 0.0, 2024-01-27 16:04:46.345
7.0, -453.0963594317436, -376.7425619363785, -291.7720349431038, -228.34333169460297, -0.9920000471174717, -0.9920000471174717, 0.9920000471174717, 0.0, 0.0, 0.0, 0.0, 0.0, 1.706389486345606E9, 0.0, 2024-01-27 16:04:46.345
8.0, -333.4195608496666, -385.5986450314522, -321.9305881857872, -168.2655788064003, -0.9920000471174717, -0.9920000471174717, 0.9920000471174717, 0.0, 0.0, 0.0, 0.0, 0.0, 1.7063894863614266E9, 0.0, 2024-01-27 16:04:46.361
8.0, -359.9878101348877, -395.65149611234665, -343.47241193056107, -157.73402053117752, -0.9920000471174717, -0.9920000471174717, 0.9920000471174717, 0.0, 0.0, 0.0, 0.0, 0.0, 1.7063894863614266E9, 0.0, 2024-01-27 16:04:46.361
9.0, -468.8936968445778, -384.8805842399597, -303.7397148013115, -229.06139248609543, -0.9920000471174717, -0.9920000471174717, 0.9920000471174717, 0.0, 0.0, 0.0, 0.0, 0.0, 1.7063894863620484E9, 0.0, 2024-01-27 16:04:46.362
9.0, -365.97165006399155, -373.87031877040863, -305.6545435786247, -202.01443600654602, -0.9920000471174717, -0.9920000471174717, 0.9920000471174717, 0.0, 0.0, 0.0, 0.0, 0.0, 1.7063894863620484E9, 0.0, 2024-01-27 16:04:46.362
10.0, -311.87773710489273, -381.7689874768257, -333.65891444683075, -140.97926872968674, -0.9920000471174717, -0.9920000471174717, 0.7520000357180834, 0.0, 0.0, 0.0, 0.0, 0.0, 1.7063894863756409E9, 0.0, 2024-01-27 16:04:46.375
10.0, -431.7938892841339, -366.92906445264816, -298.9526428580284, -191.00417053699493, -0.9920000471174717, -0.9920000471174717, 0.7520000357180834, 0.0, 0.0, 0.0, 0.0, 0.0, 1.7063894863756409E9, 0.0, 2024-01-27 16:04:46.375
11.0, -396.3695569038391, -357.354920566082, -286.74560940265656, -216.1362982392311, -0.9920000471174717, -0.7520000357180834, 0.7520000357180834, 0.0, 0.0, 0.0, 0.0, 0.0, 1.7063894863916142E9, 0.0, 2024-01-27 16:04:46.391
11.0, -303.02165400981903, -390.1463633775711, -335.81309682130814, -157.73402053117752, -0.9920000471174717, -0.7520000357180834, 0.7520000357180834, 0.0, 0.0, 0.0, 0.0, 0.0, 1.7063894863916142E9, 0.0, 2024-01-27 16:04:46.391
12.0, -395.8908497095108, -381.05092668533325, -320.01575940847397, -183.58420902490616, -0.7520000357180834, -0.7520000357180834, 0.7520000357180834, 0.0, 0.0, 0.0, 0.0, 0.0, 1.706389486392028E9, 0.0, 2024-01-27 16:04:46.392
12.0, -445.4370443224907, -369.08324682712555, -283.3946590423584, -237.91747558116913, -0.7520000357180834, -0.7520000357180834, 0.7520000357180834, 0.0, 0.0, 0.0, 0.0, 0.0, 1.706389486392028E9, 0.0, 2024-01-27 16:04:46.392
13.0, -311.15967631340027, -374.1096723675728, -318.10093063116074, -179.99390506744385, -0.7520000357180834, -0.7520000357180834, 0.7520000357180834, 0.0, 0.0, 0.0, 0.0, 0.0, 1.7063894864058273E9, 0.0, 2024-01-27 16:04:46.405
13.0, -349.69560545682907, -381.52963387966156, -331.50473207235336, -156.7766061425209, -0.7520000357180834, -0.7520000357180834, 0.7520000357180834, 0.0, 0.0, 0.0, 0.0, 0.0, 1.7063894864058273E9, 0.0, 2024-01-27 16:04:46.405
14.0, -464.1066249012947, -370.5193684101105, -289.6178525686264, -227.6252709031105, -0.7520000357180834, -0.7520000357180834, 0.7520000357180834, 0.0, 0.0, 0.0, 0.0, 0.0, 1.7063894864213288E9, 0.0, 2024-01-27 16:04:46.421
14.0, -361.18457812070847, -372.4341971874237, -307.09066516160965, -208.23762953281403, -0.7520000357180834, -0.7520000357180834, 0.7520000357180834, 0.0, 0.0, 0.0, 0.0, 0.0, 1.7063894864213288E9, 0.0, 2024-01-27 16:04:46.421
15.0, -326.4783065319061, -394.69408172369003, -346.3446550965309, -154.1437165737152, -0.7520000357180834, -0.7520000357180834, 0.7520000357180834, 0.0, 0.0, 0.0, 0.0, 0.0, 1.7063894864220445E9, 0.0, 2024-01-27 16:04:46.422
15.0, -439.2138507962227, -380.8115730881691, -305.1758363842964, -203.92926478385925, -0.7520000357180834, -0.7520000357180834, 0.7520000357180834, 0.0, 0.0, 0.0, 0.0, 0.0, 1.7063894864220445E9, 0.0, 2024-01-27 16:04:46.422
16.0, -408.57659035921097, -371.23742920160294, -292.49009573459625, -226.90721011161804, -0.7520000357180834, -0.7520000357180834, 0.7520000357180834, 0.0, 0.0, 0.0, 0.0, 0.0, 1.7063894864356754E9, 0.0, 2024-01-27 16:04:46.435
16.0, -311.15967631340027, -391.3431313633919, -341.55758315324783, -157.97337412834167, -0.7520000357180834, -0.7520000357180834, 0.7520000357180834, 0.0, 0.0, 0.0, 0.0, 0.0, 1.7063894864356754E9, 0.0, 2024-01-27 16:04:46.435
17.0, -413.1243087053299, -393.49731373786926, -328.1537817120552, -180.7119658589363, -0.7520000357180834, -0.7520000357180834, 0.7520000357180834, 0.0, 0.0, 0.0, 0.0, 0.0, 1.7063894864512799E9, 0.0, 2024-01-27 16:04:46.451
17.0, -451.6602378487587, -370.7587220072746, -287.463670194149, -232.41234284639359, -0.7520000357180834, -0.7520000357180834, 0.7520000357180834, 0.0, 0.0, 0.0, 0.0, 0.0, 1.7063894864512799E9, 0.0, 2024-01-27 16:04:46.451
18.0, -325.9995993375778, -384.64123064279556, -323.3667097687721, -180.233258664608, -0.7520000357180834, -0.7520000357180834, 0.7520000357180834, 0.0, 0.0, 0.0, 0.0, 0.0, 1.7063894864519608E9, 0.0, 2024-01-27 16:04:46.451
18.0, -358.07298135757446, -392.53989934921265, -341.0788759589195, -163.95721405744553, -0.7520000357180834, -0.7520000357180834, 0.7520000357180834, 0.0, 0.0, 0.0, 0.0, 0.0, 1.7063894864519608E9, 0.0, 2024-01-27 16:04:46.451
19.0, -467.9362824559212, -377.6999763250351, -300.6281180381775, -229.30074608325958, -0.7520000357180834, -0.7520000357180834, 0.7520000357180834, 0.0, 0.0, 0.0, 0.0, 0.0, 1.706389486465597E9, 0.0, 2024-01-27 16:04:46.465
19.0, -362.6206997036934, -375.5457939505577, -315.46804106235504, -212.0672870874405, -0.7520000357180834, -0.7520000357180834, 0.7520000357180834, 0.0, 0.0, 0.0, 0.0, 0.0, 1.706389486465597E9, 0.0, 2024-01-27 16:04:46.465
20.0, -323.3667097687721, -397.3269712924957, -356.63685977458954, -163.95721405744553, -0.7520000357180834, -0.7520000357180834, 0.8800000417977571, 0.0, 0.0, 0.0, 0.0, 0.0, 1.7063894864813468E9, 0.0, 2024-01-27 16:04:46.481
20.0, -447.11251950263977, -386.31670582294464, -317.6222234368324, -213.98211586475372, -0.7520000357180834, -0.7520000357180834, 0.8800000417977571, 0.0, 0.0, 0.0, 0.0, 0.0, 1.7063894864813468E9, 0.0, 2024-01-27 16:04:46.481
21.0, -403.0714576244354, -369.3226004242897, -290.575266957283, -224.9923813343048, -0.7520000357180834, -0.8800000417977571, 0.8800000417977571, 0.0, 0.0, 0.0, 0.0, 0.0, 1.706389486482056E9, 0.0, 2024-01-27 16:04:46.482
21.0, -303.7397148013115, -387.9921810030937, -340.36081516742706, -158.45208132266998, -0.7520000357180834, -0.8800000417977571, 0.8800000417977571, 0.0, 0.0, 0.0, 0.0, 0.0, 1.706389486482056E9, 0.0, 2024-01-27 16:04:46.482
22.0, -395.65149611234665, -374.34902596473694, -313.5532122850418, -172.81329715251923, -0.8800000417977571, -0.8800000417977571, 0.8800000417977571, 0.0, 0.0, 0.0, 0.0, 0.0, 1.7063894864956129E9, 0.0, 2024-01-27 16:04:46.495
22.0, -433.70871806144714, -365.7322964668274, -282.67659825086594, -232.65169644355774, -0.8800000417977571, -0.8800000417977571, 0.8800000417977571, 0.0, 0.0, 0.0, 0.0, 0.0, 1.7063894864956129E9, 0.0, 2024-01-27 16:04:46.495
23.0, -309.4842011332512, -372.4341971874237, -314.27127307653427, -173.29200434684753, -0.8800000417977571, -0.8800000417977571, 0.8800000417977571, 0.0, 0.0, 0.0, 0.0, 0.0, 1.7063894865112696E9, 0.0, 2024-01-27 16:04:46.511
23.0, -347.0627158880234, -384.64123064279556, -337.0098648071289, -158.45208132266998, -0.8800000417977571, -0.8800000417977571, 0.8800000417977571, 0.0, 0.0, 0.0, 0.0, 0.0, 1.7063894865112696E9, 0.0, 2024-01-27 16:04:46.511
24.0, -460.9950281381607, -370.9980756044388, -294.16557091474533, -232.65169644355774, -0.8800000417977571, -0.8800000417977571, 0.8800000417977571, 0.0, 0.0, 0.0, 0.0, 0.0, 1.7063894865119748E9, 0.0, 2024-01-27 16:04:46.511
24.0, -353.2859094142914, -367.6471252441406, -307.3300187587738, -203.6899111866951, -0.8800000417977571, -0.8800000417977571, 0.8800000417977571, 0.0, 0.0, 0.0, 0.0, 0.0, 1.7063894865119748E9, 0.0, 2024-01-27 16:04:46.511
25.0, -323.6060633659363, -393.2579601407051, -354.7220309972763, -160.12755650281906, -0.8800000417977571, -0.8800000417977571, 0.8800000417977571, 0.0, 0.0, 0.0, 0.0, 0.0, 1.7063894865255997E9, 0.0, 2024-01-27 16:04:46.525
25.0, -441.3680331707001, -378.41803711652756, -308.5267867445946, -213.50340867042542, -0.8800000417977571, -0.8800000417977571, 0.8800000417977571, 0.0, 0.0, 0.0, 0.0, 0.0, 1.7063894865255997E9, 0.0, 2024-01-27 16:04:46.525
26.0, -412.6456015110016, -376.98191553354263, -297.5165212750435, -231.93363565206528, -0.8800000417977571, -0.8800000417977571, 0.8800000417977571, 0.0, 0.0, 0.0, 0.0, 0.0, 1.7063894865576353E9, 0.0, 2024-01-27 16:04:46.557
26.0, -308.5267867445946, -397.3269712924957, -342.2756439447403, -164.675274848938, -0.8800000417977571, -0.8800000417977571, 0.8800000417977571, 0.0, 0.0, 0.0, 0.0, 0.0, 1.7063894865576353E9, 0.0, 2024-01-27 16:04:46.557
27.0, -408.8159439563751, -391.1037777662277, -321.9305881857872, -187.89257377386093, -0.8800000417977571, -0.8800000417977571, 0.8800000417977571, 0.0, 0.0, 0.0, 0.0, 0.0, 1.70638948655836E9, 0.0, 2024-01-27 16:04:46.558
27.0, -442.56480115652084, -368.3651860356331, -279.8043550848961, -234.56652522087097, -0.8800000417977571, -0.8800000417977571, 0.8800000417977571, 0.0, 0.0, 0.0, 0.0, 0.0, 1.70638948655836E9, 0.0, 2024-01-27 16:04:46.558
28.0, -332.70150005817413, -389.1889489889145, -325.9995993375778, -183.8235626220703, -0.8800000417977571, -0.8800000417977571, 0.8800000417977571, 0.0, 0.0, 0.0, 0.0, 0.0, 1.706389486559128E9, 0.0, 2024-01-27 16:04:46.559
28.0, -363.33876049518585, -400.6779216527939, -342.99370473623276, -169.22299319505692, -0.8800000417977571, -0.8800000417977571, 0.8800000417977571, 0.0, 0.0, 0.0, 0.0, 0.0, 1.706389486559128E9, 0.0, 2024-01-27 16:04:46.559
29.0, -446.63381230831146, -353.0465558171272, -282.67659825086594, -223.79561334848404, -0.8800000417977571, -0.8800000417977571, 0.8800000417977571, 0.0, 0.0, 0.0, 0.0, 0.0, 1.7063894865598714E9, 0.0, 2024-01-27 16:04:46.559
29.0, -350.89237344264984, -369.56195402145386, -299.19199645519257, -200.0996072292328, -0.8800000417977571, -0.8800000417977571, 0.8800000417977571, 0.0, 0.0, 0.0, 0.0, 0.0, 1.7063894865598714E9, 0.0, 2024-01-27 16:04:46.559
30.0, -313.5532122850418, -383.9231698513031, -326.238952934742, -138.1070255637169, -0.8800000417977571, -0.8800000417977571, 0.944000044837594, 0.0, 0.0, 0.0, 0.0, 0.0, 1.706389486570895E9, 0.0, 2024-01-27 16:04:46.570
30.0, -434.9054860472679, -369.3226004242897, -293.2081565260887, -191.96158492565155, -0.8800000417977571, -0.8800000417977571, 0.944000044837594, 0.0, 0.0, 0.0, 0.0, 0.0, 1.706389486570895E9, 0.0, 2024-01-27 16:04:46.570
31.0, -400.6779216527939, -360.9452245235443, -283.3946590423584, -213.0247014760971, -0.8800000417977571, -0.944000044837594, 0.944000044837594, 0.0, 0.0, 0.0, 0.0, 0.0, 1.7063894866020308E9, 0.0, 2024-01-27 16:04:46.602
31.0, -308.5267867445946, -394.69408172369003, -343.47241193056107, -161.56367808580399, -0.8800000417977571, -0.944000044837594, 0.944000044837594, 0.0, 0.0, 0.0, 0.0, 0.0, 1.7063894866020308E9, 0.0, 2024-01-27 16:04:46.602
32.0, -397.0876176953316, -383.20510905981064, -320.01575940847397, -175.68554031848907, -0.944000044837594, -0.944000044837594, 0.944000044837594, 0.0, 0.0, 0.0, 0.0, 0.0, 1.7063894866027844E9, 0.0, 2024-01-27 16:04:46.602
32.0, -433.9480716586113, -363.57811409235, -288.42108458280563, -227.86462450027466, -0.944000044837594, -0.944000044837594, 0.944000044837594, 0.0, 0.0, 0.0, 0.0, 0.0, 1.7063894866027844E9, 0.0, 2024-01-27 16:04:46.602
33.0, -309.9629083275795, -373.87031877040863, -323.84541696310043, -175.20683312416077, -0.944000044837594, -0.944000044837594, 0.944000044837594, 0.0, 0.0, 0.0, 0.0, 0.0, 1.7063894866034117E9, 0.0, 2024-01-27 16:04:46.603
33.0, -340.6001687645912, -376.5032083392143, -326.4783065319061, -150.31405901908875, -0.944000044837594, -0.944000044837594, 0.944000044837594, 0.0, 0.0, 0.0, 0.0, 0.0, 1.7063894866034117E9, 0.0, 2024-01-27 16:04:46.603
34.0, -461.71308892965317, -370.7587220072746, -289.85720616579056, -229.30074608325958, -0.944000044837594, -0.944000044837594, 0.944000044837594, 0.0, 0.0, 0.0, 0.0, 0.0, 1.7063894866322746E9, 0.0, 2024-01-27 16:04:46.632
34.0, -354.7220309972763, -376.024501144886, -309.72355473041534, -203.6899111866951, -0.944000044837594, -0.944000044837594, 0.944000044837594, 0.0, 0.0, 0.0, 0.0, 0.0, 1.7063894866322746E9, 0.0, 2024-01-27 16:04:46.632
35.0, -318.8189914226532, -394.69408172369003, -338.685339987278, -147.4418158531189, -0.944000044837594, -0.944000044837594, 0.944000044837594, 0.0, 0.0, 0.0, 0.0, 0.0, 1.7063894866329668E9, 0.0, 2024-01-27 16:04:46.632
35.0, -445.19769072532654, -378.89674431085587, -301.82488602399826, -203.92926478385925, -0.944000044837594, -0.944000044837594, 0.944000044837594, 0.0, 0.0, 0.0, 0.0, 0.0, 1.7063894866329668E9, 0.0, 2024-01-27 16:04:46.632
36.0, -412.1668943166733, -372.912904381752, -301.5855324268341, -230.01880687475204, -0.944000044837594, -0.944000044837594, 0.944000044837594, 0.0, 0.0, 0.0, 0.0, 0.0, 1.7063894866334612E9, 0.0, 2024-01-27 16:04:46.633
36.0, -307.09066516160965, -389.6676561832428, -341.0788759589195, -158.21272772550583, -0.944000044837594, -0.944000044837594, 0.944000044837594, 0.0, 0.0, 0.0, 0.0, 0.0, 1.7063894866334612E9, 0.0, 2024-01-27 16:04:46.633
37.0, -415.51784467697144, -395.65149611234665, -324.0847705602646, -181.19067305326462, -0.944000044837594, -0.944000044837594, 0.944000044837594, 0.0, 0.0, 0.0, 0.0, 0.0, 1.7063894866456103E9, 0.0, 2024-01-27 16:04:46.645
37.0, -452.138945043087, -374.82773315906525, -297.27716767787933, -241.02907234430313, -0.944000044837594, -0.944000044837594, 0.944000044837594, 0.0, 0.0, 0.0, 0.0, 0.0, 1.7063894866456103E9, 0.0, 2024-01-27 16:04:46.645
38.0, -318.57963782548904, -386.31670582294464, -327.91442811489105, -180.47261226177216, -0.944000044837594, -0.944000044837594, 0.944000044837594, 0.0, 0.0, 0.0, 0.0, 0.0, 1.706389486661256E9, 0.0, 2024-01-27 16:04:46.661
38.0, -356.15815258026123, -389.90700978040695, -342.03629034757614, -161.08497089147568, -0.944000044837594, -0.944000044837594, 0.944000044837594, 0.0, 0.0, 0.0, 0.0, 0.0, 1.706389486661256E9, 0.0, 2024-01-27 16:04:46.661
39.0, -466.97886806726456, -381.2902802824974, -306.8513115644455, -238.39618277549744, -0.944000044837594, -0.944000044837594, 0.944000044837594, 0.0, 0.0, 0.0, 0.0, 0.0, 1.7063894866619577E9, 0.0, 2024-01-27 16:04:46.661
39.0, -363.81746768951416, -375.0670867562294, -313.5532122850418, -205.36538636684418, -0.944000044837594, -0.944000044837594, 0.944000044837594, 0.0, 0.0, 0.0, 0.0, 0.0, 1.7063894866619577E9, 0.0, 2024-01-27 16:04:46.661
40.0, -318.3402842283249, -386.79541301727295, -339.6427543759346, -149.11729103326797, -0.944000044837594, -0.944000044837594, 0.9600000455975533, 0.0, 0.0, 0.0, 0.0, 0.0, 1.706389486675561E9, 0.0, 2024-01-27 16:04:46.675
40.0, -434.66613245010376, -369.3226004242897, -293.44751012325287, -195.07318168878555, -0.944000044837594, -0.944000044837594, 0.9600000455975533, 0.0, 0.0, 0.0, 0.0, 0.0, 1.706389486675561E9, 0.0, 2024-01-27 16:04:46.675
41.0, -408.09788316488266, -369.3226004242897, -290.0965597629547, -220.44466298818588, -0.944000044837594, -0.9600000455975533, 0.9600000455975533, 0.0, 0.0, 0.0, 0.0, 0.0, 1.7063894866916227E9, 0.0, 2024-01-27 16:04:46.691
41.0, -309.24484753608704, -393.49731373786926, -343.2330583333969, -160.36691009998322, -0.944000044837594, -0.9600000455975533, 0.9600000455975533, 0.0, 0.0, 0.0, 0.0, 0.0, 1.7063894866916227E9, 0.0, 2024-01-27 16:04:46.691
42.0, -408.3372367620468, -387.27412021160126, -328.6324889063835, -186.456452190876, -0.9600000455975533, -0.9600000455975533, 0.9600000455975533, 0.0, 0.0, 0.0, 0.0, 0.0, 1.7063894866920383E9, 0.0, 2024-01-27 16:04:46.692
42.0, -477.98913353681564, -401.39598244428635, -310.9203227162361, -260.17736011743546, -0.9600000455975533, -0.9600000455975533, 0.9600000455975533, 0.0, 0.0, 0.0, 0.0, 0.0, 1.7063894866920383E9, 0.0, 2024-01-27 16:04:46.692
43.0, -340.83952236175537, -407.14046877622604, -353.0465558171272, -212.0672870874405, -0.9600000455975533, -0.9600000455975533, 0.9600000455975533, 0.0, 0.0, 0.0, 0.0, 0.0, 1.7063894867057467E9, 0.0, 2024-01-27 16:04:46.705
43.0, -331.7440856695175, -371.71613639593124, -323.6060633659363, -153.6650093793869, -0.9600000455975533, -0.9600000455975533, 0.9600000455975533, 0.0, 0.0, 0.0, 0.0, 0.0, 1.7063894867057467E9, 0.0, 2024-01-27 16:04:46.705
44.0, -438.7351436018944, -358.7910421490669, -287.22431659698486, -237.43876838684082, -0.9600000455975533, -0.9600000455975533, 0.9600000455975533, 0.0, 0.0, 0.0, 0.0, 0.0, 1.7063894867212887E9, 0.0, 2024-01-27 16:04:46.721
44.0, -307.09066516160965, -333.8982680439949, -275.017283141613, -191.00417053699493, -0.9600000455975533, -0.9600000455975533, 0.9600000455975533, 0.0, 0.0, 0.0, 0.0, 0.0, 1.7063894867212887E9, 0.0, 2024-01-27 16:04:46.721
45.0, -282.9159518480301, -366.2110036611557, -333.18020725250244, -161.56367808580399, -0.9600000455975533, -0.9600000455975533, 0.9600000455975533, 0.0, 0.0, 0.0, 0.0, 0.0, 1.706389486722008E9, 0.0, 2024-01-27 16:04:46.722
45.0, -353.7646166086197, -303.97906839847565, -248.92774105072021, -175.20683312416077, -0.9600000455975533, -0.9600000455975533, 0.9600000455975533, 0.0, 0.0, 0.0, 0.0, 0.0, 1.706389486722008E9, 0.0, 2024-01-27 16:04:46.722
46.0, -325.0421849489212, -304.93648278713226, -247.9703266620636, -209.9131047129631, -0.9600000455975533, -0.9600000455975533, 0.9600000455975533, 0.0, 0.0, 0.0, 0.0, 0.0, 1.706389486735643E9, 0.0, 2024-01-27 16:04:46.735
46.0, -221.64143097400665, -329.350549697876, -299.4313500523567, -153.6650093793869, -0.9600000455975533, -0.9600000455975533, 0.9600000455975533, 0.0, 0.0, 0.0, 0.0, 0.0, 1.706389486735643E9, 0.0, 2024-01-27 16:04:46.735
47.0, -303.7397148013115, -310.68096911907196, -269.2727968096733, -160.60626369714737, -0.9600000455975533, -0.9600000455975533, 0.9600000455975533, 0.0, 0.0, 0.0, 0.0, 0.0, 1.7063894867519984E9, 0.0, 2024-01-27 16:04:46.751
47.0, -337.72792559862137, -291.2933277487755, -220.44466298818588, -209.4343975186348, -0.9600000455975533, -0.9600000455975533, 0.9600000455975533, 0.0, 0.0, 0.0, 0.0, 0.0, 1.7063894867519984E9, 0.0, 2024-01-27 16:04:46.751
48.0, -219.2478950023651, -308.5267867445946, -276.2140511274338, -166.35075002908707, -0.9600000455975533, -0.9600000455975533, 0.9600000455975533, 0.0, 0.0, 0.0, 0.0, 0.0, 1.7063894867526932E9, 0.0, 2024-01-27 16:04:46.752
48.0, -253.47545939683914, -308.7661403417587, -275.017283141613, -138.82508635520935, -0.9600000455975533, -0.9600000455975533, 0.9600000455975533, 0.0, 0.0, 0.0, 0.0, 0.0, 1.7063894867526932E9, 0.0, 2024-01-27 16:04:46.752
49.0, -357.8336277604103, -292.96880292892456, -230.01880687475204, -207.2802151441574, -0.9600000455975533, -0.9600000455975533, 0.9600000455975533, 0.0, 0.0, 0.0, 0.0, 0.0, 1.7063894867658584E9, 0.0, 2024-01-27 16:04:46.765
49.0, -261.85283529758453, -300.1494108438492, -255.15093457698822, -195.07318168878555, -0.9600000455975533, -0.9600000455975533, 0.9600000455975533, 0.0, 0.0, 0.0, 0.0, 0.0, 1.7063894867658584E9, 0.0, 2024-01-27 16:04:46.765
50.0, -225.94979572296143, -319.2976986169815, -291.7720349431038, -143.85151189565659, -0.9600000455975533, -0.9600000455975533, 0.9760000463575125, 0.0, 0.0, 0.0, 0.0, 0.0, 1.7063894867814288E9, 0.0, 2024-01-27 16:04:46.781
50.0, -359.0303957462311, -318.8189914226532, -260.8954209089279, -199.62090003490448, -0.9600000455975533, -0.9600000455975533, 0.9760000463575125, 0.0, 0.0, 0.0, 0.0, 0.0, 1.7063894867814288E9, 0.0, 2024-01-27 16:04:46.781
51.0, -314.98933386802673, -306.3726043701172, -243.18325471878052, -208.71633672714233, -0.9600000455975533, -0.9760000463575125, 0.9760000463575125, 0.0, 0.0, 0.0, 0.0, 0.0, 1.7063894867821164E9, 0.0, 2024-01-27 16:04:46.782
51.0, -211.82793349027634, -322.64864897727966, -285.5488414168358, -145.76634067296982, -0.9600000455975533, -0.9760000463575125, 0.9760000463575125, 0.0, 0.0, 0.0, 0.0, 0.0, 1.7063894867821164E9, 0.0, 2024-01-27 16:04:46.782
52.0, -327.43572092056274, -325.5208921432495, -277.88952630758286, -175.44618672132492, -0.9760000463575125, -0.9760000463575125, 0.9760000463575125, 0.0, 0.0, 0.0, 0.0, 0.0, 1.7063894868299851E9, 0.0, 2024-01-27 16:04:46.829
52.0, -376.26385474205017, -322.16994178295135, -254.91158097982407, -228.58268529176712, -0.9760000463575125, -0.9760000463575125, 0.9760000463575125, 0.0, 0.0, 0.0, 0.0, 0.0, 1.7063894868299851E9, 0.0, 2024-01-27 16:04:46.829
53.0, -246.53420507907867, -327.43572092056274, -279.56500148773193, -161.08497089147568, -0.9760000463575125, -0.9760000463575125, 0.9760000463575125, 0.0, 0.0, 0.0, 0.0, 0.0, 1.7063894868305948E9, 0.0, 2024-01-27 16:04:46.830
53.0, -289.37849897146225, -341.55758315324783, -302.0642396211624, -159.64884930849075, -0.9760000463575125, -0.9760000463575125, 0.9760000463575125, 0.0, 0.0, 0.0, 0.0, 0.0, 1.7063894868305948E9, 0.0, 2024-01-27 16:04:46.830
54.0, -395.65149611234665, -323.3667097687721, -256.10834896564484, -222.12013816833496, -0.9760000463575125, -0.9760000463575125, 0.9760000463575125, 0.0, 0.0, 0.0, 0.0, 0.0, 1.7063894868311985E9, 0.0, 2024-01-27 16:04:46.831
54.0, -293.2081565260887, -336.0524504184723, -276.6927583217621, -199.14219284057617, -0.9760000463575125, -0.9760000463575125, 0.9760000463575125, 0.0, 0.0, 0.0, 0.0, 0.0, 1.7063894868311985E9, 0.0, 2024-01-27 16:04:46.831
55.0, -263.5283104777336, -348.73819106817245, -311.3990299105644, -155.34048455953598, -0.9760000463575125, -0.9760000463575125, 0.9760000463575125, 0.0, 0.0, 0.0, 0.0, 0.0, 1.7063894868320172E9, 0.0, 2024-01-27 16:04:46.832
55.0, -385.11993783712387, -336.29180401563644, -267.8366752266884, -204.40797197818756, -0.9760000463575125, -0.9760000463575125, 0.9760000463575125, 0.0, 0.0, 0.0, 0.0, 0.0, 1.7063894868320172E9, 0.0, 2024-01-27 16:04:46.832
56.0, -347.30206948518753, -331.2653784751892, -264.2463712692261, -223.07755255699158, -0.9760000463575125, -0.9760000463575125, 0.9760000463575125, 0.0, 0.0, 0.0, 0.0, 0.0, 1.706389486841539E9, 0.0, 2024-01-27 16:04:46.841
56.0, -241.02907234430313, -348.73819106817245, -307.8087259531021, -155.10113096237183, -0.9760000463575125, -0.9760000463575125, 0.9760000463575125, 0.0, 0.0, 0.0, 0.0, 0.0, 1.706389486841539E9, 0.0, 2024-01-27 16:04:46.841
57.0, -347.30206948518753, -351.37108063697815, -298.71328926086426, -179.27584427595139, -0.9760000463575125, -0.9760000463575125, 0.9760000463575125, 0.0, 0.0, 0.0, 0.0, 0.0, 1.70638948684201E9, 0.0, 2024-01-27 16:04:46.842
57.0, -388.94959539175034, -337.9672791957855, -264.96443206071854, -237.67812198400497, -0.9760000463575125, -0.9760000463575125, 0.9760000463575125, 0.0, 0.0, 0.0, 0.0, 0.0, 1.70638948684201E9, 0.0, 2024-01-27 16:04:46.842
58.0, -260.8954209089279, -342.99370473623276, -298.9526428580284, -181.19067305326462, -0.9760000463575125, -0.9760000463575125, 0.9760000463575125, 0.0, 0.0, 0.0, 0.0, 0.0, 1.7063894868556337E9, 0.0, 2024-01-27 16:04:46.855
58.0, -304.93648278713226, -357.59427416324615, -309.9629083275795, -161.80303168296814, -0.9760000463575125, -0.9760000463575125, 0.9760000463575125, 0.0, 0.0, 0.0, 0.0, 0.0, 1.7063894868556337E9, 0.0, 2024-01-27 16:04:46.855
59.0, -411.68818712234497, -342.2756439447403, -266.40055364370346, -229.06139248609543, -0.9760000463575125, -0.9760000463575125, 0.9760000463575125, 0.0, 0.0, 0.0, 0.0, 0.0, 1.7063894868713913E9, 0.0, 2024-01-27 16:04:46.871
59.0, -309.4842011332512, -344.66917991638184, -282.67659825086594, -205.60473996400833, -0.9760000463575125, -0.9760000463575125, 0.9760000463575125, 0.0, 0.0, 0.0, 0.0, 0.0, 1.7063894868713913E9, 0.0, 2024-01-27 16:04:46.871
60.0, -282.1978910565376, -367.40777164697647, -330.7866712808609, -163.23915326595306, -0.9760000463575125, -0.9760000463575125, 0.9920000471174717, 0.0, 0.0, 0.0, 0.0, 0.0, 1.7063894868720384E9, 0.0, 2024-01-27 16:04:46.872
60.0, -385.11993783712387, -337.0098648071289, -273.3418079614639, -198.66348564624786, -0.9760000463575125, -0.9760000463575125, 0.9920000471174717, 0.0, 0.0, 0.0, 0.0, 0.0, 1.7063894868720384E9, 0.0, 2024-01-27 16:04:46.872
61.0, -356.15815258026123, -338.2066327929497, -269.99085760116577, -225.47108852863312, -0.9760000463575125, -0.9920000471174717, 0.9920000471174717, 0.0, 0.0, 0.0, 0.0, 0.0, 1.7063894868858802E9, 0.0, 2024-01-27 16:04:46.885
61.0, -255.62964177131653, -358.07298135757446, -315.46804106235504, -158.45208132266998, -0.9760000463575125, -0.9920000471174717, 0.9920000471174717, 0.0, 0.0, 0.0, 0.0, 0.0, 1.7063894868858802E9, 0.0, 2024-01-27 16:04:46.885
62.0, -356.8762133717537, -352.8072022199631, -297.9952284693718, -178.79713708162308, -0.9920000471174717, -0.9920000471174717, 0.9920000471174717, 0.0, 0.0, 0.0, 0.0, 0.0, 1.7063894869013088E9, 0.0, 2024-01-27 16:04:46.901
62.0, -390.86442416906357, -328.39313530921936, -258.5018849372864, -230.01880687475204, -0.9920000471174717, -0.9920000471174717, 0.9920000471174717, 0.0, 0.0, 0.0, 0.0, 0.0, 1.7063894869013088E9, 0.0, 2024-01-27 16:04:46.901
63.0, -274.0598687529564, -348.4988374710083, -300.38876444101334, -172.81329715251923, -0.9920000471174717, -0.9920000471174717, 0.9920000471174717, 0.0, 0.0, 0.0, 0.0, 0.0, 1.7063894869020498E9, 0.0, 2024-01-27 16:04:46.902
63.0, -304.6971291899681, -352.5678486227989, -303.7397148013115, -151.51082700490952, -0.9920000471174717, -0.9920000471174717, 0.9920000471174717, 0.0, 0.0, 0.0, 0.0, 0.0, 1.7063894869020498E9, 0.0, 2024-01-27 16:04:46.902
64.0, -406.1830543875694, -334.3769752383232, -258.74123853445053, -220.9233701825142, -0.9920000471174717, -0.9920000471174717, 0.9920000471174717, 0.0, 0.0, 0.0, 0.0, 0.0, 1.7063894869156272E9, 0.0, 2024-01-27 16:04:46.915
64.0, -304.93648278713226, -337.4885720014572, -279.0862942934036, -194.8338280916214, -0.9920000471174717, -0.9920000471174717, 0.9920000471174717, 0.0, 0.0, 0.0, 0.0, 0.0, 1.7063894869156272E9, 0.0, 2024-01-27 16:04:46.915
65.0, -279.3256478905678, -363.81746768951416, -320.4944666028023, -146.24504786729813, -0.9920000471174717, -0.9920000471174717, 0.9920000471174717, 0.0, 0.0, 0.0, 0.0, 0.0, 1.7063894869315228E9, 0.0, 2024-01-27 16:04:46.931
65.0, -406.9011151790619, -356.63685977458954, -284.11271983385086, -200.33896082639694, -0.9920000471174717, -0.9920000471174717, 0.9920000471174717, 0.0, 0.0, 0.0, 0.0, 0.0, 1.7063894869315228E9, 0.0, 2024-01-27 16:04:46.931
66.0, -373.87031877040863, -353.7646166086197, -282.1978910565376, -229.30074608325958, -0.9920000471174717, -0.9920000471174717, 0.9920000471174717, 0.0, 0.0, 0.0, 0.0, 0.0, 1.7063894869321313E9, 0.0, 2024-01-27 16:04:46.932
66.0, -276.6927583217621, -372.912904381752, -331.98343926668167, -162.28173887729645, -0.9920000471174717, -0.9920000471174717, 0.9920000471174717, 0.0, 0.0, 0.0, 0.0, 0.0, 1.7063894869321313E9, 0.0, 2024-01-27 16:04:46.932
67.0, -371.9554899930954, -365.7322964668274, -311.87773710489273, -176.40360110998154, -0.9920000471174717, -0.9920000471174717, 0.9920000471174717, 0.0, 0.0, 0.0, 0.0, 0.0, 1.706389486945934E9, 0.0, 2024-01-27 16:04:46.945
67.0, -419.58685582876205, -354.48267740011215, -276.2140511274338, -233.8484644293785, -0.9920000471174717, -0.9920000471174717, 0.9920000471174717, 0.0, 0.0, 0.0, 0.0, 0.0, 1.706389486945934E9, 0.0, 2024-01-27 16:04:46.945
68.0, -293.686863720417, -364.7748820781708, -313.0745050907135, -174.4887723326683, -0.9920000471174717, -0.9920000471174717, 0.9920000471174717, 0.0, 0.0, 0.0, 0.0, 0.0, 1.706389486961334E9, 0.0, 2024-01-27 16:04:46.961
68.0, -326.4783065319061, -371.23742920160294, -320.01575940847397, -157.73402053117752, -0.9920000471174717, -0.9920000471174717, 0.9920000471174717, 0.0, 0.0, 0.0, 0.0, 0.0, 1.706389486961334E9, 0.0, 2024-01-27 16:04:46.961
69.0, -428.6822925209999, -349.9349590539932, -274.77792954444885, -223.31690615415573, -0.9920000471174717, -0.9920000471174717, 0.9920000471174717, 0.0, 0.0, 0.0, 0.0, 0.0, 1.7063894869621804E9, 0.0, 2024-01-27 16:04:46.962
69.0, -327.6750745177269, -353.0465558171272, -288.1817309856415, -193.63706010580063, -0.9920000471174717, -0.9920000471174717, 0.9920000471174717, 0.0, 0.0, 0.0, 0.0, 0.0, 1.7063894869621804E9, 0.0, 2024-01-27 16:04:46.962
70.0, -292.01138854026794, -375.0670867562294, -334.13762164115906, -155.57983815670013, -0.9920000471174717, -0.9920000471174717, 0.9920000471174717, 0.0, 0.0, 0.0, 0.0, 0.0, 1.7063894869756236E9, 0.0, 2024-01-27 16:04:46.975
70.0, -414.5604302883148, -358.55168855190277, -290.8146205544472, -204.88667917251587, -0.9920000471174717, -0.9920000471174717, 0.9920000471174717, 0.0, 0.0, 0.0, 0.0, 0.0, 1.7063894869756236E9, 0.0, 2024-01-27 16:04:46.975
71.0, -377.2212691307068, -352.32849502563477, -280.2830622792244, -216.61500543355942, -0.9920000471174717, -0.9920000471174717, 0.9920000471174717, 0.0, 0.0, 0.0, 0.0, 0.0, 1.706389486991366E9, 0.0, 2024-01-27 16:04:46.991
71.0, -272.3843935728073, -369.3226004242897, -327.91442811489105, -157.01595973968506, -0.9920000471174717, -0.9920000471174717, 0.9920000471174717, 0.0, 0.0, 0.0, 0.0, 0.0, 1.706389486991366E9, 0.0, 2024-01-27 16:04:46.991
72.0, -379.8541586995125, -369.801307618618, -312.35644429922104, -181.19067305326462, -0.9920000471174717, -0.9920000471174717, 0.9920000471174717, 0.0, 0.0, 0.0, 0.0, 0.0, 1.7063894869920027E9, 0.0, 2024-01-27 16:04:46.992
72.0, -415.7571982741356, -351.131727039814, -269.2727968096733, -229.30074608325958, -0.9920000471174717, -0.9920000471174717, 0.9920000471174717, 0.0, 0.0, 0.0, 0.0, 0.0, 1.7063894869920027E9, 0.0, 2024-01-27 16:04:46.992
73.0, -284.8307806253433, -361.6632853150368, -312.5957978963852, -176.88230830430984, -0.9920000471174717, -0.9920000471174717, 0.9920000471174717, 0.0, 0.0, 0.0, 0.0, 0.0, 1.7063894870062523E9, 0.0, 2024-01-27 16:04:47.006
73.0, -338.685339987278, -378.6573907136917, -329.1111961007118, -165.87204283475876, -0.9920000471174717, -0.9920000471174717, 0.9920000471174717, 0.0, 0.0, 0.0, 0.0, 0.0, 1.7063894870062523E9, 0.0, 2024-01-27 16:04:47.006
74.0, -440.1712651848793, -354.243323802948, -279.0862942934036, -231.45492845773697, -0.9920000471174717, -0.9920000471174717, 0.9920000471174717, 0.0, 0.0, 0.0, 0.0, 0.0, 1.70638948702138E9, 0.0, 2024-01-27 16:04:47.021
74.0, -333.65891444683075, -356.63685977458954, -304.6971291899681, -205.12603276968002, -0.9920000471174717, -0.9920000471174717, 0.9920000471174717, 0.0, 0.0, 0.0, 0.0, 0.0, 1.70638948702138E9, 0.0, 2024-01-27 16:04:47.021
75.0, -291.2933277487755, -365.97165006399155, -328.6324889063835, -146.48440146446228, -0.9920000471174717, -0.9920000471174717, 0.9920000471174717, 0.0, 0.0, 0.0, 0.0, 0.0, 1.7063894870220227E9, 0.0, 2024-01-27 16:04:47.022
75.0, -412.40624791383743, -355.6794453859329, -290.33591336011887, -202.97185039520264, -0.9920000471174717, -0.9920000471174717, 0.9920000471174717, 0.0, 0.0, 0.0, 0.0, 0.0, 1.7063894870220227E9, 0.0, 2024-01-27 16:04:47.022
76.0, -385.5986450314522, -364.29617488384247, -289.85720616579056, -228.58268529176712, -0.9920000471174717, -0.9920000471174717, 0.9920000471174717, 0.0, 0.0, 0.0, 0.0, 0.0, 1.7063894870358162E9, 0.0, 2024-01-27 16:04:47.035
76.0, -292.7294493317604, -386.79541301727295, -339.1640471816063, -164.19656765460968, -0.9920000471174717, -0.9920000471174717, 0.9920000471174717, 0.0, 0.0, 0.0, 0.0, 0.0, 1.7063894870358162E9, 0.0, 2024-01-27 16:04:47.035
77.0, -401.87468963861465, -387.5134738087654, -322.4092953801155, -187.89257377386093, -0.9920000471174717, -0.9920000471174717, 0.9920000471174717, 0.0, 0.0, 0.0, 0.0, 0.0, 1.7063894870517063E9, 0.0, 2024-01-27 16:04:47.051
77.0, -432.9906572699547, -372.67355078458786, -288.89979177713394, -237.91747558116913, -0.9920000471174717, -0.9920000471174717, 0.9920000471174717, 0.0, 0.0, 0.0, 0.0, 0.0, 1.7063894870517063E9, 0.0, 2024-01-27 16:04:47.051
78.0, -305.1758363842964, -374.34902596473694, -326.238952934742, -183.8235626220703, -0.9920000471174717, -0.9920000471174717, 0.9920000471174717, 0.0, 0.0, 0.0, 0.0, 0.0, 1.7063894870520089E9, 0.0, 2024-01-27 16:04:47.052
78.0, -348.9775446653366, -385.5986450314522, -333.8982680439949, -167.786871612072, -0.9920000471174717, -0.9920000471174717, 0.9920000471174717, 0.0, 0.0, 0.0, 0.0, 0.0, 1.7063894870520089E9, 0.0, 2024-01-27 16:04:47.052
79.0, -436.34160763025284, -355.9187989830971, -281.00112307071686, -222.35949176549911, -0.9920000471174717, -0.9920000471174717, 0.9920000471174717, 0.0, 0.0, 0.0, 0.0, 0.0, 1.7063894870655904E9, 0.0, 2024-01-27 16:04:47.065
79.0, -337.24921840429306, -362.1419925093651, -296.798460483551, -193.15835291147232, -0.9920000471174717, -0.9920000471174717, 0.9920000471174717, 0.0, 0.0, 0.0, 0.0, 0.0, 1.7063894870655904E9, 0.0, 2024-01-27 16:04:47.065
80.0, -309.9629083275795, -383.4444626569748, -337.4885720014572, -150.79276621341705, -0.9920000471174717, -0.9920000471174717, 0.9920000471174717, 0.0, 0.0, 0.0, 0.0, 0.0, 1.706389487081349E9, 0.0, 2024-01-27 16:04:47.081
80.0, -416.47525906562805, -360.22716373205185, -291.53268134593964, -202.49314320087433, -0.9920000471174717, -0.9920000471174717, 0.9920000471174717, 0.0, 0.0, 0.0, 0.0, 0.0, 1.706389487081349E9, 0.0, 2024-01-27 16:04:47.081
81.0, -380.09351229667664, -357.59427416324615, -282.1978910565376, -216.61500543355942, -0.9920000471174717, -0.9920000471174717, 0.9920000471174717, 0.0, 0.0, 0.0, 0.0, 0.0, 1.7063894870820792E9, 0.0, 2024-01-27 16:04:47.082
81.0, -275.017283141613, -371.23742920160294, -328.39313530921936, -152.94694858789444, -0.9920000471174717, -0.9920000471174717, 0.9920000471174717, 0.0, 0.0, 0.0, 0.0, 0.0, 1.7063894870820792E9, 0.0, 2024-01-27 16:04:47.082
82.0, -387.5134738087654, -371.71613639593124, -310.9203227162361, -179.27584427595139, -0.9920000471174717, -0.9920000471174717, 0.9920000471174717, 0.0, 0.0, 0.0, 0.0, 0.0, 1.7063894870961473E9, 0.0, 2024-01-27 16:04:47.096
82.0, -425.33134216070175, -361.9026389122009, -280.04370868206024, -234.32717162370682, -0.9920000471174717, -0.9920000471174717, 0.9920000471174717, 0.0, 0.0, 0.0, 0.0, 0.0, 1.7063894870961473E9, 0.0, 2024-01-27 16:04:47.096
83.0, -297.27716767787933, -369.56195402145386, -315.7073946595192, -174.9674795269966, -0.9920000471174717, -0.9920000471174717, 0.9920000471174717, 0.0, 0.0, 0.0, 0.0, 0.0, 1.706389487111205E9, 0.0, 2024-01-27 16:04:47.111
83.0, -350.41366624832153, -388.470888197422, -327.43572092056274, -166.82945722341537, -0.9920000471174717, -0.9920000471174717, 0.9920000471174717, 0.0, 0.0, 0.0, 0.0, 0.0, 1.706389487111205E9, 0.0, 2024-01-27 16:04:47.111
84.0, -451.89959144592285, -368.8438932299614, -286.9849629998207, -234.56652522087097, -0.9920000471174717, -0.9920000471174717, 0.9920000471174717, 0.0, 0.0, 0.0, 0.0, 0.0, 1.7063894871263113E9, 0.0, 2024-01-27 16:04:47.126
84.0, -344.908533513546, -370.7587220072746, -305.8938971757889, -203.6899111866951, -0.9920000471174717, -0.9920000471174717, 0.9920000471174717, 0.0, 0.0, 0.0, 0.0, 0.0, 1.7063894871263113E9, 0.0, 2024-01-27 16:04:47.126
85.0, -307.8087259531021, -380.09351229667664, -335.3343896269798, -151.75018060207367, -0.9920000471174717, -0.9920000471174717, 0.9920000471174717, 0.0, 0.0, 0.0, 0.0, 0.0, 1.7063894871269574E9, 0.0, 2024-01-27 16:04:47.126
85.0, -429.40035331249237, -368.8438932299614, -298.23458206653595, -204.64732557535172, -0.9920000471174717, -0.9920000471174717, 0.9920000471174717, 0.0, 0.0, 0.0, 0.0, 0.0, 1.7063894871269574E9, 0.0, 2024-01-27 16:04:47.126
86.0, -393.97602093219757, -362.86005330085754, -291.2933277487755, -226.90721011161804, -0.9920000471174717, -0.9920000471174717, 0.9920000471174717, 0.0, 0.0, 0.0, 0.0, 0.0, 1.7063894871423867E9, 0.0, 2024-01-27 16:04:47.142
86.0, -289.37849897146225, -376.024501144886, -333.4195608496666, -158.45208132266998, -0.9920000471174717, -0.9920000471174717, 0.9920000471174717, 0.0, 0.0, 0.0, 0.0, 0.0, 1.7063894871423867E9, 0.0, 2024-01-27 16:04:47.142
87.0, -397.0876176953316, -384.64123064279556, -313.0745050907135, -184.54162341356277, -0.9920000471174717, -0.9920000471174717, 0.9920000471174717, 0.0, 0.0, 0.0, 0.0, 0.0, 1.706389487156342E9, 0.0, 2024-01-27 16:04:47.156
87.0, -438.4957900047302, -371.9554899930954, -277.6501727104187, -235.28458601236343, -0.9920000471174717, -0.9920000471174717, 0.9920000471174717, 0.0, 0.0, 0.0, 0.0, 0.0, 1.706389487156342E9, 0.0, 2024-01-27 16:04:47.156
88.0, -315.94674825668335, -386.31670582294464, -324.32412415742874, -181.90873384475708, -0.9920000471174717, -0.9920000471174717, 0.9920000471174717, 0.0, 0.0, 0.0, 0.0, 0.0, 1.7063894871570165E9, 0.0, 2024-01-27 16:04:47.157
88.0, -356.3975061774254, -388.2315346002579, -337.9672791957855, -172.33458995819092, -0.9920000471174717, -0.9920000471174717, 0.9920000471174717, 0.0, 0.0, 0.0, 0.0, 0.0, 1.7063894871570165E9, 0.0, 2024-01-27 16:04:47.157
89.0, -453.3357130289078, -365.49294286966324, -288.1817309856415, -235.5239396095276, -0.9920000471174717, -0.9920000471174717, 0.9920000471174717, 0.0, 0.0, 0.0, 0.0, 0.0, 1.706389487171333E9, 0.0, 2024-01-27 16:04:47.171
89.0, -344.908533513546, -364.0568212866783, -302.7823004126549, -207.2802151441574, -0.9920000471174717, -0.9920000471174717, 0.9920000471174717, 0.0, 0.0, 0.0, 0.0, 0.0, 1.706389487171333E9, 0.0, 2024-01-27 16:04:47.171
90.0, -312.1170907020569, -387.75282740592957, -339.1640471816063, -161.80303168296814, -0.9920000471174717, -0.9920000471174717, 0.9920000471174717, 0.0, 0.0, 0.0, 0.0, 0.0, 1.706389487172056E9, 0.0, 2024-01-27 16:04:47.172
90.0, -451.42088425159454, -387.0347666144371, -307.56937235593796, -221.64143097400665, -0.9920000471174717, -0.9920000471174717, 0.9920000471174717, 0.0, 0.0, 0.0, 0.0, 0.0, 1.706389487172056E9, 0.0, 2024-01-27 16:04:47.172
91.0, -399.0024464726448, -373.3916115760803, -286.0275486111641, -225.71044212579727, -0.9920000471174717, -0.9920000471174717, 0.9920000471174717, 0.0, 0.0, 0.0, 0.0, 0.0, 1.7063894871859956E9, 0.0, 2024-01-27 16:04:47.185
91.0, -296.798460483551, -386.5560594201088, -340.1214615702629, -161.80303168296814, -0.9920000471174717, -0.9920000471174717, 0.9920000471174717, 0.0, 0.0, 0.0, 0.0, 0.0, 1.7063894871859956E9, 0.0, 2024-01-27 16:04:47.185
92.0, -397.3269712924957, -375.0670867562294, -313.79256588220596, -181.43002665042877, -0.9920000471174717, -0.9920000471174717, 0.9920000471174717, 0.0, 0.0, 0.0, 0.0, 0.0, 1.7063894872013216E9, 0.0, 2024-01-27 16:04:47.201
92.0, -438.0170828104019, -365.49294286966324, -283.15530544519424, -233.8484644293785, -0.9920000471174717, -0.9920000471174717, 0.9920000471174717, 0.0, 0.0, 0.0, 0.0, 0.0, 1.7063894872013216E9, 0.0, 2024-01-27 16:04:47.201
93.0, -309.72355473041534, -381.7689874768257, -323.12735617160797, -183.8235626220703, -0.9920000471174717, -0.9920000471174717, 0.9920000471174717, 0.0, 0.0, 0.0, 0.0, 0.0, 1.706389487202025E9, 0.0, 2024-01-27 16:04:47.202
93.0, -352.5678486227989, -385.83799862861633, -334.13762164115906, -168.98363959789276, -0.9920000471174717, -0.9920000471174717, 0.9920000471174717, 0.0, 0.0, 0.0, 0.0, 0.0, 1.706389487202025E9, 0.0, 2024-01-27 16:04:47.202
94.0, -457.8834313750267, -370.5193684101105, -286.26690220832825, -235.76329320669174, -0.9920000471174717, -0.9920000471174717, 0.9920000471174717, 0.0, 0.0, 0.0, 0.0, 0.0, 1.7063894872155902E9, 0.0, 2024-01-27 16:04:47.215
94.0, -364.29617488384247, -384.64123064279556, -317.6222234368324, -219.2478950023651, -0.9920000471174717, -0.9920000471174717, 0.9920000471174717, 0.0, 0.0, 0.0, 0.0, 0.0, 1.7063894872155902E9, 0.0, 2024-01-27 16:04:47.215
95.0, -331.98343926668167, -402.83210402727127, -347.5414230823517, -163.71786046028137, -0.9920000471174717, -0.9920000471174717, 0.9920000471174717, 0.0, 0.0, 0.0, 0.0, 0.0, 1.706389487231528E9, 0.0, 2024-01-27 16:04:47.231
95.0, -451.6602378487587, -387.9921810030937, -309.0054939389229, -221.64143097400665, -0.9920000471174717, -0.9920000471174717, 0.9920000471174717, 0.0, 0.0, 0.0, 0.0, 0.0, 1.706389487231528E9, 0.0, 2024-01-27 16:04:47.231
96.0, -414.5604302883148, -385.359291434288, -307.8087259531021, -244.14066910743713, -0.9920000471174717, -0.9920000471174717, 0.9920000471174717, 0.0, 0.0, 0.0, 0.0, 0.0, 1.7063894872320535E9, 0.0, 2024-01-27 16:04:47.232
96.0, -296.3197532892227, -379.3754515051842, -329.58990329504013, -148.3992302417755, -0.9920000471174717, -0.9920000471174717, 0.9920000471174717, 0.0, 0.0, 0.0, 0.0, 0.0, 1.7063894872320535E9, 0.0, 2024-01-27 16:04:47.232
97.0, -408.57659035921097, -382.72640186548233, -318.8189914226532, -181.66938024759293, -0.9920000471174717, -0.9920000471174717, 0.9920000471174717, 0.0, 0.0, 0.0, 0.0, 0.0, 1.7063894872460637E9, 0.0, 2024-01-27 16:04:47.246
97.0, -436.1022540330887, -365.2535892724991, -283.8733662366867, -230.01880687475204, -0.9920000471174717, -0.9920000471174717, 0.9920000471174717, 0.0, 0.0, 0.0, 0.0, 0.0, 1.7063894872460637E9, 0.0, 2024-01-27 16:04:47.246
98.0, -317.3828698396683, -377.46062272787094, -325.0421849489212, -174.72812592983246, -0.9920000471174717, -0.9920000471174717, 0.9920000471174717, 0.0, 0.0, 0.0, 0.0, 0.0, 1.7063894872606382E9, 0.0, 2024-01-27 16:04:47.260
98.0, -354.7220309972763, -380.3328658938408, -327.6750745177269, -157.49466693401337, -0.9920000471174717, -0.9920000471174717, 0.9920000471174717, 0.0, 0.0, 0.0, 0.0, 0.0, 1.7063894872606382E9, 0.0, 2024-01-27 16:04:47.260
0.0, -364.5355284810066, -377.46062272787094, -301.5855324268341, -195.55188888311386, -0.9920000471174717, -0.9920000471174717, 0.9920000471174717, 0.0, 0.0, 0.0, 0.0, 0.0, 1.706389487276308E9, 0.0, 2024-01-27 16:04:47.276
0.0, -333.4195608496666, -391.1037777662277, -333.18020725250244, -144.3302190899849, -0.9920000471174717, -0.9920000471174717, 0.9920000471174717, 0.0, 0.0, 0.0, 0.0, 0.0, 1.706389487276308E9, 0.0, 2024-01-27 16:04:47.276
1.0, -455.250541806221, -380.3328658938408, -303.97906839847565, -206.08344715833664, -0.9920000471174717, -0.04800000227987766, 0.9920000471174717, 0.0, 0.0, 0.0, 0.0, 0.0, 1.7063894872770753E9, 0.0, 2024-01-27 16:04:47.277
1.0, -408.57659035921097, -370.7587220072746, -287.463670194149, -218.2904806137085, -0.9920000471174717, -0.04800000227987766, 0.9920000471174717, 0.0, 0.0, 0.0, 0.0, 0.0, 1.7063894872770753E9, 0.0, 2024-01-27 16:04:47.277
2.0, -306.61195796728134, -385.5986450314522, -335.0950360298157, -150.0747054219246, 0.09600000455975533, -0.04800000227987766, 0.9920000471174717, 0.0, 0.0, 0.0, 0.0, 0.0, 1.7063894872906656E9, 0.0, 2024-01-27 16:04:47.290
2.0, -400.91727524995804, -372.912904381752, -317.8615770339966, -170.41976118087769, 0.09600000455975533, -0.04800000227987766, 0.9920000471174717, 0.0, 0.0, 0.0, 0.0, 0.0, 1.7063894872906656E9, 0.0, 2024-01-27 16:04:47.290
3.0, -441.3680331707001, -370.04066121578217, -286.0275486111641, -233.13040363788605, 0.09600000455975533, -0.04800000227987766, 0.9920000471174717, 0.0, 0.0, 0.0, 0.0, 0.0, 1.7063894873063142E9, 0.0, 2024-01-27 16:04:47.306
3.0, -316.6648090481758, -381.2902802824974, -324.5634777545929, -171.61652916669846, 0.09600000455975533, -0.04800000227987766, 0.9920000471174717, 0.0, 0.0, 0.0, 0.0, 0.0, 1.7063894873063142E9, 0.0, 2024-01-27 16:04:47.306
4.0, -366.2110036611557, -387.5134738087654, -330.54731768369675, -155.34048455953598, 0.09600000455975533, -0.04800000227987766, 0.9920000471174717, 0.0, 0.0, 0.0, 0.0, 0.0, 1.7063894873070824E9, 0.0, 2024-01-27 16:04:47.307
4.0, -456.9260169863701, -366.2110036611557, -288.89979177713394, -223.55625975131989, 0.09600000455975533, -0.04800000227987766, 0.9920000471174717, 0.0, 0.0, 0.0, 0.0, 0.0, 1.7063894873070824E9, 0.0, 2024-01-27 16:04:47.307
5.0, -344.1904727220535, -365.7322964668274, -308.04807955026627, -197.22736406326294, 0.09600000455975533, -0.04800000227987766, 0.9920000471174717, 0.0, 0.0, 0.0, 0.0, 0.0, 1.7063894873205678E9, 0.0, 2024-01-27 16:04:47.320
5.0, -323.3667097687721, -388.2315346002579, -341.3182295560837, -151.27147340774536, 0.09600000455975533, -0.04800000227987766, 0.9920000471174717, 0.0, 0.0, 0.0, 0.0, 0.0, 1.7063894873205678E9, 0.0, 2024-01-27 16:04:47.320
6.0, -433.70871806144714, -360.22716373205185, -295.8410460948944, -199.62090003490448, 0.09600000455975533, -0.04800000227987766, 0.9920000471174717, 0.0, 0.0, 0.0, 0.0, 0.0, 1.706389487336311E9, 0.0, 2024-01-27 16:04:47.336
6.0, -389.1889489889145, -356.8762133717537, -283.15530544519424, -210.3918119072914, 0.09600000455975533, -0.04800000227987766, 0.9920000471174717, 0.0, 0.0, 0.0, 0.0, 0.0, 1.706389487336311E9, 0.0, 2024-01-27 16:04:47.336
7.0, -297.5165212750435, -380.3328658938408, -329.1111961007118, -148.15987664461136, 0.09600000455975533, -0.04800000227987766, 0.9920000471174717, 0.0, 0.0, 0.0, 0.0, 0.0, 1.7063894873370311E9, 0.0, 2024-01-27 16:04:47.337
7.0, -406.9011151790619, -381.7689874768257, -307.8087259531021, -172.57394355535507, 0.09600000455975533, -0.04800000227987766, 0.9920000471174717, 0.0, 0.0, 0.0, 0.0, 0.0, 1.7063894873370311E9, 0.0, 2024-01-27 16:04:47.337
8.0, -444.9583371281624, -369.3226004242897, -286.0275486111641, -231.93363565206528, 0.09600000455975533, -0.04800000227987766, 0.9920000471174717, 0.0, 0.0, 0.0, 0.0, 0.0, 1.7063894873836102E9, 0.0, 2024-01-27 16:04:47.383
8.0, -318.8189914226532, -382.9657554626465, -325.0421849489212, -167.54751801490784, 0.09600000455975533, -0.04800000227987766, 0.9920000471174717, 0.0, 0.0, 0.0, 0.0, 0.0, 1.7063894873836102E9, 0.0, 2024-01-27 16:04:47.383
9.0, -358.55168855190277, -390.1463633775711, -332.46214646101, -149.35664463043213, 0.09600000455975533, -0.04800000227987766, 0.9920000471174717, 0.0, 0.0, 0.0, 0.0, 0.0, 1.7063894873841863E9, 0.0, 2024-01-27 16:04:47.384
9.0, -460.27696734666824, -369.56195402145386, -290.575266957283, -223.07755255699158, 0.09600000455975533, -0.04800000227987766, 0.9920000471174717, 0.0, 0.0, 0.0, 0.0, 0.0, 1.7063894873841863E9, 0.0, 2024-01-27 16:04:47.384
10.0, -355.9187989830971, -372.4341971874237, -313.0745050907135, -198.18477845191956, 0.09600000455975533, -0.04800000227987766, 1.008000047877431, 0.0, 0.0, 0.0, 0.0, 0.0, 1.7063894873848789E9, 0.0, 2024-01-27 16:04:47.384
10.0, -334.3769752383232, -400.6779216527939, -348.02013027668, -154.38307017087936, 0.09600000455975533, -0.04800000227987766, 1.008000047877431, 0.0, 0.0, 0.0, 0.0, 0.0, 1.7063894873848789E9, 0.0, 2024-01-27 16:04:47.384
11.0, -447.83058029413223, -377.93932992219925, -301.82488602399826, -203.6899111866951, 0.09600000455975533, -0.04800000227987766, 1.008000047877431, 0.0, 0.0, 0.0, 0.0, 0.0, 1.706389487385667E9, 0.0, 2024-01-27 16:04:47.385
11.0, -395.8908497095108, -365.01423567533493, -296.55910688638687, -218.7691878080368, 0.09600000455975533, -0.04800000227987766, 1.008000047877431, 0.0, 0.0, 0.0, 0.0, 0.0, 1.706389487385667E9, 0.0, 2024-01-27 16:04:47.385
12.0, -307.8087259531021, -390.1463633775711, -343.9511191248894, -158.9307885169983, 0.09600000455975533, -0.04800000227987766, 1.008000047877431, 0.0, 0.0, 0.0, 0.0, 0.0, 1.706389487396268E9, 0.0, 2024-01-27 16:04:47.396
12.0, -406.1830543875694, -385.11993783712387, -322.64864897727966, -184.06291621923447, 0.09600000455975533, -0.04800000227987766, 1.008000047877431, 0.0, 0.0, 0.0, 0.0, 0.0, 1.706389487396268E9, 0.0, 2024-01-27 16:04:47.396
13.0, -437.0596684217453, -368.8438932299614, -288.1817309856415, -226.90721011161804, 0.09600000455975533, -0.04800000227987766, 1.008000047877431, 0.0, 0.0, 0.0, 0.0, 0.0, 1.7063894873969939E9, 0.0, 2024-01-27 16:04:47.396
13.0, -310.9203227162361, -377.46062272787094, -318.3402842283249, -169.46234679222107, 0.09600000455975533, -0.04800000227987766, 1.008000047877431, 0.0, 0.0, 0.0, 0.0, 0.0, 1.7063894873969939E9, 0.0, 2024-01-27 16:04:47.396
14.0, -358.3123349547386, -387.27412021160126, -331.2653784751892, -159.17014211416245, 0.09600000455975533, -0.04800000227987766, 1.008000047877431, 0.0, 0.0, 0.0, 0.0, 0.0, 1.7063894874108937E9, 0.0, 2024-01-27 16:04:47.410
14.0, -469.8511112332344, -375.78514754772186, -289.6178525686264, -226.42850291728973, 0.09600000455975533, -0.04800000227987766, 1.008000047877431, 0.0, 0.0, 0.0, 0.0, 0.0, 1.7063894874108937E9, 0.0, 2024-01-27 16:04:47.410
15.0, -375.5457939505577, -391.1037777662277, -321.69123458862305, -210.3918119072914, 0.09600000455975533, -0.04800000227987766, 1.008000047877431, 0.0, 0.0, 0.0, 0.0, 0.0, 1.7063894874265964E9, 0.0, 2024-01-27 16:04:47.426
15.0, -356.15815258026123, -410.73077273368835, -365.97165006399155, -170.18040758371353, 0.09600000455975533, -0.04800000227987766, 1.008000047877431, 0.0, 0.0, 0.0, 0.0, 0.0, 1.7063894874265964E9, 0.0, 2024-01-27 16:04:47.426
16.0, -442.08609396219254, -373.3916115760803, -301.34617882966995, -205.60473996400833, 0.09600000455975533, -0.04800000227987766, 1.008000047877431, 0.0, 0.0, 0.0, 0.0, 0.0, 1.7063894874270024E9, 0.0, 2024-01-27 16:04:47.427
16.0, -390.38571697473526, -365.97165006399155, -291.7720349431038, -220.68401658535004, 0.09600000455975533, -0.04800000227987766, 1.008000047877431, 0.0, 0.0, 0.0, 0.0, 0.0, 1.7063894874270024E9, 0.0, 2024-01-27 16:04:47.427
17.0, -283.15530544519424, -372.912904381752, -336.29180401563644, -158.9307885169983, 0.09600000455975533, -0.04800000227987766, 1.008000047877431, 0.0, 0.0, 0.0, 0.0, 0.0, 1.706389487440626E9, 0.0, 2024-01-27 16:04:47.440
17.0, -385.83799862861633, -371.23742920160294, -320.4944666028023, -191.7222313284874, 0.09600000455975533, -0.04800000227987766, 1.008000047877431, 0.0, 0.0, 0.0, 0.0, 0.0, 1.706389487440626E9, 0.0, 2024-01-27 16:04:47.440
18.0, -409.5340047478676, -346.8233622908592, -273.5811615586281, -235.5239396095276, 0.09600000455975533, -0.04800000227987766, 1.008000047877431, 0.0, 0.0, 0.0, 0.0, 0.0, 1.7063894874567556E9, 0.0, 2024-01-27 16:04:47.456
18.0, -292.01138854026794, -368.60453963279724, -320.73382019996643, -179.27584427595139, 0.09600000455975533, -0.04800000227987766, 1.008000047877431, 0.0, 0.0, 0.0, 0.0, 0.0, 1.7063894874567556E9, 0.0, 2024-01-27 16:04:47.456
19.0, -346.8233622908592, -376.26385474205017, -331.98343926668167, -169.22299319505692, 0.09600000455975533, -0.04800000227987766, 1.008000047877431, 0.0, 0.0, 0.0, 0.0, 0.0, 1.7063894874713013E9, 0.0, 2024-01-27 16:04:47.471
19.0, -437.5383756160736, -358.3123349547386, -282.9159518480301, -236.9600611925125, 0.09600000455975533, -0.04800000227987766, 1.008000047877431, 0.0, 0.0, 0.0, 0.0, 0.0, 1.7063894874713013E9, 0.0, 2024-01-27 16:04:47.471
20.0, -339.1640471816063, -367.6471252441406, -319.05834501981735, -218.2904806137085, 0.09600000455975533, -0.04800000227987766, 0.9920000471174717, 0.0, 0.0, 0.0, 0.0, 0.0, 1.706389487472023E9, 0.0, 2024-01-27 16:04:47.472
20.0, -317.3828698396683, -386.31670582294464, -347.30206948518753, -168.2655788064003, 0.09600000455975533, -0.04800000227987766, 0.9920000471174717, 0.0, 0.0, 0.0, 0.0, 0.0, 1.706389487472023E9, 0.0, 2024-01-27 16:04:47.472
21.0, -434.18742525577545, -373.3916115760803, -310.4416155219078, -224.75302773714066, 0.09600000455975533, -0.04800000227987766, 0.9920000471174717, 0.0, 0.0, 0.0, 0.0, 0.0, 1.7063894874865954E9, 0.0, 2024-01-27 16:04:47.486
21.0, -385.83799862861633, -362.38134610652924, -294.64427810907364, -231.69428205490112, 0.09600000455975533, -0.04800000227987766, 0.9920000471174717, 0.0, 0.0, 0.0, 0.0, 0.0, 1.7063894874865954E9, 0.0, 2024-01-27 16:04:47.486
22.0, -287.463670194149, -379.6148051023483, -341.3182295560837, -166.82945722341537, 0.09600000455975533, -0.04800000227987766, 0.9920000471174717, 0.0, 0.0, 0.0, 0.0, 0.0, 1.7063894874871216E9, 0.0, 2024-01-27 16:04:47.487
22.0, -392.06119215488434, -374.1096723675728, -316.42545545101166, -192.44029211997986, 0.09600000455975533, -0.04800000227987766, 0.9920000471174717, 0.0, 0.0, 0.0, 0.0, 0.0, 1.7063894874871216E9, 0.0, 2024-01-27 16:04:47.487
23.0, -424.134574174881, -363.33876049518585, -285.0701342225075, -244.61937630176544, 0.09600000455975533, -0.04800000227987766, 0.9920000471174717, 0.0, 0.0, 0.0, 0.0, 0.0, 1.7063894875006E9, 0.0, 2024-01-27 16:04:47.500
23.0, -297.27716767787933, -368.3651860356331, -324.5634777545929, -183.58420902490616, 0.09600000455975533, -0.04800000227987766, 0.9920000471174717, 0.0, 0.0, 0.0, 0.0, 0.0, 1.7063894875006E9, 0.0, 2024-01-27 16:04:47.500
24.0, -348.4988374710083, -375.78514754772186, -331.2653784751892, -179.7545514702797, 0.09600000455975533, -0.04800000227987766, 0.9920000471174717, 0.0, 0.0, 0.0, 0.0, 0.0, 1.7063894875163178E9, 0.0, 2024-01-27 16:04:47.516
24.0, -456.4473097920418, -368.3651860356331, -290.8146205544472, -240.78971874713898, 0.09600000455975533, -0.04800000227987766, 0.9920000471174717, 0.0, 0.0, 0.0, 0.0, 0.0, 1.7063894875163178E9, 0.0, 2024-01-27 16:04:47.516
25.0, -349.9349590539932, -375.5457939505577, -303.50036120414734, -207.2802151441574, 0.09600000455975533, -0.04800000227987766, 0.9920000471174717, 0.0, 0.0, 0.0, 0.0, 0.0, 1.7063894875169704E9, 0.0, 2024-01-27 16:04:47.516
25.0, -318.10093063116074, -386.0773522257805, -337.72792559862137, -161.80303168296814, 0.09600000455975533, -0.04800000227987766, 0.9920000471174717, 0.0, 0.0, 0.0, 0.0, 0.0, 1.7063894875169704E9, 0.0, 2024-01-27 16:04:47.516
26.0, -430.8364748954773, -369.08324682712555, -294.64427810907364, -213.26405507326126, 0.09600000455975533, -0.04800000227987766, 0.9920000471174717, 0.0, 0.0, 0.0, 0.0, 0.0, 1.7063894875308535E9, 0.0, 2024-01-27 16:04:47.530
26.0, -387.0347666144371, -363.81746768951416, -288.89979177713394, -227.6252709031105, 0.09600000455975533, -0.04800000227987766, 0.9920000471174717, 0.0, 0.0, 0.0, 0.0, 0.0, 1.7063894875308535E9, 0.0, 2024-01-27 16:04:47.530
27.0, -284.8307806253433, -382.00834107398987, -335.81309682130814, -163.71786046028137, 0.09600000455975533, -0.04800000227987766, 0.9920000471174717, 0.0, 0.0, 0.0, 0.0, 0.0, 1.7063894875467165E9, 0.0, 2024-01-27 16:04:47.546
27.0, -398.28438568115234, -376.7425619363785, -313.5532122850418, -187.89257377386093, 0.09600000455975533, -0.04800000227987766, 0.9920000471174717, 0.0, 0.0, 0.0, 0.0, 0.0, 1.7063894875467165E9, 0.0, 2024-01-27 16:04:47.546
28.0, -431.55453568696976, -367.1684180498123, -284.352073431015, -237.91747558116913, 0.09600000455975533, -0.04800000227987766, 0.9920000471174717, 0.0, 0.0, 0.0, 0.0, 0.0, 1.7063894875472577E9, 0.0, 2024-01-27 16:04:47.547
28.0, -310.9203227162361, -384.8805842399597, -322.64864897727966, -179.7545514702797, 0.09600000455975533, -0.04800000227987766, 0.9920000471174717, 0.0, 0.0, 0.0, 0.0, 0.0, 1.7063894875472577E9, 0.0, 2024-01-27 16:04:47.547
29.0, -359.74845653772354, -393.49731373786926, -335.81309682130814, -173.77071154117584, 0.09600000455975533, -0.04800000227987766, 0.9920000471174717, 0.0, 0.0, 0.0, 0.0, 0.0, 1.706389487561112E9, 0.0, 2024-01-27 16:04:47.561
29.0, -456.2079561948776, -373.3916115760803, -290.0965597629547, -246.53420507907867, 0.09600000455975533, -0.04800000227987766, 0.9920000471174717, 0.0, 0.0, 0.0, 0.0, 0.0, 1.706389487561112E9, 0.0, 2024-01-27 16:04:47.561
30.0, -344.908533513546, -373.6309651732445, -303.02165400981903, -208.9556903243065, 0.09600000455975533, -0.04800000227987766, 0.9920000471174717, 0.0, 0.0, 0.0, 0.0, 0.0, 1.706389487576396E9, 0.0, 2024-01-27 16:04:47.576
30.0, -317.6222234368324, -387.0347666144371, -341.0788759589195, -160.60626369714737, 0.09600000455975533, -0.04800000227987766, 0.9920000471174717, 0.0, 0.0, 0.0, 0.0, 0.0, 1.706389487576396E9, 0.0, 2024-01-27 16:04:47.576
31.0, -434.9054860472679, -365.49294286966324, -291.2933277487755, -213.98211586475372, 0.09600000455975533, -0.04800000227987766, 0.9920000471174717, 0.0, 0.0, 0.0, 0.0, 0.0, 1.7063894875771062E9, 0.0, 2024-01-27 16:04:47.577
31.0, -388.2315346002579, -367.40777164697647, -287.463670194149, -226.6678565144539, 0.09600000455975533, -0.04800000227987766, 0.9920000471174717, 0.0, 0.0, 0.0, 0.0, 0.0, 1.7063894875771062E9, 0.0, 2024-01-27 16:04:47.577
32.0, -286.5062558054924, -379.13609790802, -336.0524504184723, -160.12755650281906, 0.09600000455975533, -0.04800000227987766, 0.9920000471174717, 0.0, 0.0, 0.0, 0.0, 0.0, 1.7063894875906155E9, 0.0, 2024-01-27 16:04:47.590
32.0, -399.0024464726448, -374.34902596473694, -313.31385868787766, -190.76481693983078, 0.09600000455975533, -0.04800000227987766, 0.9920000471174717, 0.0, 0.0, 0.0, 0.0, 0.0, 1.7063894875906155E9, 0.0, 2024-01-27 16:04:47.590
33.0, -421.74103820323944, -356.3975061774254, -280.04370868206024, -234.80587881803513, 0.09600000455975533, -0.04800000227987766, 0.9920000471174717, 0.0, 0.0, 0.0, 0.0, 0.0, 1.7063894876065176E9, 0.0, 2024-01-27 16:04:47.606
33.0, -302.5429468154907, -370.5193684101105, -321.21252739429474, -176.16424751281738, 0.09600000455975533, -0.04800000227987766, 0.9920000471174717, 0.0, 0.0, 0.0, 0.0, 0.0, 1.7063894876065176E9, 0.0, 2024-01-27 16:04:47.606
34.0, -347.30206948518753, -373.6309651732445, -317.6222234368324, -153.42565578222275, 0.09600000455975533, -0.04800000227987766, 0.9920000471174717, 0.0, 0.0, 0.0, 0.0, 0.0, 1.7063894876071413E9, 0.0, 2024-01-27 16:04:47.607
34.0, -456.68666338920593, -366.92906445264816, -280.52241587638855, -228.34333169460297, 0.09600000455975533, -0.04800000227987766, 0.9920000471174717, 0.0, 0.0, 0.0, 0.0, 0.0, 1.7063894876071413E9, 0.0, 2024-01-27 16:04:47.607
35.0, -343.7117655277252, -362.86005330085754, -293.2081565260887, -190.04675614833832, 0.09600000455975533, -0.04800000227987766, 0.9920000471174717, 0.0, 0.0, 0.0, 0.0, 0.0, 1.706389487620686E9, 0.0, 2024-01-27 16:04:47.620
35.0, -312.83515149354935, -379.13609790802, -330.06861048936844, -148.15987664461136, 0.09600000455975533, -0.04800000227987766, 0.9920000471174717, 0.0, 0.0, 0.0, 0.0, 0.0, 1.706389487620686E9, 0.0, 2024-01-27 16:04:47.620
36.0, -435.3841932415962, -365.2535892724991, -287.22431659698486, -206.3228007555008, 0.09600000455975533, -0.04800000227987766, 0.9920000471174717, 0.0, 0.0, 0.0, 0.0, 0.0, 1.706389487636701E9, 0.0, 2024-01-27 16:04:47.636
36.0, -383.20510905981064, -353.0465558171272, -280.04370868206024, -216.1362982392311, 0.09600000455975533, -0.04800000227987766, 0.9920000471174717, 0.0, 0.0, 0.0, 0.0, 0.0, 1.706389487636701E9, 0.0, 2024-01-27 16:04:47.636
37.0, -293.686863720417, -382.9657554626465, -336.29180401563644, -155.8191917538643, 0.09600000455975533, -0.04800000227987766, 0.9920000471174717, 0.0, 0.0, 0.0, 0.0, 0.0, 1.7063894876371565E9, 0.0, 2024-01-27 16:04:47.637
37.0, -404.98628640174866, -378.41803711652756, -314.98933386802673, -186.456452190876, 0.09600000455975533, -0.04800000227987766, 0.9920000471174717, 0.0, 0.0, 0.0, 0.0, 0.0, 1.7063894876371565E9, 0.0, 2024-01-27 16:04:47.637
38.0, -428.92164611816406, -360.9452245235443, -283.63401263952255, -237.67812198400497, 0.09600000455975533, -0.04800000227987766, 0.9920000471174717, 0.0, 0.0, 0.0, 0.0, 0.0, 1.7063894876506307E9, 0.0, 2024-01-27 16:04:47.650
38.0, -299.19199645519257, -370.9980756044388, -315.7073946595192, -166.1113964319229, 0.09600000455975533, -0.04800000227987766, 0.9920000471174717, 0.0, 0.0, 0.0, 0.0, 0.0, 1.7063894876506307E9, 0.0, 2024-01-27 16:04:47.650
39.0, -354.7220309972763, -379.6148051023483, -322.64864897727966, -158.9307885169983, 0.09600000455975533, -0.04800000227987766, 0.9920000471174717, 0.0, 0.0, 0.0, 0.0, 0.0, 1.7063894876663604E9, 0.0, 2024-01-27 16:04:47.666
39.0, -456.2079561948776, -366.689710855484, -280.2830622792244, -226.18914932012558, 0.09600000455975533, -0.04800000227987766, 0.9920000471174717, 0.0, 0.0, 0.0, 0.0, 0.0, 1.7063894876663604E9, 0.0, 2024-01-27 16:04:47.666
40.0, -347.78077667951584, -374.1096723675728, -309.9629083275795, -203.45055758953094, 0.09600000455975533, -0.04800000227987766, 0.9920000471174717, 0.0, 0.0, 0.0, 0.0, 0.0, 1.706389487667074E9, 0.0, 2024-01-27 16:04:47.667
40.0, -329.58990329504013, -393.7366673350334, -349.21689826250076, -163.71786046028137, 0.09600000455975533, -0.04800000227987766, 0.9920000471174717, 0.0, 0.0, 0.0, 0.0, 0.0, 1.706389487667074E9, 0.0, 2024-01-27 16:04:47.667
41.0, -446.63381230831146, -369.08324682712555, -299.4313500523567, -213.26405507326126, 0.09600000455975533, -0.04800000227987766, 0.9920000471174717, 0.0, 0.0, 0.0, 0.0, 0.0, 1.7063894876807575E9, 0.0, 2024-01-27 16:04:47.680
41.0, -401.6353360414505, -370.9980756044388, -298.23458206653595, -226.6678565144539, 0.09600000455975533, -0.04800000227987766, 0.9920000471174717, 0.0, 0.0, 0.0, 0.0, 0.0, 1.7063894876807575E9, 0.0, 2024-01-27 16:04:47.680
42.0, -310.4416155219078, -392.7792529463768, -342.51499754190445, -159.17014211416245, 0.09600000455975533, -0.04800000227987766, 0.9920000471174717, 0.0, 0.0, 0.0, 0.0, 0.0, 1.706389487697245E9, 0.0, 2024-01-27 16:04:47.697
42.0, -415.7571982741356, -396.60891050100327, -322.64864897727966, -194.11576730012894, 0.09600000455975533, -0.04800000227987766, 0.9920000471174717, 0.0, 0.0, 0.0, 0.0, 0.0, 1.706389487697245E9, 0.0, 2024-01-27 16:04:47.697
43.0, -436.580961227417, -373.6309651732445, -288.6604381799698, -236.4813539981842, 0.09600000455975533, -0.04800000227987766, 0.9920000471174717, 0.0, 0.0, 0.0, 0.0, 0.0, 1.7063894877114663E9, 0.0, 2024-01-27 16:04:47.711
43.0, -316.6648090481758, -390.86442416906357, -336.0524504184723, -182.14808744192123, 0.09600000455975533, -0.04800000227987766, 0.9920000471174717, 0.0, 0.0, 0.0, 0.0, 0.0, 1.7063894877114663E9, 0.0, 2024-01-27 16:04:47.711
44.0, -371.23742920160294, -400.1992144584656, -346.8233622908592, -172.09523636102676, 0.09600000455975533, -0.04800000227987766, 0.9920000471174717, 0.0, 0.0, 0.0, 0.0, 0.0, 1.7063894877120805E9, 0.0, 2024-01-27 16:04:47.712
44.0, -479.42525511980057, -390.86442416906357, -317.8615770339966, -250.36386263370514, 0.09600000455975533, -0.04800000227987766, 0.9920000471174717, 0.0, 0.0, 0.0, 0.0, 0.0, 1.7063894877120805E9, 0.0, 2024-01-27 16:04:47.712
45.0, -365.7322964668274, -399.4811536669731, -326.238952934742, -216.37565183639526, 0.09600000455975533, -0.04800000227987766, 0.9920000471174717, 0.0, 0.0, 0.0, 0.0, 0.0, 1.7063894877263384E9, 0.0, 2024-01-27 16:04:47.726
45.0, -348.02013027668, -419.8262094259262, -364.5355284810066, -176.6429547071457, 0.09600000455975533, -0.04800000227987766, 0.9920000471174717, 0.0, 0.0, 0.0, 0.0, 0.0, 1.7063894877263384E9, 0.0, 2024-01-27 16:04:47.726
46.0, -469.13305044174194, -400.1992144584656, -322.4092953801155, -230.2581604719162, 0.09600000455975533, -0.04800000227987766, 0.9920000471174717, 0.0, 0.0, 0.0, 0.0, 0.0, 1.7063894877270508E9, 0.0, 2024-01-27 16:04:47.727
46.0, -421.022977411747, -401.39598244428635, -318.10093063116074, -243.90131551027298, 0.09600000455975533, -0.04800000227987766, 0.9920000471174717, 0.0, 0.0, 0.0, 0.0, 0.0, 1.7063894877270508E9, 0.0, 2024-01-27 16:04:47.727
47.0, -317.6222234368324, -410.0127119421959, -363.0994068980217, -174.24941873550415, 0.09600000455975533, -0.04800000227987766, 0.9920000471174717, 0.0, 0.0, 0.0, 0.0, 0.0, 1.7063894877405903E9, 0.0, 2024-01-27 16:04:47.740
47.0, -426.5281101465225, -407.3798223733902, -339.6427543759346, -201.0570216178894, 0.09600000455975533, -0.04800000227987766, 0.9920000471174717, 0.0, 0.0, 0.0, 0.0, 0.0, 1.7063894877405903E9, 0.0, 2024-01-27 16:04:47.740
48.0, -460.0376137495041, -394.9334353208542, -323.84541696310043, -266.1612000465393, 0.09600000455975533, -0.04800000227987766, 0.9920000471174717, 0.0, 0.0, 0.0, 0.0, 0.0, 1.7063894877565928E9, 0.0, 2024-01-27 16:04:47.756
48.0, -340.1214615702629, -414.5604302883148, -360.70587092638016, -207.04086154699326, 0.09600000455975533, -0.04800000227987766, 0.9920000471174717, 0.0, 0.0, 0.0, 0.0, 0.0, 1.7063894877565928E9, 0.0, 2024-01-27 16:04:47.756
49.0, -379.3754515051842, -415.0391374826431, -365.97165006399155, -187.89257377386093, 0.09600000455975533, -0.04800000227987766, 0.9920000471174717, 0.0, 0.0, 0.0, 0.0, 0.0, 1.7063894877570846E9, 0.0, 2024-01-27 16:04:47.757
49.0, -477.7497799396515, -396.13020330667496, -313.5532122850418, -254.91158097982407, 0.09600000455975533, -0.04800000227987766, 0.9920000471174717, 0.0, 0.0, 0.0, 0.0, 0.0, 1.7063894877570846E9, 0.0, 2024-01-27 16:04:47.757
50.0, -360.9452245235443, -393.01860654354095, -332.46214646101, -215.41823744773865, 0.09600000455975533, -0.04800000227987766, 0.9920000471174717, 0.0, 0.0, 0.0, 0.0, 0.0, 1.7063894877708259E9, 0.0, 2024-01-27 16:04:47.770
50.0, -335.3343896269798, -411.4488335251808, -360.9452245235443, -169.22299319505692, 0.09600000455975533, -0.04800000227987766, 0.9920000471174717, 0.0, 0.0, 0.0, 0.0, 0.0, 1.7063894877708259E9, 0.0, 2024-01-27 16:04:47.770
51.0, -450.94217705726624, -383.4444626569748, -312.83515149354935, -219.96595579385757, 0.09600000455975533, -0.04800000227987766, 0.9920000471174717, 0.0, 0.0, 0.0, 0.0, 0.0, 1.7063894877863004E9, 0.0, 2024-01-27 16:04:47.786
51.0, -402.83210402727127, -380.3328658938408, -314.7499802708626, -234.32717162370682, 0.09600000455975533, -0.04800000227987766, 0.9920000471174717, 0.0, 0.0, 0.0, 0.0, 0.0, 1.7063894877863004E9, 0.0, 2024-01-27 16:04:47.786
52.0, -313.79256588220596, -406.1830543875694, -359.0303957462311, -170.898468375206, 0.09600000455975533, -0.04800000227987766, 0.9920000471174717, 0.0, 0.0, 0.0, 0.0, 0.0, 1.706389487787212E9, 0.0, 2024-01-27 16:04:47.787
52.0, -409.0552975535393, -386.5560594201088, -322.8880025744438, -192.44029211997986, 0.09600000455975533, -0.04800000227987766, 0.9920000471174717, 0.0, 0.0, 0.0, 0.0, 0.0, 1.706389487787212E9, 0.0, 2024-01-27 16:04:47.787
53.0, -430.59712129831314, -371.9554899930954, -289.1391453742981, -231.93363565206528, 0.09600000455975533, -0.04800000227987766, 0.9920000471174717, 0.0, 0.0, 0.0, 0.0, 0.0, 1.7063894878006816E9, 0.0, 2024-01-27 16:04:47.800
53.0, -303.2610076069832, -381.7689874768257, -325.9995993375778, -171.8558827638626, 0.09600000455975533, -0.04800000227987766, 0.9920000471174717, 0.0, 0.0, 0.0, 0.0, 0.0, 1.7063894878006816E9, 0.0, 2024-01-27 16:04:47.800
54.0, -357.59427416324615, -386.31670582294464, -342.03629034757614, -168.7442860007286, 0.09600000455975533, -0.04800000227987766, 0.9920000471174717, 0.0, 0.0, 0.0, 0.0, 0.0, 1.7063894878171785E9, 0.0, 2024-01-27 16:04:47.817
54.0, -449.5060554742813, -365.49294286966324, -291.7720349431038, -235.04523241519928, 0.09600000455975533, -0.04800000227987766, 0.9920000471174717, 0.0, 0.0, 0.0, 0.0, 0.0, 1.7063894878171785E9, 0.0, 2024-01-27 16:04:47.817
55.0, -343.2330583333969, -372.912904381752, -311.87773710489273, -202.01443600654602, 0.09600000455975533, -0.04800000227987766, 0.9920000471174717, 0.0, 0.0, 0.0, 0.0, 0.0, 1.7063894878172472E9, 0.0, 2024-01-27 16:04:47.817
55.0, -326.95701372623444, -398.5237392783165, -352.8072022199631, -168.98363959789276, 0.09600000455975533, -0.04800000227987766, 0.9920000471174717, 0.0, 0.0, 0.0, 0.0, 0.0, 1.7063894878172472E9, 0.0, 2024-01-27 16:04:47.817
56.0, -455.96860259771347, -392.3005457520485, -314.98933386802673, -230.2581604719162, 0.09600000455975533, -0.04800000227987766, 0.9920000471174717, 0.0, 0.0, 0.0, 0.0, 0.0, 1.7063894878470511E9, 0.0, 2024-01-27 16:04:47.847
56.0, -406.9011151790619, -378.1786835193634, -308.04807955026627, -230.97622126340866, 0.09600000455975533, -0.04800000227987766, 0.9920000471174717, 0.0, 0.0, 0.0, 0.0, 0.0, 1.7063894878470511E9, 0.0, 2024-01-27 16:04:47.847
57.0, -310.4416155219078, -402.35339683294296, -359.0303957462311, -171.61652916669846, 0.09600000455975533, -0.04800000227987766, 0.9920000471174717, 0.0, 0.0, 0.0, 0.0, 0.0, 1.7063894878477612E9, 0.0, 2024-01-27 16:04:47.847
57.0, -425.0919885635376, -398.28438568115234, -335.0950360298157, -204.64732557535172, 0.09600000455975533, -0.04800000227987766, 0.9920000471174717, 0.0, 0.0, 0.0, 0.0, 0.0, 1.7063894878477612E9, 0.0, 2024-01-27 16:04:47.847
58.0, -444.00092273950577, -380.3328658938408, -295.8410460948944, -247.9703266620636, 0.09600000455975533, -0.04800000227987766, 0.9920000471174717, 0.0, 0.0, 0.0, 0.0, 0.0, 1.7063894878485503E9, 0.0, 2024-01-27 16:04:47.848
58.0, -311.3990299105644, -383.9231698513031, -328.1537817120552, -179.03649067878723, 0.09600000455975533, -0.04800000227987766, 0.9920000471174717, 0.0, 0.0, 0.0, 0.0, 0.0, 1.7063894878485503E9, 0.0, 2024-01-27 16:04:47.848
59.0, -357.354920566082, -388.94959539175034, -331.2653784751892, -166.1113964319229, 0.09600000455975533, -0.04800000227987766, 0.9920000471174717, 0.0, 0.0, 0.0, 0.0, 0.0, 1.7063894878608513E9, 0.0, 2024-01-27 16:04:47.860
59.0, -453.57506662607193, -366.45035725831985, -285.5488414168358, -236.72070759534836, 0.09600000455975533, -0.04800000227987766, 0.9920000471174717, 0.0, 0.0, 0.0, 0.0, 0.0, 1.7063894878608513E9, 0.0, 2024-01-27 16:04:47.860
60.0, -343.47241193056107, -372.67355078458786, -315.46804106235504, -207.04086154699326, 0.09600000455975533, -0.04800000227987766, 0.9920000471174717, 0.0, 0.0, 0.0, 0.0, 0.0, 1.7063894878763523E9, 0.0, 2024-01-27 16:04:47.876
60.0, -333.65891444683075, -392.06119215488434, -351.84978783130646, -164.19656765460968, 0.09600000455975533, -0.04800000227987766, 0.9920000471174717, 0.0, 0.0, 0.0, 0.0, 0.0, 1.7063894878763523E9, 0.0, 2024-01-27 16:04:47.876
61.0, -454.7718346118927, -384.64123064279556, -301.1068252325058, -225.71044212579727, 0.09600000455975533, -0.03200000151991844, 0.9920000471174717, 0.0, 0.0, 0.0, 0.0, 0.0, 1.706389487877065E9, 0.0, 2024-01-27 16:04:47.877
61.0, -405.46499359607697, -380.57221949100494, -303.50036120414734, -237.43876838684082, 0.09600000455975533, -0.03200000151991844, 0.9920000471174717, 0.0, 0.0, 0.0, 0.0, 0.0, 1.706389487877065E9, 0.0, 2024-01-27 16:04:47.877
62.0, -304.2184219956398, -397.3269712924957, -342.51499754190445, -168.7442860007286, 0.09600000455975533, -0.03200000151991844, 0.9920000471174717, 0.0, 0.0, 0.0, 0.0, 0.0, 1.706389487890663E9, 0.0, 2024-01-27 16:04:47.890
62.0, -419.58685582876205, -392.3005457520485, -321.69123458862305, -201.29637521505356, 0.09600000455975533, -0.03200000151991844, 0.9920000471174717, 0.0, 0.0, 0.0, 0.0, 0.0, 1.706389487890663E9, 0.0, 2024-01-27 16:04:47.890
63.0, -438.7351436018944, -373.3916115760803, -288.42108458280563, -246.53420507907867, 0.09600000455975533, -0.03200000151991844, 0.9920000471174717, 0.0, 0.0, 0.0, 0.0, 0.0, 1.7063894879228451E9, 0.0, 2024-01-27 16:04:47.922
63.0, -301.1068252325058, -374.5883795619011, -327.91442811489105, -177.6003690958023, 0.09600000455975533, -0.03200000151991844, 0.9920000471174717, 0.0, 0.0, 0.0, 0.0, 0.0, 1.7063894879228451E9, 0.0, 2024-01-27 16:04:47.922
64.0, -366.92906445264816, -388.94959539175034, -331.50473207235336, -170.41976118087769, 0.09600000455975533, -0.03200000151991844, 0.9920000471174717, 0.0, 0.0, 0.0, 0.0, 0.0, 1.7063894879234066E9, 0.0, 2024-01-27 16:04:47.923
64.0, -465.0640392899513, -377.46062272787094, -292.2507421374321, -242.2258403301239, 0.09600000455975533, -0.03200000151991844, 0.9920000471174717, 0.0, 0.0, 0.0, 0.0, 0.0, 1.7063894879234066E9, 0.0, 2024-01-27 16:04:47.923
65.0, -340.83952236175537, -374.82773315906525, -307.8087259531021, -205.60473996400833, 0.09600000455975533, -0.03200000151991844, 0.9920000471174717, 0.0, 0.0, 0.0, 0.0, 0.0, 1.7063894879241717E9, 0.0, 2024-01-27 16:04:47.924
65.0, -325.5208921432495, -395.65149611234665, -345.62659430503845, -164.43592125177383, 0.09600000455975533, -0.03200000151991844, 0.9920000471174717, 0.0, 0.0, 0.0, 0.0, 0.0, 1.7063894879241717E9, 0.0, 2024-01-27 16:04:47.924
66.0, -451.89959144592285, -381.52963387966156, -300.38876444101334, -226.18914932012558, 0.09600000455975533, -0.03200000151991844, 0.9920000471174717, 0.0, 0.0, 0.0, 0.0, 0.0, 1.7063894879249024E9, 0.0, 2024-01-27 16:04:47.924
66.0, -400.6779216527939, -373.3916115760803, -306.61195796728134, -242.94390112161636, 0.09600000455975533, -0.03200000151991844, 0.9920000471174717, 0.0, 0.0, 0.0, 0.0, 0.0, 1.7063894879249024E9, 0.0, 2024-01-27 16:04:47.924
67.0, -310.4416155219078, -394.9334353208542, -349.69560545682907, -170.65911477804184, 0.09600000455975533, -0.03200000151991844, 0.9920000471174717, 0.0, 0.0, 0.0, 0.0, 0.0, 1.7063894879357836E9, 0.0, 2024-01-27 16:04:47.935
67.0, -414.0817230939865, -386.79541301727295, -322.8880025744438, -198.66348564624786, 0.09600000455975533, -0.03200000151991844, 0.9920000471174717, 0.0, 0.0, 0.0, 0.0, 0.0, 1.7063894879357836E9, 0.0, 2024-01-27 16:04:47.935
68.0, -426.0494029521942, -361.6632853150368, -281.47983026504517, -239.83230435848236, 0.09600000455975533, -0.03200000151991844, 0.9920000471174717, 0.0, 0.0, 0.0, 0.0, 0.0, 1.7063894879506412E9, 0.0, 2024-01-27 16:04:47.950
68.0, -308.7661403417587, -378.6573907136917, -324.80283135175705, -179.7545514702797, 0.09600000455975533, -0.03200000151991844, 0.9920000471174717, 0.0, 0.0, 0.0, 0.0, 0.0, 1.7063894879506412E9, 0.0, 2024-01-27 16:04:47.950
69.0, -353.7646166086197, -381.05092668533325, -322.8880025744438, -163.47850686311722, 0.09600000455975533, -0.03200000151991844, 0.9920000471174717, 0.0, 0.0, 0.0, 0.0, 0.0, 1.706389487966566E9, 0.0, 2024-01-27 16:04:47.966
69.0, -459.3195529580116, -373.3916115760803, -290.33591336011887, -237.91747558116913, 0.09600000455975533, -0.03200000151991844, 0.9920000471174717, 0.0, 0.0, 0.0, 0.0, 0.0, 1.706389487966566E9, 0.0, 2024-01-27 16:04:47.966
70.0, -345.14788711071014, -380.3328658938408, -307.8087259531021, -203.6899111866951, 0.09600000455975533, -0.03200000151991844, 1.008000047877431, 0.0, 0.0, 0.0, 0.0, 0.0, 1.7063894879670951E9, 0.0, 2024-01-27 16:04:47.967
70.0, -319.7764058113098, -389.90700978040695, -347.30206948518753, -159.64884930849075, 0.09600000455975533, -0.03200000151991844, 1.008000047877431, 0.0, 0.0, 0.0, 0.0, 0.0, 1.7063894879670951E9, 0.0, 2024-01-27 16:04:47.967
71.0, -463.86727130413055, -392.06119215488434, -309.4842011332512, -223.31690615415573, 0.09600000455975533, -0.03200000151991844, 1.008000047877431, 0.0, 0.0, 0.0, 0.0, 0.0, 1.7063894879806051E9, 0.0, 2024-01-27 16:04:47.980
71.0, -401.87468963861465, -379.13609790802, -298.4739356637001, -224.27432054281235, 0.09600000455975533, -0.03200000151991844, 1.008000047877431, 0.0, 0.0, 0.0, 0.0, 0.0, 1.7063894879806051E9, 0.0, 2024-01-27 16:04:47.980
72.0, -300.6281180381775, -392.7792529463768, -343.47241193056107, -158.69143491983414, 0.09600000455975533, -0.03200000151991844, 1.008000047877431, 0.0, 0.0, 0.0, 0.0, 0.0, 1.706389487996405E9, 0.0, 2024-01-27 16:04:47.996
72.0, -408.09788316488266, -379.3754515051842, -315.2286874651909, -184.78097701072693, 0.09600000455975533, -0.03200000151991844, 1.008000047877431, 0.0, 0.0, 0.0, 0.0, 0.0, 1.706389487996405E9, 0.0, 2024-01-27 16:04:47.996
73.0, -434.18742525577545, -370.2800148129463, -289.1391453742981, -237.43876838684082, 0.09600000455975533, -0.03200000151991844, 1.008000047877431, 0.0, 0.0, 0.0, 0.0, 0.0, 1.7063894879970388E9, 0.0, 2024-01-27 16:04:47.997
73.0, -306.61195796728134, -380.3328658938408, -324.32412415742874, -172.33458995819092, 0.09600000455975533, -0.03200000151991844, 1.008000047877431, 0.0, 0.0, 0.0, 0.0, 0.0, 1.7063894879970388E9, 0.0, 2024-01-27 16:04:47.997
74.0, -355.2007381916046, -387.0347666144371, -330.54731768369675, -166.1113964319229, 0.09600000455975533, -0.03200000151991844, 1.008000047877431, 0.0, 0.0, 0.0, 0.0, 0.0, 1.7063894880110507E9, 0.0, 2024-01-27 16:04:48.011
74.0, -446.63381230831146, -357.11556696891785, -281.240476667881, -230.2581604719162, 0.09600000455975533, -0.03200000151991844, 1.008000047877431, 0.0, 0.0, 0.0, 0.0, 0.0, 1.7063894880110507E9, 0.0, 2024-01-27 16:04:48.011
75.0, -340.83952236175537, -370.7587220072746, -307.09066516160965, -201.5357288122177, 0.09600000455975533, -0.03200000151991844, 1.008000047877431, 0.0, 0.0, 0.0, 0.0, 0.0, 1.706389488026332E9, 0.0, 2024-01-27 16:04:48.026
75.0, -336.29180401563644, -403.7895184159279, -342.7543511390686, -161.56367808580399, 0.09600000455975533, -0.03200000151991844, 1.008000047877431, 0.0, 0.0, 0.0, 0.0, 0.0, 1.706389488026332E9, 0.0, 2024-01-27 16:04:48.026
76.0, -456.68666338920593, -386.0773522257805, -309.4842011332512, -227.38591730594635, 0.09600000455975533, -0.03200000151991844, 1.008000047877431, 0.0, 0.0, 0.0, 0.0, 0.0, 1.7063894880270736E9, 0.0, 2024-01-27 16:04:48.027
76.0, -397.3269712924957, -373.87031877040863, -300.38876444101334, -229.54009968042374, 0.09600000455975533, -0.03200000151991844, 1.008000047877431, 0.0, 0.0, 0.0, 0.0, 0.0, 1.7063894880270736E9, 0.0, 2024-01-27 16:04:48.027
77.0, -295.60169249773026, -387.0347666144371, -343.7117655277252, -160.60626369714737, 0.09600000455975533, -0.03200000151991844, 1.008000047877431, 0.0, 0.0, 0.0, 0.0, 0.0, 1.7063894880406768E9, 0.0, 2024-01-27 16:04:48.040
77.0, -409.5340047478676, -380.8115730881691, -318.57963782548904, -196.26994967460632, 0.09600000455975533, -0.03200000151991844, 1.008000047877431, 0.0, 0.0, 0.0, 0.0, 0.0, 1.7063894880406768E9, 0.0, 2024-01-27 16:04:48.040
78.0, -433.9480716586113, -365.7322964668274, -291.2933277487755, -242.94390112161636, 0.09600000455975533, -0.03200000151991844, 1.008000047877431, 0.0, 0.0, 0.0, 0.0, 0.0, 1.706389488056618E9, 0.0, 2024-01-27 16:04:48.056
78.0, -303.50036120414734, -375.0670867562294, -329.8292568922043, -174.9674795269966, 0.09600000455975533, -0.03200000151991844, 1.008000047877431, 0.0, 0.0, 0.0, 0.0, 0.0, 1.706389488056618E9, 0.0, 2024-01-27 16:04:48.056
79.0, -355.6794453859329, -380.3328658938408, -326.238952934742, -160.36691009998322, 0.09600000455975533, -0.03200000151991844, 1.008000047877431, 0.0, 0.0, 0.0, 0.0, 0.0, 1.706389488057191E9, 0.0, 2024-01-27 16:04:48.057
79.0, -446.63381230831146, -363.33876049518585, -275.017283141613, -220.20530939102173, 0.09600000455975533, -0.03200000151991844, 1.008000047877431, 0.0, 0.0, 0.0, 0.0, 0.0, 1.706389488057191E9, 0.0, 2024-01-27 16:04:48.057
80.0, -341.55758315324783, -374.34902596473694, -301.34617882966995, -190.76481693983078, 0.09600000455975533, -0.03200000151991844, 1.008000047877431, 0.0, 0.0, 0.0, 0.0, 0.0, 1.7063894880709057E9, 0.0, 2024-01-27 16:04:48.070
80.0, -314.98933386802673, -380.3328658938408, -336.29180401563644, -145.04827988147736, 0.09600000455975533, -0.03200000151991844, 1.008000047877431, 0.0, 0.0, 0.0, 0.0, 0.0, 1.7063894880709057E9, 0.0, 2024-01-27 16:04:48.070
81.0, -453.0963594317436, -376.98191553354263, -300.1494108438492, -212.30664068460464, 0.09600000455975533, -0.04800000227987766, 1.008000047877431, 0.0, 0.0, 0.0, 0.0, 0.0, 1.7063894880863788E9, 0.0, 2024-01-27 16:04:48.086
81.0, -391.58248496055603, -368.3651860356331, -297.27716767787933, -218.7691878080368, 0.09600000455975533, -0.04800000227987766, 1.008000047877431, 0.0, 0.0, 0.0, 0.0, 0.0, 1.7063894880863788E9, 0.0, 2024-01-27 16:04:48.086
82.0, -310.68096911907196, -397.5663248896599, -350.1743126511574, -158.45208132266998, 0.09600000455975533, -0.04800000227987766, 1.008000047877431, 0.0, 0.0, 0.0, 0.0, 0.0, 1.7063894880870695E9, 0.0, 2024-01-27 16:04:48.087
82.0, -419.3475022315979, -386.31670582294464, -325.5208921432495, -189.80740255117416, 0.09600000455975533, -0.04800000227987766, 1.008000047877431, 0.0, 0.0, 0.0, 0.0, 0.0, 1.7063894880870695E9, 0.0, 2024-01-27 16:04:48.087
83.0, -443.04350835084915, -382.72640186548233, -294.16557091474533, -243.18325471878052, 0.09600000455975533, -0.04800000227987766, 1.008000047877431, 0.0, 0.0, 0.0, 0.0, 0.0, 1.7063894881008675E9, 0.0, 2024-01-27 16:04:48.100
83.0, -321.69123458862305, -392.3005457520485, -331.7440856695175, -175.92489391565323, 0.09600000455975533, -0.04800000227987766, 1.008000047877431, 0.0, 0.0, 0.0, 0.0, 0.0, 1.7063894881008675E9, 0.0, 2024-01-27 16:04:48.100
84.0, -366.689710855484, -397.0876176953316, -338.44598639011383, -165.6326892375946, 0.09600000455975533, -0.04800000227987766, 1.008000047877431, 0.0, 0.0, 0.0, 0.0, 0.0, 1.7063894881164024E9, 0.0, 2024-01-27 16:04:48.116
84.0, -462.1917961239815, -373.87031877040863, -294.4049245119095, -241.02907234430313, 0.09600000455975533, -0.04800000227987766, 1.008000047877431, 0.0, 0.0, 0.0, 0.0, 0.0, 1.7063894881164024E9, 0.0, 2024-01-27 16:04:48.116
85.0, -343.9511191248894, -375.78514754772186, -310.9203227162361, -194.11576730012894, 0.09600000455975533, -0.04800000227987766, 1.008000047877431, 0.0, 0.0, 0.0, 0.0, 0.0, 1.7063894881170604E9, 0.0, 2024-01-27 16:04:48.117
85.0, -331.02602487802505, -391.58248496055603, -346.3446550965309, -155.8191917538643, 0.09600000455975533, -0.04800000227987766, 1.008000047877431, 0.0, 0.0, 0.0, 0.0, 0.0, 1.7063894881170604E9, 0.0, 2024-01-27 16:04:48.117
86.0, -452.6176522374153, -379.6148051023483, -304.45777559280396, -214.70017665624619, 0.09600000455975533, -0.04800000227987766, 1.008000047877431, 0.0, 0.0, 0.0, 0.0, 0.0, 1.7063894881306522E9, 0.0, 2024-01-27 16:04:48.130
86.0, -398.5237392783165, -380.3328658938408, -302.30359321832657, -224.27432054281235, 0.09600000455975533, -0.04800000227987766, 1.008000047877431, 0.0, 0.0, 0.0, 0.0, 0.0, 1.7063894881306522E9, 0.0, 2024-01-27 16:04:48.130
87.0, -305.1758363842964, -388.7102417945862, -340.6001687645912, -151.98953419923782, 0.09600000455975533, -0.04800000227987766, 1.008000047877431, 0.0, 0.0, 0.0, 0.0, 0.0, 1.7063894881467872E9, 0.0, 2024-01-27 16:04:48.146
87.0, -409.0552975535393, -378.1786835193634, -311.6383835077286, -182.3874410390854, 0.09600000455975533, -0.04800000227987766, 1.008000047877431, 0.0, 0.0, 0.0, 0.0, 0.0, 1.7063894881467872E9, 0.0, 2024-01-27 16:04:48.146
88.0, -435.6235468387604, -371.71613639593124, -281.9585374593735, -227.38591730594635, 0.09600000455975533, -0.04800000227987766, 1.008000047877431, 0.0, 0.0, 0.0, 0.0, 0.0, 1.7063894881472175E9, 0.0, 2024-01-27 16:04:48.147
88.0, -305.1758363842964, -383.20510905981064, -330.06861048936844, -170.898468375206, 0.09600000455975533, -0.04800000227987766, 1.008000047877431, 0.0, 0.0, 0.0, 0.0, 0.0, 1.7063894881472175E9, 0.0, 2024-01-27 16:04:48.147
89.0, -360.9452245235443, -386.5560594201088, -332.70150005817413, -164.675274848938, 0.09600000455975533, -0.04800000227987766, 1.008000047877431, 0.0, 0.0, 0.0, 0.0, 0.0, 1.706389488160704E9, 0.0, 2024-01-27 16:04:48.160
89.0, -452.138945043087, -368.60453963279724, -284.59142702817917, -229.06139248609543, 0.09600000455975533, -0.04800000227987766, 1.008000047877431, 0.0, 0.0, 0.0, 0.0, 0.0, 1.706389488160704E9, 0.0, 2024-01-27 16:04:48.160
90.0, -348.25948387384415, -376.98191553354263, -317.3828698396683, -198.66348564624786, 0.09600000455975533, -0.04800000227987766, 0.9920000471174717, 0.0, 0.0, 0.0, 0.0, 0.0, 1.706389488176432E9, 0.0, 2024-01-27 16:04:48.176
90.0, -330.7866712808609, -394.69408172369003, -344.1904727220535, -157.73402053117752, 0.09600000455975533, -0.04800000227987766, 0.9920000471174717, 0.0, 0.0, 0.0, 0.0, 0.0, 1.706389488176432E9, 0.0, 2024-01-27 16:04:48.176
91.0, -447.5912266969681, -376.26385474205017, -294.8836317062378, -209.4343975186348, 0.09600000455975533, -0.04800000227987766, 0.9920000471174717, 0.0, 0.0, 0.0, 0.0, 0.0, 1.706389488177018E9, 0.0, 2024-01-27 16:04:48.177
91.0, -381.05092668533325, -361.6632853150368, -290.0965597629547, -213.98211586475372, 0.09600000455975533, -0.04800000227987766, 0.9920000471174717, 0.0, 0.0, 0.0, 0.0, 0.0, 1.706389488177018E9, 0.0, 2024-01-27 16:04:48.177
92.0, -296.08039969205856, -382.72640186548233, -343.2330583333969, -152.22888779640198, 0.09600000455975533, -0.04800000227987766, 0.9920000471174717, 0.0, 0.0, 0.0, 0.0, 0.0, 1.706389488190894E9, 0.0, 2024-01-27 16:04:48.190
92.0, -410.73077273368835, -376.26385474205017, -313.0745050907135, -183.10550183057785, 0.09600000455975533, -0.04800000227987766, 0.9920000471174717, 0.0, 0.0, 0.0, 0.0, 0.0, 1.706389488190894E9, 0.0, 2024-01-27 16:04:48.190
93.0, -433.469364464283, -368.8438932299614, -291.53268134593964, -240.78971874713898, 0.09600000455975533, -0.04800000227987766, 0.9920000471174717, 0.0, 0.0, 0.0, 0.0, 0.0, 1.706389488207111E9, 0.0, 2024-01-27 16:04:48.207
93.0, -311.3990299105644, -381.2902802824974, -332.2227928638458, -176.88230830430984, 0.09600000455975533, -0.04800000227987766, 0.9920000471174717, 0.0, 0.0, 0.0, 0.0, 0.0, 1.706389488207111E9, 0.0, 2024-01-27 16:04:48.207
94.0, -363.33876049518585, -385.83799862861633, -328.39313530921936, -165.1539820432663, 0.09600000455975533, -0.04800000227987766, 0.9920000471174717, 0.0, 0.0, 0.0, 0.0, 0.0, 1.7063894882071695E9, 0.0, 2024-01-27 16:04:48.207
94.0, -456.9260169863701, -362.1419925093651, -278.36823350191116, -224.5136741399765, 0.09600000455975533, -0.04800000227987766, 0.9920000471174717, 0.0, 0.0, 0.0, 0.0, 0.0, 1.7063894882071695E9, 0.0, 2024-01-27 16:04:48.207
95.0, -334.13762164115906, -366.45035725831985, -309.0054939389229, -191.7222313284874, 0.09600000455975533, -0.04800000227987766, 0.9920000471174717, 0.0, 0.0, 0.0, 0.0, 0.0, 1.7063894882206724E9, 0.0, 2024-01-27 16:04:48.220
95.0, -315.7073946595192, -382.9657554626465, -331.2653784751892, -144.3302190899849, 0.09600000455975533, -0.04800000227987766, 0.9920000471174717, 0.0, 0.0, 0.0, 0.0, 0.0, 1.7063894882206724E9, 0.0, 2024-01-27 16:04:48.220
96.0, -439.93191158771515, -370.2800148129463, -295.3623389005661, -209.19504392147064, 0.09600000455975533, -0.04800000227987766, 0.9920000471174717, 0.0, 0.0, 0.0, 0.0, 0.0, 1.706389488236326E9, 0.0, 2024-01-27 16:04:48.236
96.0, -388.7102417945862, -369.801307618618, -288.1817309856415, -214.93953025341034, 0.09600000455975533, -0.04800000227987766, 0.9920000471174717, 0.0, 0.0, 0.0, 0.0, 0.0, 1.706389488236326E9, 0.0, 2024-01-27 16:04:48.236
97.0, -310.68096911907196, -392.06119215488434, -336.5311576128006, -154.38307017087936, 0.09600000455975533, -0.04800000227987766, 0.9920000471174717, 0.0, 0.0, 0.0, 0.0, 0.0, 1.706389488237047E9, 0.0, 2024-01-27 16:04:48.237
97.0, -420.06556302309036, -387.0347666144371, -308.5267867445946, -189.32869535684586, 0.09600000455975533, -0.04800000227987766, 0.9920000471174717, 0.0, 0.0, 0.0, 0.0, 0.0, 1.706389488237047E9, 0.0, 2024-01-27 16:04:48.237
98.0, -433.23001086711884, -373.3916115760803, -294.64427810907364, -240.07165795564651, 0.09600000455975533, -0.04800000227987766, 0.9920000471174717, 0.0, 0.0, 0.0, 0.0, 0.0, 1.7063894882662916E9, 0.0, 2024-01-27 16:04:48.266
98.0, -312.1170907020569, -385.5986450314522, -326.238952934742, -177.83972269296646, 0.09600000455975533, -0.04800000227987766, 0.9920000471174717, 0.0, 0.0, 0.0, 0.0, 0.0, 1.7063894882662916E9, 0.0, 2024-01-27 16:04:48.266
99.0, -356.63685977458954, -379.3754515051842, -327.91442811489105, -171.8558827638626, 0.09600000455975533, -0.04800000227987766, 0.9920000471174717, 0.0, 0.0, 0.0, 0.0, 0.0, 1.7063894882670069E9, 0.0, 2024-01-27 16:04:48.267
99.0, -454.7718346118927, -367.40777164697647, -300.38876444101334, -258.74123853445053, 0.09600000455975533, -0.04800000227987766, 0.9920000471174717, 0.0, 0.0, 0.0, 0.0, 0.0, 1.7063894882670069E9, 0.0, 2024-01-27 16:04:48.267
0.0, -318.57963782548904, -373.87031877040863, -321.9305881857872, -139.78250074386597, 0.09600000455975533, -0.04800000227987766, 1.008000047877431, 0.0, 0.0, 0.0, 0.0, 0.0, 1.70638948828152E9, 0.0, 2024-01-27 16:04:48.281
0.0, -445.915751516819, -362.38134610652924, -282.9159518480301, -198.66348564624786, 0.09600000455975533, -0.04800000227987766, 1.008000047877431, 0.0, 0.0, 0.0, 0.0, 0.0, 1.70638948828152E9, 0.0, 2024-01-27 16:04:48.281
1.0, -399.4811536669731, -362.1419925093651, -285.30948781967163, -203.92926478385925, 0.09600000455975533, -0.03200000151991844, 1.008000047877431, 0.0, 0.0, 0.0, 0.0, 0.0, 1.7063894882822416E9, 0.0, 2024-01-27 16:04:48.282
1.0, -316.42545545101166, -381.05092668533325, -320.2551130056381, -132.3625392317772, 0.09600000455975533, -0.03200000151991844, 1.008000047877431, 0.0, 0.0, 0.0, 0.0, 0.0, 1.7063894882822416E9, 0.0, 2024-01-27 16:04:48.282
2.0, -426.5281101465225, -370.04066121578217, -289.37849897146225, -150.5534126162529, 0.09600000455975533, -0.03200000151991844, 1.008000047877431, 0.0, 0.0, 0.0, 0.0, 0.0, 1.7063894882957752E9, 0.0, 2024-01-27 16:04:48.295
2.0, -461.71308892965317, -370.5193684101105, -274.5385759472847, -204.40797197818756, 0.09600000455975533, -0.03200000151991844, 1.008000047877431, 0.0, 0.0, 0.0, 0.0, 0.0, 1.7063894882957752E9, 0.0, 2024-01-27 16:04:48.295
3.0, -332.70150005817413, -373.87031877040863, -312.5957978963852, -136.19219678640366, 0.09600000455975533, -0.03200000151991844, 1.008000047877431, 0.0, 0.0, 0.0, 0.0, 0.0, 1.706389488311302E9, 0.0, 2024-01-27 16:04:48.311
3.0, -398.28438568115234, -389.1889489889145, -324.32412415742874, -141.6973295211792, 0.09600000455975533, -0.03200000151991844, 1.008000047877431, 0.0, 0.0, 0.0, 0.0, 0.0, 1.706389488311302E9, 0.0, 2024-01-27 16:04:48.311
4.0, -488.7600454092026, -374.82773315906525, -276.2140511274338, -208.23762953281403, 0.09600000455975533, -0.03200000151991844, 1.008000047877431, 0.0, 0.0, 0.0, 0.0, 0.0, 1.706389488312013E9, 0.0, 2024-01-27 16:04:48.312
4.0, -369.3226004242897, -371.71613639593124, -300.86747163534164, -168.7442860007286, 0.09600000455975533, -0.03200000151991844, 1.008000047877431, 0.0, 0.0, 0.0, 0.0, 0.0, 1.706389488312013E9, 0.0, 2024-01-27 16:04:48.312
5.0, -356.8762133717537, -391.58248496055603, -330.54731768369675, -129.96900326013565, 0.09600000455975533, -0.03200000151991844, 1.008000047877431, 0.0, 0.0, 0.0, 0.0, 0.0, 1.7063894883256557E9, 0.0, 2024-01-27 16:04:48.325
5.0, -476.31365835666656, -374.5883795619011, -291.7720349431038, -197.70607125759125, 0.09600000455975533, -0.03200000151991844, 1.008000047877431, 0.0, 0.0, 0.0, 0.0, 0.0, 1.7063894883256557E9, 0.0, 2024-01-27 16:04:48.325
6.0, -427.48552453517914, -378.1786835193634, -286.74560940265656, -199.38154643774033, 0.09600000455975533, -0.03200000151991844, 1.008000047877431, 0.0, 0.0, 0.0, 0.0, 0.0, 1.7063894883415651E9, 0.0, 2024-01-27 16:04:48.341
6.0, -330.06861048936844, -388.94959539175034, -331.7440856695175, -131.40512484312057, 0.09600000455975533, -0.03200000151991844, 1.008000047877431, 0.0, 0.0, 0.0, 0.0, 0.0, 1.7063894883415651E9, 0.0, 2024-01-27 16:04:48.341
7.0, -439.2138507962227, -378.89674431085587, -309.0054939389229, -165.1539820432663, 0.09600000455975533, -0.03200000151991844, 1.008000047877431, 0.0, 0.0, 0.0, 0.0, 0.0, 1.706389488342049E9, 0.0, 2024-01-27 16:04:48.342
7.0, -454.2931274175644, -373.6309651732445, -271.4269791841507, -213.0247014760971, 0.09600000455975533, -0.03200000151991844, 1.008000047877431, 0.0, 0.0, 0.0, 0.0, 0.0, 1.706389488342049E9, 0.0, 2024-01-27 16:04:48.342
8.0, -343.9511191248894, -394.4547281265259, -325.28153854608536, -153.42565578222275, 0.09600000455975533, -0.03200000151991844, 1.008000047877431, 0.0, 0.0, 0.0, 0.0, 0.0, 1.706389488355802E9, 0.0, 2024-01-27 16:04:48.355
8.0, -394.9334353208542, -393.7366673350334, -330.54731768369675, -149.11729103326797, 0.09600000455975533, -0.03200000151991844, 1.008000047877431, 0.0, 0.0, 0.0, 0.0, 0.0, 1.706389488355802E9, 0.0, 2024-01-27 16:04:48.355
9.0, -487.0845702290535, -372.67355078458786, -280.2830622792244, -214.46082305908203, 0.09600000455975533, -0.03200000151991844, 1.008000047877431, 0.0, 0.0, 0.0, 0.0, 0.0, 1.7063894883712833E9, 0.0, 2024-01-27 16:04:48.371
9.0, -372.19484359025955, -383.4444626569748, -310.68096911907196, -182.62679463624954, 0.09600000455975533, -0.03200000151991844, 1.008000047877431, 0.0, 0.0, 0.0, 0.0, 0.0, 1.7063894883712833E9, 0.0, 2024-01-27 16:04:48.371
10.0, -357.59427416324615, -397.0876176953316, -342.2756439447403, -140.02185434103012, 0.09600000455975533, -0.03200000151991844, 1.008000047877431, 0.0, 0.0, 0.0, 0.0, 0.0, 1.7063894883720195E9, 0.0, 2024-01-27 16:04:48.372
10.0, -477.7497799396515, -379.6148051023483, -296.08039969205856, -198.90283924341202, 0.09600000455975533, -0.03200000151991844, 1.008000047877431, 0.0, 0.0, 0.0, 0.0, 0.0, 1.7063894883720195E9, 0.0, 2024-01-27 16:04:48.372
11.0, -410.25206553936005, -368.12583243846893, -285.30948781967163, -199.38154643774033, 0.09600000455975533, -0.04800000227987766, 1.008000047877431, 0.0, 0.0, 0.0, 0.0, 0.0, 1.7063894883856611E9, 0.0, 2024-01-27 16:04:48.385
11.0, -322.4092953801155, -389.90700978040695, -332.9408536553383, -138.5857327580452, 0.09600000455975533, -0.04800000227987766, 1.008000047877431, 0.0, 0.0, 0.0, 0.0, 0.0, 1.7063894883856611E9, 0.0, 2024-01-27 16:04:48.385
12.0, -435.6235468387604, -382.4870482683182, -310.4416155219078, -173.5313579440117, 0.09600000455975533, -0.04800000227987766, 1.008000047877431, 0.0, 0.0, 0.0, 0.0, 0.0, 1.7063894884015963E9, 0.0, 2024-01-27 16:04:48.401
12.0, -453.57506662607193, -367.40777164697647, -277.1714655160904, -214.93953025341034, 0.09600000455975533, -0.04800000227987766, 1.008000047877431, 0.0, 0.0, 0.0, 0.0, 0.0, 1.7063894884015963E9, 0.0, 2024-01-27 16:04:48.401
13.0, -328.1537817120552, -377.46062272787094, -320.2551130056381, -153.90436297655106, 0.09600000455975533, -0.04800000227987766, 1.008000047877431, 0.0, 0.0, 0.0, 0.0, 0.0, 1.706389488402132E9, 0.0, 2024-01-27 16:04:48.402
13.0, -382.00834107398987, -378.6573907136917, -315.94674825668335, -142.1760367155075, 0.09600000455975533, -0.04800000227987766, 1.008000047877431, 0.0, 0.0, 0.0, 0.0, 0.0, 1.706389488402132E9, 0.0, 2024-01-27 16:04:48.402
14.0, -475.35624396800995, -362.38134610652924, -277.6501727104187, -210.87051910161972, 0.09600000455975533, -0.04800000227987766, 1.008000047877431, 0.0, 0.0, 0.0, 0.0, 0.0, 1.7063894884156637E9, 0.0, 2024-01-27 16:04:48.415
14.0, -362.38134610652924, -376.024501144886, -301.82488602399826, -181.43002665042877, 0.09600000455975533, -0.04800000227987766, 1.008000047877431, 0.0, 0.0, 0.0, 0.0, 0.0, 1.7063894884156637E9, 0.0, 2024-01-27 16:04:48.415
15.0, -349.4562518596649, -387.5134738087654, -331.2653784751892, -137.62831836938858, 0.09600000455975533, -0.04800000227987766, 1.008000047877431, 0.0, 0.0, 0.0, 0.0, 0.0, 1.7063894884320323E9, 0.0, 2024-01-27 16:04:48.432
15.0, -466.7395144701004, -371.4767827987671, -287.9423773884773, -193.87641370296478, 0.09600000455975533, -0.04800000227987766, 1.008000047877431, 0.0, 0.0, 0.0, 0.0, 0.0, 1.7063894884320323E9, 0.0, 2024-01-27 16:04:48.432
16.0, -408.3372367620468, -366.92906445264816, -286.26690220832825, -199.14219284057617, 0.09600000455975533, -0.04800000227987766, 1.008000047877431, 0.0, 0.0, 0.0, 0.0, 0.0, 1.7063894884327564E9, 0.0, 2024-01-27 16:04:48.432
16.0, -318.57963782548904, -382.247694671154, -326.7176601290703, -135.4741359949112, 0.09600000455975533, -0.04800000227987766, 1.008000047877431, 0.0, 0.0, 0.0, 0.0, 0.0, 1.7063894884327564E9, 0.0, 2024-01-27 16:04:48.432
17.0, -433.469364464283, -379.3754515051842, -302.0642396211624, -159.4094957113266, 0.09600000455975533, -0.04800000227987766, 1.008000047877431, 0.0, 0.0, 0.0, 0.0, 0.0, 1.7063894884458525E9, 0.0, 2024-01-27 16:04:48.445
17.0, -451.6602378487587, -370.7587220072746, -271.905686378479, -209.9131047129631, 0.09600000455975533, -0.04800000227987766, 1.008000047877431, 0.0, 0.0, 0.0, 0.0, 0.0, 1.7063894884458525E9, 0.0, 2024-01-27 16:04:48.445
18.0, -335.81309682130814, -391.3431313633919, -327.43572092056274, -149.83535182476044, 0.09600000455975533, -0.04800000227987766, 1.008000047877431, 0.0, 0.0, 0.0, 0.0, 0.0, 1.7063894884778576E9, 0.0, 2024-01-27 16:04:48.477
18.0, -393.2579601407051, -391.58248496055603, -326.95701372623444, -150.31405901908875, 0.09600000455975533, -0.04800000227987766, 1.008000047877431, 0.0, 0.0, 0.0, 0.0, 0.0, 1.7063894884778576E9, 0.0, 2024-01-27 16:04:48.477
19.0, -484.69103425741196, -376.024501144886, -283.8733662366867, -216.1362982392311, 0.09600000455975533, -0.04800000227987766, 1.008000047877431, 0.0, 0.0, 0.0, 0.0, 0.0, 1.7063894884784636E9, 0.0, 2024-01-27 16:04:48.478
19.0, -361.18457812070847, -376.26385474205017, -308.2874331474304, -179.99390506744385, 0.09600000455975533, -0.04800000227987766, 1.008000047877431, 0.0, 0.0, 0.0, 0.0, 0.0, 1.7063894884784636E9, 0.0, 2024-01-27 16:04:48.478
20.0, -357.8336277604103, -398.28438568115234, -337.0098648071289, -138.5857327580452, 0.09600000455975533, -0.04800000227987766, 1.008000047877431, 0.0, 0.0, 0.0, 0.0, 0.0, 1.7063894884793348E9, 0.0, 2024-01-27 16:04:48.479
20.0, -462.43114972114563, -375.78514754772186, -289.85720616579056, -193.15835291147232, 0.09600000455975533, -0.04800000227987766, 1.008000047877431, 0.0, 0.0, 0.0, 0.0, 0.0, 1.7063894884793348E9, 0.0, 2024-01-27 16:04:48.479
21.0, -412.40624791383743, -381.7689874768257, -294.16557091474533, -207.51956874132156, 0.09600000455975533, -0.04800000227987766, 1.008000047877431, 0.0, 0.0, 0.0, 0.0, 0.0, 1.7063894884799657E9, 0.0, 2024-01-27 16:04:48.479
21.0, -347.30206948518753, -421.26233100891113, -366.92906445264816, -163.95721405744553, 0.09600000455975533, -0.04800000227987766, 1.008000047877431, 0.0, 0.0, 0.0, 0.0, 0.0, 1.7063894884799657E9, 0.0, 2024-01-27 16:04:48.479
22.0, -436.34160763025284, -388.7102417945862, -320.2551130056381, -184.78097701072693, 0.09600000455975533, -0.04800000227987766, 1.008000047877431, 0.0, 0.0, 0.0, 0.0, 0.0, 1.7063894884909642E9, 0.0, 2024-01-27 16:04:48.490
22.0, -430.357767701149, -358.3123349547386, -274.77792954444885, -221.8807845711708, 0.09600000455975533, -0.04800000227987766, 1.008000047877431, 0.0, 0.0, 0.0, 0.0, 0.0, 1.7063894884909642E9, 0.0, 2024-01-27 16:04:48.490
23.0, -312.5957978963852, -378.41803711652756, -326.238952934742, -162.28173887729645, 0.09600000455975533, -0.04800000227987766, 1.008000047877431, 0.0, 0.0, 0.0, 0.0, 0.0, 1.7063894885057652E9, 0.0, 2024-01-27 16:04:48.505
23.0, -365.7322964668274, -377.6999763250351, -328.39313530921936, -159.64884930849075, 0.09600000455975533, -0.04800000227987766, 1.008000047877431, 0.0, 0.0, 0.0, 0.0, 0.0, 1.7063894885057652E9, 0.0, 2024-01-27 16:04:48.505
24.0, -438.97449719905853, -351.131727039814, -272.8631007671356, -220.20530939102173, 0.09600000455975533, -0.04800000227987766, 1.008000047877431, 0.0, 0.0, 0.0, 0.0, 0.0, 1.7063894885214891E9, 0.0, 2024-01-27 16:04:48.521
24.0, -332.70150005817413, -371.9554899930954, -307.8087259531021, -193.15835291147232, 0.09600000455975533, -0.04800000227987766, 1.008000047877431, 0.0, 0.0, 0.0, 0.0, 0.0, 1.7063894885214891E9, 0.0, 2024-01-27 16:04:48.521
25.0, -319.7764058113098, -382.00834107398987, -336.29180401563644, -146.9631086587906, 0.09600000455975533, -0.04800000227987766, 1.008000047877431, 0.0, 0.0, 0.0, 0.0, 0.0, 1.7063894885220776E9, 0.0, 2024-01-27 16:04:48.522
25.0, -449.26670187711716, -373.15225797891617, -292.7294493317604, -211.10987269878387, 0.09600000455975533, -0.04800000227987766, 1.008000047877431, 0.0, 0.0, 0.0, 0.0, 0.0, 1.7063894885220776E9, 0.0, 2024-01-27 16:04:48.522
26.0, -384.16252344846725, -364.5355284810066, -290.33591336011887, -208.47698312997818, 0.09600000455975533, -0.04800000227987766, 1.008000047877431, 0.0, 0.0, 0.0, 0.0, 0.0, 1.706389488535724E9, 0.0, 2024-01-27 16:04:48.535
26.0, -302.5429468154907, -384.8805842399597, -337.4885720014572, -147.68116945028305, 0.09600000455975533, -0.04800000227987766, 1.008000047877431, 0.0, 0.0, 0.0, 0.0, 0.0, 1.706389488535724E9, 0.0, 2024-01-27 16:04:48.535
27.0, -404.98628640174866, -374.34902596473694, -301.82488602399826, -171.8558827638626, 0.09600000455975533, -0.04800000227987766, 1.008000047877431, 0.0, 0.0, 0.0, 0.0, 0.0, 1.706389488551347E9, 0.0, 2024-01-27 16:04:48.551
27.0, -425.0919885635376, -362.38134610652924, -281.9585374593735, -228.1039780974388, 0.09600000455975533, -0.04800000227987766, 1.008000047877431, 0.0, 0.0, 0.0, 0.0, 0.0, 1.706389488551347E9, 0.0, 2024-01-27 16:04:48.551
28.0, -298.4739356637001, -374.82773315906525, -324.80283135175705, -168.2655788064003, 0.09600000455975533, -0.04800000227987766, 1.008000047877431, 0.0, 0.0, 0.0, 0.0, 0.0, 1.7063894885520627E9, 0.0, 2024-01-27 16:04:48.552
28.0, -356.63685977458954, -373.15225797891617, -320.73382019996643, -155.34048455953598, 0.09600000455975533, -0.04800000227987766, 1.008000047877431, 0.0, 0.0, 0.0, 0.0, 0.0, 1.7063894885520627E9, 0.0, 2024-01-27 16:04:48.552
29.0, -449.027348279953, -362.86005330085754, -281.00112307071686, -230.2581604719162, 0.09600000455975533, -0.04800000227987766, 1.008000047877431, 0.0, 0.0, 0.0, 0.0, 0.0, 1.7063894885656698E9, 0.0, 2024-01-27 16:04:48.565
29.0, -332.46214646101, -368.8438932299614, -305.8938971757889, -193.15835291147232, 0.09600000455975533, -0.04800000227987766, 1.008000047877431, 0.0, 0.0, 0.0, 0.0, 0.0, 1.7063894885656698E9, 0.0, 2024-01-27 16:04:48.565
30.0, -331.98343926668167, -386.79541301727295, -339.6427543759346, -150.5534126162529, 0.09600000455975533, -0.04800000227987766, 1.008000047877431, 0.0, 0.0, 0.0, 0.0, 0.0, 1.7063894885815284E9, 0.0, 2024-01-27 16:04:48.581
30.0, -441.6073867678642, -370.5193684101105, -292.01138854026794, -210.87051910161972, 0.09600000455975533, -0.04800000227987766, 1.008000047877431, 0.0, 0.0, 0.0, 0.0, 0.0, 1.7063894885815284E9, 0.0, 2024-01-27 16:04:48.581
31.0, -390.1463633775711, -371.9554899930954, -292.96880292892456, -219.00854140520096, 0.09600000455975533, -0.04800000227987766, 1.008000047877431, 0.0, 0.0, 0.0, 0.0, 0.0, 1.7063894885823739E9, 0.0, 2024-01-27 16:04:48.582
31.0, -303.97906839847565, -389.42830258607864, -341.55758315324783, -162.9997996687889, 0.09600000455975533, -0.04800000227987766, 1.008000047877431, 0.0, 0.0, 0.0, 0.0, 0.0, 1.7063894885823739E9, 0.0, 2024-01-27 16:04:48.582
32.0, -414.32107669115067, -374.34902596473694, -307.3300187587738, -194.59447449445724, 0.09600000455975533, -0.04800000227987766, 1.008000047877431, 0.0, 0.0, 0.0, 0.0, 0.0, 1.706389488595657E9, 0.0, 2024-01-27 16:04:48.595
32.0, -425.5706957578659, -364.0568212866783, -291.2933277487755, -239.35359716415405, 0.09600000455975533, -0.04800000227987766, 1.008000047877431, 0.0, 0.0, 0.0, 0.0, 0.0, 1.706389488595657E9, 0.0, 2024-01-27 16:04:48.595
33.0, -302.0642396211624, -376.98191553354263, -326.4783065319061, -168.7442860007286, 0.09600000455975533, -0.04800000227987766, 1.008000047877431, 0.0, 0.0, 0.0, 0.0, 0.0, 1.7063894886114564E9, 0.0, 2024-01-27 16:04:48.611
33.0, -367.6471252441406, -380.57221949100494, -323.84541696310043, -163.23915326595306, 0.09600000455975533, -0.04800000227987766, 1.008000047877431, 0.0, 0.0, 0.0, 0.0, 0.0, 1.7063894886114564E9, 0.0, 2024-01-27 16:04:48.611
34.0, -451.89959144592285, -364.0568212866783, -280.2830622792244, -233.3697572350502, 0.09600000455975533, -0.04800000227987766, 1.008000047877431, 0.0, 0.0, 0.0, 0.0, 0.0, 1.7063894886121616E9, 0.0, 2024-01-27 16:04:48.612
34.0, -335.81309682130814, -369.3226004242897, -303.7397148013115, -196.74865686893463, 0.09600000455975533, -0.04800000227987766, 1.008000047877431, 0.0, 0.0, 0.0, 0.0, 0.0, 1.7063894886121616E9, 0.0, 2024-01-27 16:04:48.612
35.0, -328.39313530921936, -384.4018770456314, -333.8982680439949, -150.79276621341705, 0.09600000455975533, -0.04800000227987766, 1.008000047877431, 0.0, 0.0, 0.0, 0.0, 0.0, 1.7063894886259527E9, 0.0, 2024-01-27 16:04:48.625
35.0, -444.9583371281624, -367.6471252441406, -289.85720616579056, -211.82793349027634, 0.09600000455975533, -0.04800000227987766, 1.008000047877431, 0.0, 0.0, 0.0, 0.0, 0.0, 1.7063894886259527E9, 0.0, 2024-01-27 16:04:48.625
36.0, -381.7689874768257, -364.0568212866783, -290.575266957283, -219.2478950023651, 0.09600000455975533, -0.04800000227987766, 1.008000047877431, 0.0, 0.0, 0.0, 0.0, 0.0, 1.70638948864137E9, 0.0, 2024-01-27 16:04:48.641
36.0, -303.2610076069832, -390.1463633775711, -338.44598639011383, -157.2553133368492, 0.09600000455975533, -0.04800000227987766, 1.008000047877431, 0.0, 0.0, 0.0, 0.0, 0.0, 1.70638948864137E9, 0.0, 2024-01-27 16:04:48.641
37.0, -427.48552453517914, -391.8218385577202, -320.4944666028023, -201.29637521505356, 0.09600000455975533, -0.04800000227987766, 1.008000047877431, 0.0, 0.0, 0.0, 0.0, 0.0, 1.7063894886420445E9, 0.0, 2024-01-27 16:04:48.642
37.0, -436.82031482458115, -373.6309651732445, -284.8307806253433, -233.13040363788605, 0.09600000455975533, -0.04800000227987766, 1.008000047877431, 0.0, 0.0, 0.0, 0.0, 0.0, 1.7063894886420445E9, 0.0, 2024-01-27 16:04:48.642
38.0, -301.5855324268341, -380.57221949100494, -327.6750745177269, -170.18040758371353, 0.09600000455975533, -0.04800000227987766, 1.008000047877431, 0.0, 0.0, 0.0, 0.0, 0.0, 1.7063894886556356E9, 0.0, 2024-01-27 16:04:48.655
38.0, -352.5678486227989, -371.71613639593124, -324.5634777545929, -164.675274848938, 0.09600000455975533, -0.04800000227987766, 1.008000047877431, 0.0, 0.0, 0.0, 0.0, 0.0, 1.7063894886556356E9, 0.0, 2024-01-27 16:04:48.655
39.0, -450.4634698629379, -363.33876049518585, -282.1978910565376, -233.3697572350502, 0.09600000455975533, -0.04800000227987766, 1.008000047877431, 0.0, 0.0, 0.0, 0.0, 0.0, 1.706389488671373E9, 0.0, 2024-01-27 16:04:48.671
39.0, -329.58990329504013, -369.801307618618, -309.24484753608704, -201.29637521505356, 0.09600000455975533, -0.04800000227987766, 1.008000047877431, 0.0, 0.0, 0.0, 0.0, 0.0, 1.706389488671373E9, 0.0, 2024-01-27 16:04:48.671
40.0, -319.2976986169815, -384.64123064279556, -334.13762164115906, -153.1863021850586, 0.09600000455975533, -0.04800000227987766, 1.008000047877431, 0.0, 0.0, 0.0, 0.0, 0.0, 1.7063894886720333E9, 0.0, 2024-01-27 16:04:48.672
40.0, -435.6235468387604, -363.57811409235, -290.33591336011887, -216.37565183639526, 0.09600000455975533, -0.04800000227987766, 1.008000047877431, 0.0, 0.0, 0.0, 0.0, 0.0, 1.7063894886720333E9, 0.0, 2024-01-27 16:04:48.672
41.0, -373.3916115760803, -358.3123349547386, -284.352073431015, -213.0247014760971, 0.09600000455975533, -0.04800000227987766, 1.008000047877431, 0.0, 0.0, 0.0, 0.0, 0.0, 1.7063894886859372E9, 0.0, 2024-01-27 16:04:48.685
41.0, -297.0378140807152, -383.4444626569748, -337.9672791957855, -154.1437165737152, 0.09600000455975533, -0.04800000227987766, 1.008000047877431, 0.0, 0.0, 0.0, 0.0, 0.0, 1.7063894886859372E9, 0.0, 2024-01-27 16:04:48.685
42.0, -406.9011151790619, -373.3916115760803, -308.5267867445946, -188.13192737102509, 0.09600000455975533, -0.04800000227987766, 1.008000047877431, 0.0, 0.0, 0.0, 0.0, 0.0, 1.7063894887013383E9, 0.0, 2024-01-27 16:04:48.701
42.0, -417.1933198571205, -364.7748820781708, -278.84694069623947, -229.54009968042374, 0.09600000455975533, -0.04800000227987766, 1.008000047877431, 0.0, 0.0, 0.0, 0.0, 0.0, 1.7063894887013383E9, 0.0, 2024-01-27 16:04:48.701
43.0, -300.86747163534164, -380.3328658938408, -325.5208921432495, -174.01006513834, 0.09600000455975533, -0.04800000227987766, 1.008000047877431, 0.0, 0.0, 0.0, 0.0, 0.0, 1.7063894887020495E9, 0.0, 2024-01-27 16:04:48.702
43.0, -354.96138459444046, -370.9980756044388, -321.21252739429474, -161.08497089147568, 0.09600000455975533, -0.04800000227987766, 1.008000047877431, 0.0, 0.0, 0.0, 0.0, 0.0, 1.7063894887020495E9, 0.0, 2024-01-27 16:04:48.702
44.0, -439.93191158771515, -356.3975061774254, -272.62374716997147, -224.9923813343048, 0.09600000455975533, -0.04800000227987766, 1.008000047877431, 0.0, 0.0, 0.0, 0.0, 0.0, 1.7063894887156675E9, 0.0, 2024-01-27 16:04:48.715
44.0, -335.3343896269798, -369.801307618618, -309.72355473041534, -190.52546334266663, 0.09600000455975533, -0.04800000227987766, 1.008000047877431, 0.0, 0.0, 0.0, 0.0, 0.0, 1.7063894887156675E9, 0.0, 2024-01-27 16:04:48.715
45.0, -335.81309682130814, -393.01860654354095, -336.77051120996475, -151.51082700490952, 0.09600000455975533, -0.04800000227987766, 1.008000047877431, 0.0, 0.0, 0.0, 0.0, 0.0, 1.7063894887313263E9, 0.0, 2024-01-27 16:04:48.731
45.0, -461.71308892965317, -379.6148051023483, -296.798460483551, -220.20530939102173, 0.09600000455975533, -0.04800000227987766, 1.008000047877431, 0.0, 0.0, 0.0, 0.0, 0.0, 1.7063894887313263E9, 0.0, 2024-01-27 16:04:48.731
46.0, -388.7102417945862, -369.56195402145386, -291.53268134593964, -216.61500543355942, 0.09600000455975533, -0.04800000227987766, 1.008000047877431, 0.0, 0.0, 0.0, 0.0, 0.0, 1.7063894887320468E9, 0.0, 2024-01-27 16:04:48.732
46.0, -297.75587487220764, -385.359291434288, -333.8982680439949, -156.05854535102844, 0.09600000455975533, -0.04800000227987766, 1.008000047877431, 0.0, 0.0, 0.0, 0.0, 0.0, 1.7063894887320468E9, 0.0, 2024-01-27 16:04:48.732
47.0, -412.88495510816574, -375.5457939505577, -314.98933386802673, -192.679645717144, 0.09600000455975533, -0.04800000227987766, 1.008000047877431, 0.0, 0.0, 0.0, 0.0, 0.0, 1.7063894887459092E9, 0.0, 2024-01-27 16:04:48.745
47.0, -426.28875654935837, -363.81746768951416, -279.0862942934036, -228.82203888893127, 0.09600000455975533, -0.04800000227987766, 1.008000047877431, 0.0, 0.0, 0.0, 0.0, 0.0, 1.7063894887459092E9, 0.0, 2024-01-27 16:04:48.745
48.0, -308.04807955026627, -383.4444626569748, -327.1963673233986, -165.6326892375946, 0.09600000455975533, -0.04800000227987766, 1.008000047877431, 0.0, 0.0, 0.0, 0.0, 0.0, 1.7063894887619803E9, 0.0, 2024-01-27 16:04:48.761
48.0, -375.0670867562294, -395.17278891801834, -324.80283135175705, -168.02622520923615, 0.09600000455975533, -0.04800000227987766, 1.008000047877431, 0.0, 0.0, 0.0, 0.0, 0.0, 1.7063894887619803E9, 0.0, 2024-01-27 16:04:48.761
49.0, -472.4840008020401, -383.20510905981064, -286.9849629998207, -242.2258403301239, 0.09600000455975533, -0.04800000227987766, 1.008000047877431, 0.0, 0.0, 0.0, 0.0, 0.0, 1.7063894887620547E9, 0.0, 2024-01-27 16:04:48.762
49.0, -347.30206948518753, -392.3005457520485, -324.80283135175705, -210.63116550445557, 0.09600000455975533, -0.04800000227987766, 1.008000047877431, 0.0, 0.0, 0.0, 0.0, 0.0, 1.7063894887620547E9, 0.0, 2024-01-27 16:04:48.762
50.0, -316.90416264533997, -388.94959539175034, -340.6001687645912, -157.97337412834167, 0.09600000455975533, -0.04800000227987766, 1.008000047877431, 0.0, 0.0, 0.0, 0.0, 0.0, 1.706389488775679E9, 0.0, 2024-01-27 16:04:48.775
50.0, -433.9480716586113, -365.49294286966324, -288.6604381799698, -215.6575910449028, 0.09600000455975533, -0.04800000227987766, 1.008000047877431, 0.0, 0.0, 0.0, 0.0, 0.0, 1.706389488775679E9, 0.0, 2024-01-27 16:04:48.775
51.0, -358.55168855190277, -350.1743126511574, -288.42108458280563, -223.07755255699158, 0.09600000455975533, -0.04800000227987766, 1.008000047877431, 0.0, 0.0, 0.0, 0.0, 0.0, 1.7063894887913468E9, 0.0, 2024-01-27 16:04:48.791
51.0, -258.5018849372864, -359.74845653772354, -315.94674825668335, -149.83535182476044, 0.09600000455975533, -0.04800000227987766, 1.008000047877431, 0.0, 0.0, 0.0, 0.0, 0.0, 1.7063894887913468E9, 0.0, 2024-01-27 16:04:48.791
52.0, -373.3916115760803, -355.2007381916046, -299.6707036495209, -184.54162341356277, 0.09600000455975533, -0.04800000227987766, 1.008000047877431, 0.0, 0.0, 0.0, 0.0, 0.0, 1.7063894887920372E9, 0.0, 2024-01-27 16:04:48.792
52.0, -386.0773522257805, -345.62659430503845, -275.73534393310547, -228.82203888893127, 0.09600000455975533, -0.04800000227987766, 1.008000047877431, 0.0, 0.0, 0.0, 0.0, 0.0, 1.7063894887920372E9, 0.0, 2024-01-27 16:04:48.792
53.0, -266.6399072408676, -357.8336277604103, -309.24484753608704, -164.43592125177383, 0.09600000455975533, -0.04800000227987766, 1.008000047877431, 0.0, 0.0, 0.0, 0.0, 0.0, 1.7063894888222113E9, 0.0, 2024-01-27 16:04:48.822
53.0, -332.46214646101, -358.3123349547386, -308.7661403417587, -160.12755650281906, 0.09600000455975533, -0.04800000227987766, 1.008000047877431, 0.0, 0.0, 0.0, 0.0, 0.0, 1.7063894888222113E9, 0.0, 2024-01-27 16:04:48.822
54.0, -417.6720270514488, -343.7117655277252, -265.92184644937515, -225.71044212579727, 0.09600000455975533, -0.04800000227987766, 1.008000047877431, 0.0, 0.0, 0.0, 0.0, 0.0, 1.7063894888228364E9, 0.0, 2024-01-27 16:04:48.822
54.0, -292.2507421374321, -343.7117655277252, -288.6604381799698, -182.14808744192123, 0.09600000455975533, -0.04800000227987766, 1.008000047877431, 0.0, 0.0, 0.0, 0.0, 0.0, 1.7063894888228364E9, 0.0, 2024-01-27 16:04:48.822
55.0, -286.26690220832825, -353.0465558171272, -321.21252739429474, -143.85151189565659, 0.09600000455975533, -0.04800000227987766, 1.008000047877431, 0.0, 0.0, 0.0, 0.0, 0.0, 1.7063894888235204E9, 0.0, 2024-01-27 16:04:48.823
55.0, -411.9275407195091, -348.02013027668, -279.8043550848961, -213.74276226758957, 0.09600000455975533, -0.04800000227987766, 1.008000047877431, 0.0, 0.0, 0.0, 0.0, 0.0, 1.7063894888235204E9, 0.0, 2024-01-27 16:04:48.823
56.0, -352.32849502563477, -355.6794453859329, -288.42108458280563, -217.33306622505188, 0.09600000455975533, -0.04800000227987766, 1.008000047877431, 0.0, 0.0, 0.0, 0.0, 0.0, 1.7063894888358483E9, 0.0, 2024-01-27 16:04:48.835
56.0, -272.62374716997147, -375.30644035339355, -330.7866712808609, -160.12755650281906, 0.09600000455975533, -0.04800000227987766, 1.008000047877431, 0.0, 0.0, 0.0, 0.0, 0.0, 1.7063894888358483E9, 0.0, 2024-01-27 16:04:48.835
57.0, -387.5134738087654, -364.0568212866783, -309.72355473041534, -192.2009385228157, 0.09600000455975533, -0.04800000227987766, 1.008000047877431, 0.0, 0.0, 0.0, 0.0, 0.0, 1.7063894888516212E9, 0.0, 2024-01-27 16:04:48.851
57.0, -399.4811536669731, -349.4562518596649, -282.9159518480301, -235.04523241519928, 0.09600000455975533, -0.04800000227987766, 1.008000047877431, 0.0, 0.0, 0.0, 0.0, 0.0, 1.7063894888516212E9, 0.0, 2024-01-27 16:04:48.851
58.0, -285.30948781967163, -375.5457939505577, -328.87184250354767, -177.36101549863815, 0.09600000455975533, -0.04800000227987766, 1.008000047877431, 0.0, 0.0, 0.0, 0.0, 0.0, 1.7063894888521628E9, 0.0, 2024-01-27 16:04:48.852
58.0, -345.14788711071014, -376.024501144886, -320.73382019996643, -169.46234679222107, 0.09600000455975533, -0.04800000227987766, 1.008000047877431, 0.0, 0.0, 0.0, 0.0, 0.0, 1.7063894888521628E9, 0.0, 2024-01-27 16:04:48.852
59.0, -438.0170828104019, -363.0994068980217, -282.9159518480301, -239.83230435848236, 0.09600000455975533, -0.04800000227987766, 1.008000047877431, 0.0, 0.0, 0.0, 0.0, 0.0, 1.7063894888656E9, 0.0, 2024-01-27 16:04:48.865
59.0, -327.1963673233986, -379.8541586995125, -320.73382019996643, -205.84409356117249, 0.09600000455975533, -0.04800000227987766, 1.008000047877431, 0.0, 0.0, 0.0, 0.0, 0.0, 1.7063894888656E9, 0.0, 2024-01-27 16:04:48.865
60.0, -323.3667097687721, -396.13020330667496, -341.55758315324783, -168.98363959789276, 0.09600000455975533, -0.04800000227987766, 1.008000047877431, 0.0, 0.0, 0.0, 0.0, 0.0, 1.7063894888817368E9, 0.0, 2024-01-27 16:04:48.881
60.0, -442.804154753685, -381.52963387966156, -303.50036120414734, -227.1465637087822, 0.09600000455975533, -0.04800000227987766, 1.008000047877431, 0.0, 0.0, 0.0, 0.0, 0.0, 1.7063894888817368E9, 0.0, 2024-01-27 16:04:48.881
61.0, -373.6309651732445, -370.2800148129463, -296.55910688638687, -229.7794532775879, 0.09600000455975533, -0.04800000227987766, 1.008000047877431, 0.0, 0.0, 0.0, 0.0, 0.0, 1.70638948888208E9, 0.0, 2024-01-27 16:04:48.882
61.0, -281.00112307071686, -379.8541586995125, -342.03629034757614, -163.47850686311722, 0.09600000455975533, -0.04800000227987766, 1.008000047877431, 0.0, 0.0, 0.0, 0.0, 0.0, 1.70638948888208E9, 0.0, 2024-01-27 16:04:48.882
62.0, -406.66176158189774, -377.6999763250351, -317.6222234368324, -201.5357288122177, 0.09600000455975533, -0.04800000227987766, 1.008000047877431, 0.0, 0.0, 0.0, 0.0, 0.0, 1.7063894888956823E9, 0.0, 2024-01-27 16:04:48.895
62.0, -415.51784467697144, -367.40777164697647, -287.463670194149, -243.90131551027298, 0.09600000455975533, -0.04800000227987766, 1.008000047877431, 0.0, 0.0, 0.0, 0.0, 0.0, 1.7063894888956823E9, 0.0, 2024-01-27 16:04:48.895
63.0, -295.60169249773026, -385.359291434288, -333.18020725250244, -179.51519787311554, 0.09600000455975533, -0.04800000227987766, 1.008000047877431, 0.0, 0.0, 0.0, 0.0, 0.0, 1.7063894889113362E9, 0.0, 2024-01-27 16:04:48.911
63.0, -368.60453963279724, -394.69408172369003, -339.88210797309875, -181.19067305326462, 0.09600000455975533, -0.04800000227987766, 1.008000047877431, 0.0, 0.0, 0.0, 0.0, 0.0, 1.7063894889113362E9, 0.0, 2024-01-27 16:04:48.911
64.0, -465.0640392899513, -390.6250705718994, -306.61195796728134, -262.0921888947487, 0.09600000455975533, -0.04800000227987766, 1.008000047877431, 0.0, 0.0, 0.0, 0.0, 0.0, 1.706389488912074E9, 0.0, 2024-01-27 16:04:48.912
