%OpenBCI Raw EXG Data
%Number of channels = 4
%Sample Rate = 200 Hz
%Board = OpenBCI_GUI$BoardGanglionBLE
Sample Index, EXG Channel 0, EXG Channel 1, EXG Channel 2, EXG Channel 3, Accel Channel 0, Accel Channel 1, Accel Channel 2, Other, Other, Other, Other, Other, Timestamp, Other, Timestamp (Formatted)
89.0, 101.48592519760132, 136.91025757789612, -509.10510116815567, -257.54447054862976, 0.0, 0.0, 0.0, 0.0, 0.0, 0.0, 0.0, 0.0, 1.7052649808493595E9, 0.0, 2024-01-14 15:43:00.849
89.0, 0.0, 0.0, 0.0, 0.0, 0.0, 0.0, 0.0, 0.0, 0.0, 0.0, 0.0, 0.0, 1.7052649808493595E9, 0.0, 2024-01-14 15:43:00.849
0.0, 185.4990378022194, 263.28895688056946, 236.9600611925125, 319.53705221414566, 0.0, 0.0, -0.9760000463575125, 0.0, 0.0, 0.0, 0.0, 0.0, 1.705264980889599E9, 0.0, 2024-01-14 15:43:00.889
0.0, 59.83839929103851, -360.466517329216, -252.99675220251083, -368.12583243846893, 0.0, 0.0, -0.9760000463575125, 0.0, 0.0, 0.0, 0.0, 0.0, 1.705264980889599E9, 0.0, 2024-01-14 15:43:00.889
1.0, -98.13497483730316, -45.47718346118927, 35.4243323802948, 31.83402842283249, 0.0, 0.9760000463575125, -0.9760000463575125, 0.0, 0.0, 0.0, 0.0, 0.0, 1.705264980904164E9, 0.0, 2024-01-14 15:43:00.904
1.0, 111.29942268133163, 432.2725964784622, 355.9187989830971, 530.1682177186012, 0.0, 0.9760000463575125, -0.9760000463575125, 0.0, 0.0, 0.0, 0.0, 0.0, 1.705264980904164E9, 0.0, 2024-01-14 15:43:00.904
2.0, 92.39048850536346, -226.42850291728973, -208.71633672714233, -222.83819895982742, 0.9760000463575125, 0.9760000463575125, -0.9760000463575125, 0.0, 0.0, 0.0, 0.0, 0.0, 1.7052649809187648E9, 0.0, 2024-01-14 15:43:00.918
2.0, -50.26425540447235, -192.91899931430817, -114.41101944446564, -146.72375506162643, 0.9760000463575125, 0.9760000463575125, -0.9760000463575125, 0.0, 0.0, 0.0, 0.0, 0.0, 1.7052649809187648E9, 0.0, 2024-01-14 15:43:00.918
3.0, -25.850188493728638, 347.78077667951584, 307.09066516160965, 438.25643640756607, 0.9760000463575125, 0.9760000463575125, -0.9760000463575125, 0.0, 0.0, 0.0, 0.0, 0.0, 1.705264980919488E9, 0.0, 2024-01-14 15:43:00.919
3.0, 121.11292016506195, 13.643155038356781, -33.50950360298157, 29.679846048355103, 0.9760000463575125, 0.9760000463575125, -0.9760000463575125, 0.0, 0.0, 0.0, 0.0, 0.0, 1.705264980919488E9, 0.0, 2024-01-14 15:43:00.919
4.0, 1.4361215829849243, -352.8072022199631, -274.5385759472847, -353.2859094142914, 0.9760000463575125, 0.9760000463575125, -0.9760000463575125, 0.0, 0.0, 0.0, 0.0, 0.0, 1.7052649809332306E9, 0.0, 2024-01-14 15:43:00.933
4.0, -135.71348959207535, 113.45360505580902, 166.59010362625122, 205.60473996400833, 0.9760000463575125, 0.9760000463575125, -0.9760000463575125, 0.0, 0.0, 0.0, 0.0, 0.0, 1.7052649809332306E9, 0.0, 2024-01-14 15:43:00.933
5.0, 149.35664463043213, 258.9805921316147, 200.5783144235611, 305.6545435786247, 0.9760000463575125, 0.9760000463575125, -0.9760000463575125, 0.0, 0.0, 0.0, 0.0, 0.0, 1.705264980948703E9, 0.0, 2024-01-14 15:43:00.948
5.0, 61.27452087402344, -327.43572092056274, -266.87926083803177, -356.15815258026123, 0.9760000463575125, 0.9760000463575125, -0.9760000463575125, 0.0, 0.0, 0.0, 0.0, 0.0, 1.705264980948703E9, 0.0, 2024-01-14 15:43:00.948
6.0, -108.42717951536179, -38.29657554626465, 40.21140432357788, 11.24961906671524, 0.9760000463575125, 0.9760000463575125, -0.9760000463575125, 0.0, 0.0, 0.0, 0.0, 0.0, 1.7052649809494443E9, 0.0, 2024-01-14 15:43:00.949
6.0, 84.97052699327469, 424.85263496637344, 364.0568212866783, 487.80263102054596, 0.9760000463575125, 0.9760000463575125, -0.9760000463575125, 0.0, 0.0, 0.0, 0.0, 0.0, 1.7052649809494443E9, 0.0, 2024-01-14 15:43:00.949
7.0, 93.10854929685593, -191.2435241341591, -182.3874410390854, -238.6355363726616, 0.9760000463575125, 0.9760000463575125, -0.9760000463575125, 0.0, 0.0, 0.0, 0.0, 0.0, 1.705264980963002E9, 0.0, 2024-01-14 15:43:00.963
7.0, -68.69448238611221, -167.786871612072, -83.77375900745392, -166.59010362625122, 0.9760000463575125, 0.9760000463575125, -0.9760000463575125, 0.0, 0.0, 0.0, 0.0, 0.0, 1.705264980963002E9, 0.0, 2024-01-14 15:43:00.963
8.0, -39.97205072641373, 379.6148051023483, 328.6324889063835, 421.9803918004036, 0.9760000463575125, 0.9760000463575125, -0.9760000463575125, 0.0, 0.0, 0.0, 0.0, 0.0, 1.7052649809786072E9, 0.0, 2024-01-14 15:43:00.978
8.0, 101.96463239192963, 30.876614034175873, 10.770911872386932, -0.4787071943283081, 0.9760000463575125, 0.9760000463575125, -0.9760000463575125, 0.0, 0.0, 0.0, 0.0, 0.0, 1.7052649809786072E9, 0.0, 2024-01-14 15:43:00.978
9.0, -26.08954209089279, -325.9995993375778, -239.35359716415405, -381.2902802824974, 0.9760000463575125, 0.9760000463575125, -0.9760000463575125, 0.0, 0.0, 0.0, 0.0, 0.0, 1.7052649809793344E9, 0.0, 2024-01-14 15:43:00.979
9.0, -154.62242376804352, 162.5210924744606, 199.86025363206863, 193.87641370296478, 0.9760000463575125, 0.9760000463575125, -0.9760000463575125, 0.0, 0.0, 0.0, 0.0, 0.0, 1.7052649809793344E9, 0.0, 2024-01-14 15:43:00.979
10.0, 120.15550577640533, 320.73382019996643, 228.1039780974388, 279.0862942934036, 0.9760000463575125, 0.9760000463575125, -0.4800000227987766, 0.0, 0.0, 0.0, 0.0, 0.0, 1.7052649809932027E9, 0.0, 2024-01-14 15:43:00.993
10.0, 29.44049245119095, -307.56937235593796, -245.09808349609375, -387.9921810030937, 0.9760000463575125, 0.9760000463575125, -0.4800000227987766, 0.0, 0.0, 0.0, 0.0, 0.0, 1.7052649809932027E9, 0.0, 2024-01-14 15:43:00.993
11.0, -112.25683706998825, -11.488972663879395, 47.15265864133835, 11.488972663879395, 0.9760000463575125, 0.4800000227987766, -0.4800000227987766, 0.0, 0.0, 0.0, 0.0, 0.0, 1.7052649810089731E9, 0.0, 2024-01-14 15:43:01.008
11.0, 60.556460082530975, 465.3033928871155, 374.34902596473694, 492.8290565609932, 0.9760000463575125, 0.4800000227987766, -0.4800000227987766, 0.0, 0.0, 0.0, 0.0, 0.0, 1.7052649810089731E9, 0.0, 2024-01-14 15:43:01.008
12.0, 80.18345504999161, -175.92489391565323, -186.456452190876, -252.99675220251083, 0.4800000227987766, 0.4800000227987766, -0.4800000227987766, 0.0, 0.0, 0.0, 0.0, 0.0, 1.7052649810095232E9, 0.0, 2024-01-14 15:43:01.009
12.0, -70.36995756626129, -133.55930721759796, -92.62984210252762, -157.2553133368492, 0.4800000227987766, 0.4800000227987766, -0.4800000227987766, 0.0, 0.0, 0.0, 0.0, 0.0, 1.7052649810095232E9, 0.0, 2024-01-14 15:43:01.009
13.0, -43.56235468387604, 376.7425619363785, 322.8880025744438, 419.8262094259262, 0.4800000227987766, 0.4800000227987766, -0.4800000227987766, 0.0, 0.0, 0.0, 0.0, 0.0, 1.7052649810232697E9, 0.0, 2024-01-14 15:43:01.023
13.0, 98.61368203163147, 24.17471331357956, -31.35532122850418, -7.65931510925293, 0.4800000227987766, 0.4800000227987766, -0.4800000227987766, 0.0, 0.0, 0.0, 0.0, 0.0, 1.7052649810232697E9, 0.0, 2024-01-14 15:43:01.023
14.0, 13.882508635520935, -302.7823004126549, -276.45340472459793, -366.45035725831985, 0.4800000227987766, 0.4800000227987766, -0.4800000227987766, 0.0, 0.0, 0.0, 0.0, 0.0, 1.7052649810386195E9, 0.0, 2024-01-14 15:43:01.038
14.0, -138.82508635520935, 122.07033455371857, 162.76044607162476, 194.11576730012894, 0.4800000227987766, 0.4800000227987766, -0.4800000227987766, 0.0, 0.0, 0.0, 0.0, 0.0, 1.7052649810386195E9, 0.0, 2024-01-14 15:43:01.038
15.0, 161.80303168296814, 294.8836317062378, 205.36538636684418, 305.6545435786247, 0.4800000227987766, 0.4800000227987766, -0.4800000227987766, 0.0, 0.0, 0.0, 0.0, 0.0, 1.7052649810393426E9, 0.0, 2024-01-14 15:43:01.039
15.0, 66.30094641447067, -291.53268134593964, -283.3946590423584, -367.40777164697647, 0.4800000227987766, 0.4800000227987766, -0.4800000227987766, 0.0, 0.0, 0.0, 0.0, 0.0, 1.7052649810393426E9, 0.0, 2024-01-14 15:43:01.039
16.0, -101.48592519760132, -32.07338201999664, 36.860453963279724, 11.728326261043549, 0.4800000227987766, 0.4800000227987766, -0.4800000227987766, 0.0, 0.0, 0.0, 0.0, 0.0, 1.7052649810529711E9, 0.0, 2024-01-14 15:43:01.052
16.0, 91.91178131103516, 447.5912266969681, 358.55168855190277, 481.8187910914421, 0.4800000227987766, 0.4800000227987766, -0.4800000227987766, 0.0, 0.0, 0.0, 0.0, 0.0, 1.7052649810529711E9, 0.0, 2024-01-14 15:43:01.052
17.0, 96.45949965715408, -180.233258664608, -189.0893417596817, -242.46519392728806, 0.4800000227987766, 0.4800000227987766, -0.4800000227987766, 0.0, 0.0, 0.0, 0.0, 0.0, 1.7052649810686548E9, 0.0, 2024-01-14 15:43:01.068
17.0, -55.290680944919586, -171.8558827638626, -105.31558275222778, -182.8661482334137, 0.4800000227987766, 0.4800000227987766, -0.4800000227987766, 0.0, 0.0, 0.0, 0.0, 0.0, 1.7052649810686548E9, 0.0, 2024-01-14 15:43:01.068
18.0, -22.738591730594635, 374.34902596473694, 316.90416264533997, 408.57659035921097, 0.4800000227987766, 0.4800000227987766, -0.4800000227987766, 0.0, 0.0, 0.0, 0.0, 0.0, 1.705264981069345E9, 0.0, 2024-01-14 15:43:01.069
18.0, 97.65626764297485, 43.32300108671188, -15.797337412834167, -12.925094246864319, 0.4800000227987766, 0.4800000227987766, -0.4800000227987766, 0.0, 0.0, 0.0, 0.0, 0.0, 1.705264981069345E9, 0.0, 2024-01-14 15:43:01.069
19.0, -13.882508635520935, -318.10093063116074, -267.3579680323601, -400.6779216527939, 0.4800000227987766, 0.4800000227987766, -0.4800000227987766, 0.0, 0.0, 0.0, 0.0, 0.0, 1.7052649810830045E9, 0.0, 2024-01-14 15:43:01.083
19.0, -140.02185434103012, 165.39333564043045, 163.71786046028137, 183.58420902490616, 0.4800000227987766, 0.4800000227987766, -0.4800000227987766, 0.0, 0.0, 0.0, 0.0, 0.0, 1.7052649810830045E9, 0.0, 2024-01-14 15:43:01.083
20.0, 111.29942268133163, 303.50036120414734, 198.90283924341202, 237.43876838684082, 0.4800000227987766, 0.4800000227987766, -0.7360000349581242, 0.0, 0.0, 0.0, 0.0, 0.0, 1.7052649810986269E9, 0.0, 2024-01-14 15:43:01.098
20.0, 34.22756439447403, -281.240476667881, -290.33591336011887, -403.0714576244354, 0.4800000227987766, 0.4800000227987766, -0.7360000349581242, 0.0, 0.0, 0.0, 0.0, 0.0, 1.7052649810986269E9, 0.0, 2024-01-14 15:43:01.098
21.0, -113.93231225013733, 6.223193526268005, 22.020530939102173, -11.967679858207703, 0.4800000227987766, 0.7360000349581242, -0.7360000349581242, 0.0, 0.0, 0.0, 0.0, 0.0, 1.7052649810993261E9, 0.0, 2024-01-14 15:43:01.099
21.0, 50.503609001636505, 478.7071943283081, 370.2800148129463, 465.3033928871155, 0.4800000227987766, 0.7360000349581242, -0.7360000349581242, 0.0, 0.0, 0.0, 0.0, 0.0, 1.7052649810993261E9, 0.0, 2024-01-14 15:43:01.099
22.0, 62.71064245700836, -170.18040758371353, -173.77071154117584, -272.62374716997147, 0.7360000349581242, 0.7360000349581242, -0.7360000349581242, 0.0, 0.0, 0.0, 0.0, 0.0, 1.7052649811137064E9, 0.0, 2024-01-14 15:43:01.113
22.0, -75.63573670387268, -144.56957268714905, -96.69885325431824, -178.55778348445892, 0.7360000349581242, 0.7360000349581242, -0.7360000349581242, 0.0, 0.0, 0.0, 0.0, 0.0, 1.7052649811137064E9, 0.0, 2024-01-14 15:43:01.113
23.0, -21.78117734193802, 406.4224079847336, 324.32412415742874, 434.18742525577545, 0.7360000349581242, 0.7360000349581242, -0.7360000349581242, 0.0, 0.0, 0.0, 0.0, 0.0, 1.705264981128924E9, 0.0, 2024-01-14 15:43:01.128
23.0, 64.38611763715744, 30.63726043701172, -26.08954209089279, -26.08954209089279, 0.7360000349581242, 0.7360000349581242, -0.7360000349581242, 0.0, 0.0, 0.0, 0.0, 0.0, 1.705264981128924E9, 0.0, 2024-01-14 15:43:01.128
24.0, -54.81197375059128, -373.15225797891617, -280.04370868206024, -427.00681734085083, 0.7360000349581242, 0.7360000349581242, -0.7360000349581242, 0.0, 0.0, 0.0, 0.0, 0.0, 1.7052649811293516E9, 0.0, 2024-01-14 15:43:01.129
24.0, -138.82508635520935, 146.24504786729813, 160.12755650281906, 208.71633672714233, 0.7360000349581242, 0.7360000349581242, -0.7360000349581242, 0.0, 0.0, 0.0, 0.0, 0.0, 1.7052649811293516E9, 0.0, 2024-01-14 15:43:01.129
25.0, 146.72375506162643, 311.87773710489273, 203.6899111866951, 301.1068252325058, 0.7360000349581242, 0.7360000349581242, -0.7360000349581242, 0.0, 0.0, 0.0, 0.0, 0.0, 1.7052649811432505E9, 0.0, 2024-01-14 15:43:01.143
25.0, -1.1967679858207703, -362.6206997036934, -295.8410460948944, -429.40035331249237, 0.7360000349581242, 0.7360000349581242, -0.7360000349581242, 0.0, 0.0, 0.0, 0.0, 0.0, 1.7052649811432505E9, 0.0, 2024-01-14 15:43:01.143
26.0, -106.03364354372025, -17.233458995819092, 28.96178525686264, 4.547718346118927, 0.7360000349581242, 0.7360000349581242, -0.7360000349581242, 0.0, 0.0, 0.0, 0.0, 0.0, 1.7052649811587777E9, 0.0, 2024-01-14 15:43:01.158
26.0, 88.32147735357285, 491.39293497800827, 363.0994068980217, 499.0522500872612, 0.7360000349581242, 0.7360000349581242, -0.7360000349581242, 0.0, 0.0, 0.0, 0.0, 0.0, 1.7052649811587777E9, 0.0, 2024-01-14 15:43:01.158
27.0, 60.556460082530975, -185.25968420505524, -199.62090003490448, -275.73534393310547, 0.7360000349581242, 0.7360000349581242, -0.7360000349581242, 0.0, 0.0, 0.0, 0.0, 0.0, 1.705264981159636E9, 0.0, 2024-01-14 15:43:01.159
27.0, -95.74143886566162, -184.30226981639862, -113.45360505580902, -212.0672870874405, 0.7360000349581242, 0.7360000349581242, -0.7360000349581242, 0.0, 0.0, 0.0, 0.0, 0.0, 1.705264981159636E9, 0.0, 2024-01-14 15:43:01.159
28.0, -44.519769072532654, 389.6676561832428, 311.87773710489273, 411.68818712234497, 0.7360000349581242, 0.7360000349581242, -0.7360000349581242, 0.0, 0.0, 0.0, 0.0, 0.0, 1.7052649811732376E9, 0.0, 2024-01-14 15:43:01.173
28.0, 88.560830950737, 69.41254317760468, -7.419961512088776, -6.7019007205963135, 0.7360000349581242, 0.7360000349581242, -0.7360000349581242, 0.0, 0.0, 0.0, 0.0, 0.0, 1.7052649811732376E9, 0.0, 2024-01-14 15:43:01.173
29.0, -33.50950360298157, -304.93648278713226, -247.4916194677353, -404.98628640174866, 0.7360000349581242, 0.7360000349581242, -0.7360000349581242, 0.0, 0.0, 0.0, 0.0, 0.0, 1.7052649811886485E9, 0.0, 2024-01-14 15:43:01.188
29.0, -150.79276621341705, 166.1113964319229, 183.10550183057785, 184.30226981639862, 0.7360000349581242, 0.7360000349581242, -0.7360000349581242, 0.0, 0.0, 0.0, 0.0, 0.0, 1.7052649811886485E9, 0.0, 2024-01-14 15:43:01.188
30.0, 121.83098095655441, 364.29617488384247, 209.4343975186348, 281.9585374593735, 0.7360000349581242, 0.7360000349581242, -0.8640000410377979, 0.0, 0.0, 0.0, 0.0, 0.0, 1.7052649811893897E9, 0.0, 2024-01-14 15:43:01.189
30.0, 23.456652522087097, -250.36386263370514, -280.04370868206024, -403.7895184159279, 0.7360000349581242, 0.7360000349581242, -0.8640000410377979, 0.0, 0.0, 0.0, 0.0, 0.0, 1.7052649811893897E9, 0.0, 2024-01-14 15:43:01.189
31.0, -122.30968815088272, 34.22756439447403, 24.17471331357956, -18.430226981639862, 0.7360000349581242, 0.8640000410377979, -0.8640000410377979, 0.0, 0.0, 0.0, 0.0, 0.0, 1.7052649812193685E9, 0.0, 2024-01-14 15:43:01.219
31.0, 49.306841015815735, 558.8906493782997, 354.00397020578384, 461.23438173532486, 0.7360000349581242, 0.8640000410377979, -0.8640000410377979, 0.0, 0.0, 0.0, 0.0, 0.0, 1.7052649812193685E9, 0.0, 2024-01-14 15:43:01.219
32.0, 68.2157751917839, -65.82223922014236, -188.6106345653534, -263.0496032834053, 0.8640000410377979, 0.8640000410377979, -0.8640000410377979, 0.0, 0.0, 0.0, 0.0, 0.0, 1.7052649812200017E9, 0.0, 2024-01-14 15:43:01.220
32.0, -88.32147735357285, -93.34790289402008, -112.73554426431656, -211.10987269878387, 0.8640000410377979, 0.8640000410377979, -0.8640000410377979, 0.0, 0.0, 0.0, 0.0, 0.0, 1.7052649812200017E9, 0.0, 2024-01-14 15:43:01.220
33.0, -59.83839929103851, 456.9260169863701, 316.1861018538475, 370.2800148129463, 0.8640000410377979, 0.8640000410377979, -0.8640000410377979, 0.0, 0.0, 0.0, 0.0, 0.0, 1.705264981220785E9, 0.0, 2024-01-14 15:43:01.220
33.0, 46.19524425268173, 144.09086549282074, -38.77528274059296, -93.34790289402008, 0.8640000410377979, 0.8640000410377979, -0.8640000410377979, 0.0, 0.0, 0.0, 0.0, 0.0, 1.705264981220785E9, 0.0, 2024-01-14 15:43:01.220
34.0, -50.0249018073082, -248.4490338563919, -291.53268134593964, -509.10510116815567, 0.8640000410377979, 0.8640000410377979, -0.8640000410377979, 0.0, 0.0, 0.0, 0.0, 0.0, 1.7052649812332635E9, 0.0, 2024-01-14 15:43:01.233
34.0, -189.80740255117416, 164.19656765460968, 129.2509424686432, 46.913305044174194, 0.8640000410377979, 0.8640000410377979, -0.8640000410377979, 0.0, 0.0, 0.0, 0.0, 0.0, 1.7052649812332635E9, 0.0, 2024-01-14 15:43:01.233
35.0, 95.74143886566162, 393.97602093219757, 172.33458995819092, 149.35664463043213, 0.8640000410377979, 0.8640000410377979, -0.8640000410377979, 0.0, 0.0, 0.0, 0.0, 0.0, 1.7052649812487967E9, 0.0, 2024-01-14 15:43:01.248
35.0, -11.488972663879395, -255.15093457698822, -337.9672791957855, -561.7628925442696, 0.8640000410377979, 0.8640000410377979, -0.8640000410377979, 0.0, 0.0, 0.0, 0.0, 0.0, 1.7052649812487967E9, 0.0, 2024-01-14 15:43:01.248
36.0, -78.98668706417084, -2.6328895688056946, -33.03079640865326, -299.19199645519257, 0.8640000410377979, 0.8640000410377979, -0.8640000410377979, 0.0, 0.0, 0.0, 0.0, 0.0, 1.7052649812494683E9, 0.0, 2024-01-14 15:43:01.249
36.0, -4.308364748954773, 493.06841015815735, 293.2081565260887, 218.52983421087265, 0.8640000410377979, 0.8640000410377979, -0.8640000410377979, 0.0, 0.0, 0.0, 0.0, 0.0, 1.7052649812494683E9, 0.0, 2024-01-14 15:43:01.249
37.0, 45.95589065551758, -138.34637916088104, -256.10834896564484, -512.4560515284538, 0.8640000410377979, 0.8640000410377979, -0.8640000410377979, 0.0, 0.0, 0.0, 0.0, 0.0, 1.7052649812628968E9, 0.0, 2024-01-14 15:43:01.262
37.0, -115.36843383312225, -157.49466693401337, -186.69580578804016, -414.32107669115067, 0.8640000410377979, 0.8640000410377979, -0.8640000410377979, 0.0, 0.0, 0.0, 0.0, 0.0, 1.7052649812628968E9, 0.0, 2024-01-14 15:43:01.262
38.0, -74.67832231521606, 367.1684180498123, 258.02317774295807, 168.02622520923615, 0.8640000410377979, 0.8640000410377979, -0.8640000410377979, 0.0, 0.0, 0.0, 0.0, 0.0, 1.7052649812789192E9, 0.0, 2024-01-14 15:43:01.278
38.0, 64.14676403999329, 78.02927267551422, -69.41254317760468, -205.84409356117249, 0.8640000410377979, 0.8640000410377979, -0.8640000410377979, 0.0, 0.0, 0.0, 0.0, 0.0, 1.7052649812789192E9, 0.0, 2024-01-14 15:43:01.278
39.0, -36.14239317178726, -316.6648090481758, -329.1111961007118, -570.140268445015, 0.8640000410377979, 0.8640000410377979, -0.8640000410377979, 0.0, 0.0, 0.0, 0.0, 0.0, 1.7052649812793896E9, 0.0, 2024-01-14 15:43:01.279
39.0, -184.30226981639862, 97.65626764297485, 99.09238922595978, -23.69600611925125, 0.8640000410377979, 0.8640000410377979, -0.8640000410377979, 0.0, 0.0, 0.0, 0.0, 0.0, 1.7052649812793896E9, 0.0, 2024-01-14 15:43:01.279
40.0, 101.24657160043716, 306.13325077295303, 127.81482088565826, 33.74885720014572, 0.8640000410377979, 0.8640000410377979, -0.9120000433176756, 0.0, 0.0, 0.0, 0.0, 0.0, 1.7052649812933283E9, 0.0, 2024-01-14 15:43:01.293
40.0, 11.488972663879395, -319.7764058113098, -355.6794453859329, -663.7275249361992, 0.8640000410377979, 0.8640000410377979, -0.9120000433176756, 0.0, 0.0, 0.0, 0.0, 0.0, 1.7052649812933283E9, 0.0, 2024-01-14 15:43:01.293
41.0, -115.60778743028641, -84.49181979894638, -46.434597849845886, -218.52983421087265, 0.8640000410377979, 0.9120000433176756, -0.9120000433176756, 0.0, 0.0, 0.0, 0.0, 0.0, 1.7052649813086169E9, 0.0, 2024-01-14 15:43:01.308
41.0, 41.1688187122345, 409.29465115070343, 294.8836317062378, 314.5106266736984, 0.8640000410377979, 0.9120000433176756, -0.9120000433176756, 0.0, 0.0, 0.0, 0.0, 0.0, 1.7052649813086169E9, 0.0, 2024-01-14 15:43:01.308
42.0, 84.49181979894638, -165.87204283475876, -220.20530939102173, -291.7720349431038, 0.9120000433176756, 0.9120000433176756, -0.9120000433176756, 0.0, 0.0, 0.0, 0.0, 0.0, 1.7052649813096623E9, 0.0, 2024-01-14 15:43:01.309
42.0, -49.78554821014404, -198.18477845191956, -137.62831836938858, -158.9307885169983, 0.9120000433176756, 0.9120000433176756, -0.9120000433176756, 0.0, 0.0, 0.0, 0.0, 0.0, 1.7052649813096623E9, 0.0, 2024-01-14 15:43:01.309
43.0, -34.70627158880234, 303.97906839847565, 310.4416155219078, 463.1492105126381, 0.9120000433176756, 0.9120000433176756, -0.9120000433176756, 0.0, 0.0, 0.0, 0.0, 0.0, 1.7052649813230271E9, 0.0, 2024-01-14 15:43:01.323
43.0, 117.52261620759964, 13.643155038356781, -5.505132734775543, 76.35379749536514, 0.9120000433176756, 0.9120000433176756, -0.9120000433176756, 0.0, 0.0, 0.0, 0.0, 0.0, 1.7052649813230271E9, 0.0, 2024-01-14 15:43:01.323
44.0, 10.292204678058624, -440.1712651848793, -274.5385759472847, -324.80283135175705, 0.9120000433176756, 0.9120000433176756, -0.9120000433176756, 0.0, 0.0, 0.0, 0.0, 0.0, 1.7052649813386853E9, 0.0, 2024-01-14 15:43:01.338
44.0, -106.2729971408844, 16.276044607162476, 148.3992302417755, 256.8264097571373, 0.9120000433176756, 0.9120000433176756, -0.9120000433176756, 0.0, 0.0, 0.0, 0.0, 0.0, 1.7052649813386853E9, 0.0, 2024-01-14 15:43:01.338
45.0, 165.6326892375946, 250.12450903654099, 202.01443600654602, 352.32849502563477, 0.9120000433176756, 0.9120000433176756, -0.9120000433176756, 0.0, 0.0, 0.0, 0.0, 0.0, 1.7052649813393793E9, 0.0, 2024-01-14 15:43:01.339
45.0, 49.78554821014404, -435.86290043592453, -300.6281180381775, -376.26385474205017, 0.9120000433176756, 0.9120000433176756, -0.9120000433176756, 0.0, 0.0, 0.0, 0.0, 0.0, 1.7052649813393793E9, 0.0, 2024-01-14 15:43:01.339
46.0, -59.12033849954605, -163.23915326595306, 19.148287773132324, 41.40817230939865, 0.9120000433176756, 0.9120000433176756, -0.9120000433176756, 0.0, 0.0, 0.0, 0.0, 0.0, 1.705264981353378E9, 0.0, 2024-01-14 15:43:01.353
46.0, 106.51235073804855, 370.04066121578217, 351.6104342341423, 508.14768677949905, 0.9120000433176756, 0.9120000433176756, -0.9120000433176756, 0.0, 0.0, 0.0, 0.0, 0.0, 1.705264981353378E9, 0.0, 2024-01-14 15:43:01.353
47.0, 95.50208526849747, -260.8954209089279, -193.87641370296478, -236.0026468038559, 0.9120000433176756, 0.9120000433176756, -0.9120000433176756, 0.0, 0.0, 0.0, 0.0, 0.0, 1.7052649813689537E9, 0.0, 2024-01-14 15:43:01.368
47.0, -65.1041784286499, -297.27716767787933, -141.2186223268509, -227.1465637087822, 0.9120000433176756, 0.9120000433176756, -0.9120000433176756, 0.0, 0.0, 0.0, 0.0, 0.0, 1.7052649813689537E9, 0.0, 2024-01-14 15:43:01.368
48.0, 2.1541823744773865, 279.56500148773193, 316.42545545101166, 392.53989934921265, 0.9120000433176756, 0.9120000433176756, -0.9120000433176756, 0.0, 0.0, 0.0, 0.0, 0.0, 1.7052649813693807E9, 0.0, 2024-01-14 15:43:01.369
48.0, 127.81482088565826, -19.38764137029648, -22.49923813343048, -48.34942662715912, 0.9120000433176756, 0.9120000433176756, -0.9120000433176756, 0.0, 0.0, 0.0, 0.0, 0.0, 1.7052649813693807E9, 0.0, 2024-01-14 15:43:01.369
49.0, -24.89277410507202, -416.2359054684639, -295.3623389005661, -441.8467403650284, 0.9120000433176756, 0.9120000433176756, -0.9120000433176756, 0.0, 0.0, 0.0, 0.0, 0.0, 1.7052649813829627E9, 0.0, 2024-01-14 15:43:01.382
49.0, -99.81045001745224, 41.647525906562805, 136.67090398073196, 135.23478239774704, 0.9120000433176756, 0.9120000433176756, -0.9120000433176756, 0.0, 0.0, 0.0, 0.0, 0.0, 1.7052649813829627E9, 0.0, 2024-01-14 15:43:01.382
50.0, 137.62831836938858, 300.86747163534164, 192.44029211997986, 237.43876838684082, 0.9120000433176756, 0.9120000433176756, -0.944000044837594, 0.0, 0.0, 0.0, 0.0, 0.0, 1.7052649813986032E9, 0.0, 2024-01-14 15:43:01.398
50.0, 23.456652522087097, -339.40340077877045, -309.4842011332512, -455.96860259771347, 0.9120000433176756, 0.9120000433176756, -0.944000044837594, 0.0, 0.0, 0.0, 0.0, 0.0, 1.7052649813986032E9, 0.0, 2024-01-14 15:43:01.398
51.0, -93.34790289402008, -63.66805684566498, 9.813497483730316, -22.020530939102173, 0.9120000433176756, 0.944000044837594, -0.944000044837594, 0.0, 0.0, 0.0, 0.0, 0.0, 1.7052649813993554E9, 0.0, 2024-01-14 15:43:01.399
51.0, 67.7370679974556, 476.5530119538307, 350.41366624832153, 444.4796299338341, 0.9120000433176756, 0.944000044837594, -0.944000044837594, 0.0, 0.0, 0.0, 0.0, 0.0, 1.7052649813993554E9, 0.0, 2024-01-14 15:43:01.399
52.0, 63.66805684566498, -149.35664463043213, -192.91899931430817, -281.7191838622093, 0.944000044837594, 0.944000044837594, -0.944000044837594, 0.0, 0.0, 0.0, 0.0, 0.0, 1.705264981413168E9, 0.0, 2024-01-14 15:43:01.413
52.0, -73.9602615237236, -181.43002665042877, -114.65037304162979, -186.93515938520432, 0.944000044837594, 0.944000044837594, -0.944000044837594, 0.0, 0.0, 0.0, 0.0, 0.0, 1.705264981413168E9, 0.0, 2024-01-14 15:43:01.413
53.0, -19.38764137029648, 397.5663248896599, 331.02602487802505, 463.6279177069664, 0.944000044837594, 0.944000044837594, -0.944000044837594, 0.0, 0.0, 0.0, 0.0, 0.0, 1.7052649814286387E9, 0.0, 2024-01-14 15:43:01.428
53.0, 98.85303562879562, 100.76786440610886, -2.8722431659698486, 59.59904569387436, 0.944000044837594, 0.944000044837594, -0.944000044837594, 0.0, 0.0, 0.0, 0.0, 0.0, 1.7052649814286387E9, 0.0, 2024-01-14 15:43:01.428
54.0, -13.643155038356781, -302.0642396211624, -265.92184644937515, -336.0524504184723, 0.944000044837594, 0.944000044837594, -0.944000044837594, 0.0, 0.0, 0.0, 0.0, 0.0, 1.7052649814293716E9, 0.0, 2024-01-14 15:43:01.429
54.0, -134.27736800909042, 138.82508635520935, 158.45208132266998, 251.5606306195259, 0.944000044837594, 0.944000044837594, -0.944000044837594, 0.0, 0.0, 0.0, 0.0, 0.0, 1.7052649814293716E9, 0.0, 2024-01-14 15:43:01.429
55.0, 131.64447844028473, 393.01860654354095, 220.9233701825142, 349.21689826250076, 0.944000044837594, 0.944000044837594, -0.944000044837594, 0.0, 0.0, 0.0, 0.0, 0.0, 1.7052649814433405E9, 0.0, 2024-01-14 15:43:01.443
55.0, 30.63726043701172, -266.6399072408676, -275.9746975302696, -350.6530198454857, 0.944000044837594, 0.944000044837594, -0.944000044837594, 0.0, 0.0, 0.0, 0.0, 0.0, 1.7052649814433405E9, 0.0, 2024-01-14 15:43:01.443
56.0, -81.14086943864822, -15.557983815670013, 37.09980756044388, 65.58288562297821, 0.944000044837594, 0.944000044837594, -0.944000044837594, 0.0, 0.0, 0.0, 0.0, 0.0, 1.705264981458946E9, 0.0, 2024-01-14 15:43:01.458
56.0, 74.19961512088776, 501.6851396560669, 360.70587092638016, 532.3224000930786, 0.944000044837594, 0.944000044837594, -0.944000044837594, 0.0, 0.0, 0.0, 0.0, 0.0, 1.705264981458946E9, 0.0, 2024-01-14 15:43:01.458
57.0, 81.38022303581238, -129.49029606580734, -187.65322017669678, -188.37128096818924, 0.944000044837594, 0.944000044837594, -0.944000044837594, 0.0, 0.0, 0.0, 0.0, 0.0, 1.705264981459489E9, 0.0, 2024-01-14 15:43:01.459
57.0, -46.19524425268173, -172.57394355535507, -121.83098095655441, -134.51672160625458, 0.944000044837594, 0.944000044837594, -0.944000044837594, 0.0, 0.0, 0.0, 0.0, 0.0, 1.705264981459489E9, 0.0, 2024-01-14 15:43:01.459
58.0, -41.40817230939865, 339.88210797309875, 319.05834501981735, 458.362138569355, 0.944000044837594, 0.944000044837594, -0.944000044837594, 0.0, 0.0, 0.0, 0.0, 0.0, 1.705264981472973E9, 0.0, 2024-01-14 15:43:01.472
58.0, 95.26273167133331, 71.32737195491791, -0.23935359716415405, 46.913305044174194, 0.944000044837594, 0.944000044837594, -0.944000044837594, 0.0, 0.0, 0.0, 0.0, 0.0, 1.705264981472973E9, 0.0, 2024-01-14 15:43:01.472
59.0, 10.292204678058624, -307.56937235593796, -255.62964177131653, -316.90416264533997, 0.944000044837594, 0.944000044837594, -0.944000044837594, 0.0, 0.0, 0.0, 0.0, 0.0, 1.7052649814887478E9, 0.0, 2024-01-14 15:43:01.488
59.0, -129.7296496629715, 92.39048850536346, 161.56367808580399, 241.26842594146729, 0.944000044837594, 0.944000044837594, -0.944000044837594, 0.0, 0.0, 0.0, 0.0, 0.0, 1.7052649814887478E9, 0.0, 2024-01-14 15:43:01.488
60.0, 130.2083568572998, 351.37108063697815, 219.96595579385757, 337.72792559862137, 0.944000044837594, 0.944000044837594, -0.9600000455975533, 0.0, 0.0, 0.0, 0.0, 0.0, 1.7052649814893992E9, 0.0, 2024-01-14 15:43:01.489
60.0, 61.03516727685928, -280.7617694735527, -260.65606731176376, -324.5634777545929, 0.944000044837594, 0.944000044837594, -0.9600000455975533, 0.0, 0.0, 0.0, 0.0, 0.0, 1.7052649814893992E9, 0.0, 2024-01-14 15:43:01.489
61.0, -68.2157751917839, -60.31710648536682, 44.519769072532654, 73.00284713506699, 0.944000044837594, 0.9600000455975533, -0.9600000455975533, 0.0, 0.0, 0.0, 0.0, 0.0, 1.7052649815031912E9, 0.0, 2024-01-14 15:43:01.503
61.0, 58.162924110889435, 451.6602378487587, 367.40777164697647, 516.7644162774086, 0.944000044837594, 0.9600000455975533, -0.9600000455975533, 0.0, 0.0, 0.0, 0.0, 0.0, 1.7052649815031912E9, 0.0, 2024-01-14 15:43:01.503
62.0, 93.58725649118423, -150.79276621341705, -168.50493240356445, -190.04675614833832, 0.9600000455975533, 0.9600000455975533, -0.9600000455975533, 0.0, 0.0, 0.0, 0.0, 0.0, 1.7052649815186517E9, 0.0, 2024-01-14 15:43:01.518
62.0, -46.67395144701004, -216.85435903072357, -117.52261620759964, -133.3199536204338, 0.9600000455975533, 0.9600000455975533, -0.9600000455975533, 0.0, 0.0, 0.0, 0.0, 0.0, 1.7052649815186517E9, 0.0, 2024-01-14 15:43:01.518
63.0, -37.33916115760803, 320.2551130056381, 322.8880025744438, 455.01118820905685, 0.9600000455975533, 0.9600000455975533, -0.9600000455975533, 0.0, 0.0, 0.0, 0.0, 0.0, 1.7052649815193436E9, 0.0, 2024-01-14 15:43:01.519
63.0, 92.39048850536346, 44.75912266969681, -4.547718346118927, 42.60494029521942, 0.9600000455975533, 0.9600000455975533, -0.9600000455975533, 0.0, 0.0, 0.0, 0.0, 0.0, 1.7052649815193436E9, 0.0, 2024-01-14 15:43:01.519
64.0, 17.472812592983246, -326.238952934742, -252.51804500818253, -324.80283135175705, 0.9600000455975533, 0.9600000455975533, -0.9600000455975533, 0.0, 0.0, 0.0, 0.0, 0.0, 1.705264981533177E9, 0.0, 2024-01-14 15:43:01.533
64.0, -130.2083568572998, 56.72680252790451, 153.42565578222275, 231.21557486057281, 0.9600000455975533, 0.9600000455975533, -0.9600000455975533, 0.0, 0.0, 0.0, 0.0, 0.0, 1.705264981533177E9, 0.0, 2024-01-14 15:43:01.533
65.0, 138.5857327580452, 348.4988374710083, 232.8910500407219, 343.7117655277252, 0.9600000455975533, 0.9600000455975533, -0.9600000455975533, 0.0, 0.0, 0.0, 0.0, 0.0, 1.7052649815486135E9, 0.0, 2024-01-14 15:43:01.548
65.0, 60.31710648536682, -310.20226192474365, -275.4959903359413, -334.13762164115906, 0.9600000455975533, 0.9600000455975533, -0.9600000455975533, 0.0, 0.0, 0.0, 0.0, 0.0, 1.7052649815486135E9, 0.0, 2024-01-14 15:43:01.548
66.0, -69.17318958044052, -73.00284713506699, 34.94562518596649, 54.572620153427124, 0.9600000455975533, 0.9600000455975533, -0.9600000455975533, 0.0, 0.0, 0.0, 0.0, 0.0, 1.7052649815493343E9, 0.0, 2024-01-14 15:43:01.549
66.0, 56.00874173641205, 438.0170828104019, 361.6632853150368, 512.2166979312897, 0.9600000455975533, 0.9600000455975533, -0.9600000455975533, 0.0, 0.0, 0.0, 0.0, 0.0, 1.7052649815493343E9, 0.0, 2024-01-14 15:43:01.549
67.0, 92.86919569969177, -164.91462844610214, -174.9674795269966, -206.56215435266495, 0.9600000455975533, 0.9600000455975533, -0.9600000455975533, 0.0, 0.0, 0.0, 0.0, 0.0, 1.705264981563288E9, 0.0, 2024-01-14 15:43:01.563
67.0, -33.50950360298157, -208.47698312997818, -117.52261620759964, -147.9205230474472, 0.9600000455975533, 0.9600000455975533, -0.9600000455975533, 0.0, 0.0, 0.0, 0.0, 0.0, 1.705264981563288E9, 0.0, 2024-01-14 15:43:01.563
68.0, -36.62110036611557, 339.88210797309875, 326.4783065319061, 447.3518730998039, 0.9600000455975533, 0.9600000455975533, -0.9600000455975533, 0.0, 0.0, 0.0, 0.0, 0.0, 1.7052649815788877E9, 0.0, 2024-01-14 15:43:01.578
68.0, 91.91178131103516, 50.0249018073082, 2.8722431659698486, 34.466917991638184, 0.9600000455975533, 0.9600000455975533, -0.9600000455975533, 0.0, 0.0, 0.0, 0.0, 0.0, 1.7052649815788877E9, 0.0, 2024-01-14 15:43:01.578
69.0, 12.685740649700165, -346.3446550965309, -269.51215040683746, -354.00397020578384, 0.9600000455975533, 0.9600000455975533, -0.9600000455975533, 0.0, 0.0, 0.0, 0.0, 0.0, 1.7052649815794196E9, 0.0, 2024-01-14 15:43:01.579
69.0, -118.71938419342041, 68.93383598327637, 163.95721405744553, 228.82203888893127, 0.9600000455975533, 0.9600000455975533, -0.9600000455975533, 0.0, 0.0, 0.0, 0.0, 0.0, 1.7052649815794196E9, 0.0, 2024-01-14 15:43:01.579
70.0, 160.84561729431152, 379.6148051023483, 236.4813539981842, 355.6794453859329, 0.9600000455975533, 0.9600000455975533, -0.9760000463575125, 0.0, 0.0, 0.0, 0.0, 0.0, 1.7052649815929892E9, 0.0, 2024-01-14 15:43:01.592
70.0, 34.22756439447403, -340.6001687645912, -282.4372446537018, -380.3328658938408, 0.9600000455975533, 0.9600000455975533, -0.9760000463575125, 0.0, 0.0, 0.0, 0.0, 0.0, 1.7052649815929892E9, 0.0, 2024-01-14 15:43:01.592
71.0, -72.52413994073868, -48.58878022432327, 28.243724465370178, 45.47718346118927, 0.9600000455975533, 0.9760000463575125, -0.9760000463575125, 0.0, 0.0, 0.0, 0.0, 0.0, 1.7052649816087909E9, 0.0, 2024-01-14 15:43:01.608
71.0, 83.05569821596146, 485.16974145174026, 366.2110036611557, 516.2857090830803, 0.9600000455975533, 0.9760000463575125, -0.9760000463575125, 0.0, 0.0, 0.0, 0.0, 0.0, 1.7052649816087909E9, 0.0, 2024-01-14 15:43:01.608
72.0, 69.41254317760468, -186.69580578804016, -174.72812592983246, -237.91747558116913, 0.9760000463575125, 0.9760000463575125, -0.9760000463575125, 0.0, 0.0, 0.0, 0.0, 0.0, 1.705264981609446E9, 0.0, 2024-01-14 15:43:01.609
72.0, -62.47128885984421, -217.57241982221603, -121.3522737622261, -194.11576730012894, 0.9760000463575125, 0.9760000463575125, -0.9760000463575125, 0.0, 0.0, 0.0, 0.0, 0.0, 1.705264981609446E9, 0.0, 2024-01-14 15:43:01.609
73.0, -40.450757920742035, 344.908533513546, 317.6222234368324, 380.8115730881691, 0.9760000463575125, 0.9760000463575125, -0.9760000463575125, 0.0, 0.0, 0.0, 0.0, 0.0, 1.705264981622986E9, 0.0, 2024-01-14 15:43:01.622
73.0, 76.5931510925293, 14.361215829849243, -9.334790289402008, -94.06596368551254, 0.9760000463575125, 0.9760000463575125, -0.9760000463575125, 0.0, 0.0, 0.0, 0.0, 0.0, 1.705264981622986E9, 0.0, 2024-01-14 15:43:01.622
74.0, -26.08954209089279, -407.8585295677185, -275.4959903359413, -509.82316195964813, 0.9760000463575125, 0.9760000463575125, -0.9760000463575125, 0.0, 0.0, 0.0, 0.0, 0.0, 1.705264981638622E9, 0.0, 2024-01-14 15:43:01.638
74.0, -132.60189282894135, 42.60494029521942, 158.9307885169983, 124.22451692819595, 0.9760000463575125, 0.9760000463575125, -0.9760000463575125, 0.0, 0.0, 0.0, 0.0, 0.0, 1.705264981638622E9, 0.0, 2024-01-14 15:43:01.638
75.0, 157.97337412834167, 368.60453963279724, 235.5239396095276, 309.9629083275795, 0.9760000463575125, 0.9760000463575125, -0.9760000463575125, 0.0, 0.0, 0.0, 0.0, 0.0, 1.7052649816393633E9, 0.0, 2024-01-14 15:43:01.639
75.0, 22.49923813343048, -374.1096723675728, -281.00112307071686, -372.19484359025955, 0.9760000463575125, 0.9760000463575125, -0.9760000463575125, 0.0, 0.0, 0.0, 0.0, 0.0, 1.7052649816393633E9, 0.0, 2024-01-14 15:43:01.639
76.0, -72.52413994073868, -86.64600217342377, 29.44049245119095, 64.38611763715744, 0.9760000463575125, 0.9760000463575125, -0.9760000463575125, 0.0, 0.0, 0.0, 0.0, 0.0, 1.7052649816529703E9, 0.0, 2024-01-14 15:43:01.652
76.0, 81.61957663297653, 437.77772921323776, 365.49294286966324, 524.1843777894974, 0.9760000463575125, 0.9760000463575125, -0.9760000463575125, 0.0, 0.0, 0.0, 0.0, 0.0, 1.7052649816529703E9, 0.0, 2024-01-14 15:43:01.652
77.0, 75.87509030103683, -211.58857989311218, -182.14808744192123, -216.37565183639526, 0.9760000463575125, 0.9760000463575125, -0.9760000463575125, 0.0, 0.0, 0.0, 0.0, 0.0, 1.7052649816686652E9, 0.0, 2024-01-14 15:43:01.668
77.0, -57.20550972223282, -279.56500148773193, -147.68116945028305, -168.50493240356445, 0.9760000463575125, 0.9760000463575125, -0.9760000463575125, 0.0, 0.0, 0.0, 0.0, 0.0, 1.7052649816686652E9, 0.0, 2024-01-14 15:43:01.668
78.0, -27.046956479549408, 285.5488414168358, 303.50036120414734, 447.5912266969681, 0.9760000463575125, 0.9760000463575125, -0.9760000463575125, 0.0, 0.0, 0.0, 0.0, 0.0, 1.7052649816693647E9, 0.0, 2024-01-14 15:43:01.669
78.0, 101.48592519760132, 15.079276621341705, -12.44638705253601, 23.69600611925125, 0.9760000463575125, 0.9760000463575125, -0.9760000463575125, 0.0, 0.0, 0.0, 0.0, 0.0, 1.7052649816693647E9, 0.0, 2024-01-14 15:43:01.669
79.0, 23.935359716415405, -428.92164611816406, -290.575266957283, -368.3651860356331, 0.9760000463575125, 0.9760000463575125, -0.9760000463575125, 0.0, 0.0, 0.0, 0.0, 0.0, 1.7052649816832707E9, 0.0, 2024-01-14 15:43:01.683
79.0, -107.46976512670517, -35.4243323802948, 133.3199536204338, 212.30664068460464, 0.9760000463575125, 0.9760000463575125, -0.9760000463575125, 0.0, 0.0, 0.0, 0.0, 0.0, 1.7052649816832707E9, 0.0, 2024-01-14 15:43:01.683
80.0, 161.32432448863983, 254.91158097982407, 224.0349669456482, 335.3343896269798, 0.9760000463575125, 0.9760000463575125, -0.9760000463575125, 0.0, 0.0, 0.0, 0.0, 0.0, 1.705264981699217E9, 0.0, 2024-01-14 15:43:01.699
80.0, 46.913305044174194, -460.75567454099655, -312.1170907020569, -367.8864788413048, 0.9760000463575125, 0.9760000463575125, -0.9760000463575125, 0.0, 0.0, 0.0, 0.0, 0.0, 1.705264981699217E9, 0.0, 2024-01-14 15:43:01.699
81.0, -48.58878022432327, -201.5357288122177, -1.9148287773132324, 67.7370679974556, 0.9760000463575125, 0.9760000463575125, -0.9760000463575125, 0.0, 0.0, 0.0, 0.0, 0.0, 1.7052649817136395E9, 0.0, 2024-01-14 15:43:01.713
81.0, 87.12470936775208, 307.09066516160965, 341.3182295560837, 516.0463554859161, 0.9760000463575125, 0.9760000463575125, -0.9760000463575125, 0.0, 0.0, 0.0, 0.0, 0.0, 1.7052649817136395E9, 0.0, 2024-01-14 15:43:01.713
82.0, 103.1614003777504, -316.1861018538475, -191.7222313284874, -198.4241320490837, 0.9760000463575125, 0.9760000463575125, -0.9760000463575125, 0.0, 0.0, 0.0, 0.0, 0.0, 1.7052649817143583E9, 0.0, 2024-01-14 15:43:01.714
82.0, -14.361215829849243, -416.7146126627922, -153.42565578222275, -161.56367808580399, 0.9760000463575125, 0.9760000463575125, -0.9760000463575125, 0.0, 0.0, 0.0, 0.0, 0.0, 1.7052649817143583E9, 0.0, 2024-01-14 15:43:01.714
83.0, -7.898668706417084, 78.98668706417084, 316.90416264533997, 432.2725964784622, 0.9760000463575125, 0.9760000463575125, -0.9760000463575125, 0.0, 0.0, 0.0, 0.0, 0.0, 1.705264981728806E9, 0.0, 2024-01-14 15:43:01.728
83.0, 108.42717951536179, -229.54009968042374, -13.403801441192627, -32.3127356171608, 0.9760000463575125, 0.9760000463575125, -0.9760000463575125, 0.0, 0.0, 0.0, 0.0, 0.0, 1.705264981728806E9, 0.0, 2024-01-14 15:43:01.728
84.0, 34.466917991638184, -635.9625076651573, -308.7661403417587, -457.8834313750267, 0.9760000463575125, 0.9760000463575125, -0.9760000463575125, 0.0, 0.0, 0.0, 0.0, 0.0, 1.7052649817294319E9, 0.0, 2024-01-14 15:43:01.729
84.0, -94.3053172826767, -261.6134817004204, 103.40075397491455, 97.89562124013901, 0.9760000463575125, 0.9760000463575125, -0.9760000463575125, 0.0, 0.0, 0.0, 0.0, 0.0, 1.7052649817294319E9, 0.0, 2024-01-14 15:43:01.729
85.0, 160.36691009998322, 11.728326261043549, 191.7222313284874, 202.49314320087433, 0.9760000463575125, 0.9760000463575125, -0.9760000463575125, 0.0, 0.0, 0.0, 0.0, 0.0, 1.705264981743048E9, 0.0, 2024-01-14 15:43:01.743
85.0, 97.89562124013901, -632.372203707695, -329.350549697876, -544.2900799512863, 0.9760000463575125, 0.9760000463575125, -0.9760000463575125, 0.0, 0.0, 0.0, 0.0, 0.0, 1.705264981743048E9, 0.0, 2024-01-14 15:43:01.743
86.0, -9.813497483730316, -433.70871806144714, -21.063116550445557, -99.57109642028809, 0.9760000463575125, 0.9760000463575125, -0.9760000463575125, 0.0, 0.0, 0.0, 0.0, 0.0, 1.7052649817586133E9, 0.0, 2024-01-14 15:43:01.758
86.0, 111.06006908416748, 73.24220073223114, 303.2610076069832, 359.0303957462311, 0.9760000463575125, 0.9760000463575125, -0.9760000463575125, 0.0, 0.0, 0.0, 0.0, 0.0, 1.7052649817586133E9, 0.0, 2024-01-14 15:43:01.758
87.0, 124.70322412252426, -494.9832389354706, -217.57241982221603, -343.47241193056107, 0.9760000463575125, 0.9760000463575125, -0.9760000463575125, 0.0, 0.0, 0.0, 0.0, 0.0, 1.705264981759344E9, 0.0, 2024-01-14 15:43:01.759
87.0, -11.488972663879395, -567.5073788762093, -167.06881082057953, -233.13040363788605, 0.9760000463575125, 0.9760000463575125, -0.9760000463575125, 0.0, 0.0, 0.0, 0.0, 0.0, 1.705264981759344E9, 0.0, 2024-01-14 15:43:01.759
88.0, -13.164447844028473, 62.949996054172516, 293.686863720417, 395.65149611234665, 0.9760000463575125, 0.9760000463575125, -0.9760000463575125, 0.0, 0.0, 0.0, 0.0, 0.0, 1.7052649817729604E9, 0.0, 2024-01-14 15:43:01.772
88.0, 101.00721800327301, -137.14961117506027, -21.541823744773865, 25.850188493728638, 0.9760000463575125, 0.9760000463575125, -0.9760000463575125, 0.0, 0.0, 0.0, 0.0, 0.0, 1.7052649817729604E9, 0.0, 2024-01-14 15:43:01.772
89.0, 68.45512878894806, -657.9830386042595, -272.3843935728073, -288.1817309856415, 0.9760000463575125, 0.9760000463575125, -0.9760000463575125, 0.0, 0.0, 0.0, 0.0, 0.0, 1.7052649817887132E9, 0.0, 2024-01-14 15:43:01.788
89.0, -56.966156125068665, -504.55738282203674, 149.83535182476044, 299.910057246685, 0.9760000463575125, 0.9760000463575125, -0.9760000463575125, 0.0, 0.0, 0.0, 0.0, 0.0, 1.7052649817887132E9, 0.0, 2024-01-14 15:43:01.788
90.0, 225.23173493146896, -278.84694069623947, 236.0026468038559, 426.28875654935837, 0.9760000463575125, 0.9760000463575125, -0.9760000463575125, 0.0, 0.0, 0.0, 0.0, 0.0, 1.705264981789487E9, 0.0, 2024-01-14 15:43:01.789
90.0, 161.08497089147568, -943.5318800210953, -262.570896089077, -252.75739860534668, 0.9760000463575125, 0.9760000463575125, -0.9760000463575125, 0.0, 0.0, 0.0, 0.0, 0.0, 1.705264981789487E9, 0.0, 2024-01-14 15:43:01.789
91.0, 32.07338201999664, -809.493865609169, 25.132127702236176, 138.5857327580452, 0.9760000463575125, 0.9760000463575125, -0.9760000463575125, 0.0, 0.0, 0.0, 0.0, 0.0, 1.7052649818031707E9, 0.0, 2024-01-14 15:43:01.803
91.0, 183.10550183057785, -347.30206948518753, 355.2007381916046, 601.256236076355, 0.9760000463575125, 0.9760000463575125, -0.9760000463575125, 0.0, 0.0, 0.0, 0.0, 0.0, 1.7052649818031707E9, 0.0, 2024-01-14 15:43:01.803
92.0, 219.72660219669342, -958.8505102396011, -140.73991513252258, -75.87509030103683, 0.9760000463575125, 0.9760000463575125, -0.9760000463575125, 0.0, 0.0, 0.0, 0.0, 0.0, 1.7052649818186111E9, 0.0, 2024-01-14 15:43:01.818
92.0, 73.24220073223114, -1086.4259775280952, -101.48592519760132, -48.110073029994965, 0.9760000463575125, 0.9760000463575125, -0.9760000463575125, 0.0, 0.0, 0.0, 0.0, 0.0, 1.7052649818186111E9, 0.0, 2024-01-14 15:43:01.818
93.0, 102.20398598909378, -471.0478792190552, 361.6632853150368, 576.6028155684471, 0.9760000463575125, 0.9760000463575125, -0.9760000463575125, 0.0, 0.0, 0.0, 0.0, 0.0, 1.7052649818193438E9, 0.0, 2024-01-14 15:43:01.819
93.0, 214.70017665624619, -744.8683943748474, 64.14676403999329, 147.68116945028305, 0.9760000463575125, 0.9760000463575125, -0.9760000463575125, 0.0, 0.0, 0.0, 0.0, 0.0, 1.7052649818193438E9, 0.0, 2024-01-14 15:43:01.819
94.0, 136.67090398073196, -1142.6740728616714, -214.46082305908203, -246.77355867624283, 0.9760000463575125, 0.9760000463575125, -0.9760000463575125, 0.0, 0.0, 0.0, 0.0, 0.0, 1.7052649818329477E9, 0.0, 2024-01-14 15:43:01.832
94.0, -1.4361215829849243, -732.1826537251472, 209.19504392147064, 303.7397148013115, 0.9760000463575125, 0.9760000463575125, -0.9760000463575125, 0.0, 0.0, 0.0, 0.0, 0.0, 1.7052649818329477E9, 0.0, 2024-01-14 15:43:01.832
