%OpenBCI Raw EXG Data
%Number of channels = 4
%Sample Rate = 200 Hz
%Board = OpenBCI_GUI$BoardGanglionBLE
Sample Index, EXG Channel 0, EXG Channel 1, EXG Channel 2, EXG Channel 3, Accel Channel 0, Accel Channel 1, Accel Channel 2, Other, Other, Other, Other, Other, Timestamp, Other, Timestamp (Formatted)
0.0, -384.16252344846725, -326.238952934742, -221.64143097400665, -122.30968815088272, 0.0, 0.0, 1.0240000486373901, 0.0, 0.0, 0.0, 0.0, 0.0, 1.7063901118890855E9, 0.0, 2024-01-27 16:15:11.889
0.0, -374.82773315906525, -325.5208921432495, -208.71633672714233, -153.90436297655106, 0.0, 0.0, 1.0240000486373901, 0.0, 0.0, 0.0, 0.0, 0.0, 1.7063901118890855E9, 0.0, 2024-01-27 16:15:11.889
1.0, -288.1817309856415, -346.8233622908592, -255.62964177131653, -85.449234187603, 0.0, -1.0240000486373901, 1.0240000486373901, 0.0, 0.0, 0.0, 0.0, 0.0, 1.7063901119011707E9, 0.0, 2024-01-27 16:15:11.901
1.0, -354.7220309972763, -338.44598639011383, -239.5929507613182, -103.1614003777504, 0.0, -1.0240000486373901, 1.0240000486373901, 0.0, 0.0, 0.0, 0.0, 0.0, 1.7063901119011707E9, 0.0, 2024-01-27 16:15:11.901
2.0, -404.02887201309204, -325.28153854608536, -209.4343975186348, -162.5210924744606, -1.0240000486373901, -1.0240000486373901, 1.0240000486373901, 0.0, 0.0, 0.0, 0.0, 0.0, 1.7063901119178307E9, 0.0, 2024-01-27 16:15:11.917
2.0, -308.5267867445946, -335.3343896269798, -236.24200040102005, -103.6401075720787, -1.0240000486373901, -1.0240000486373901, 1.0240000486373901, 0.0, 0.0, 0.0, 0.0, 0.0, 1.7063901119178307E9, 0.0, 2024-01-27 16:15:11.917
3.0, -318.8189914226532, -343.7117655277252, -250.6032162308693, -78.26862627267838, -1.0240000486373901, -1.0240000486373901, 1.0240000486373901, 0.0, 0.0, 0.0, 0.0, 0.0, 1.7063901119186168E9, 0.0, 2024-01-27 16:15:11.918
3.0, -403.3108112215996, -321.21252739429474, -210.3918119072914, -144.3302190899849, -1.0240000486373901, -1.0240000486373901, 1.0240000486373901, 0.0, 0.0, 0.0, 0.0, 0.0, 1.7063901119186168E9, 0.0, 2024-01-27 16:15:11.918
4.0, -332.9408536553383, -322.4092953801155, -209.67375111579895, -132.60189282894135, -1.0240000486373901, -1.0240000486373901, 1.0240000486373901, 0.0, 0.0, 0.0, 0.0, 0.0, 1.7063901119309945E9, 0.0, 2024-01-27 16:15:11.930
4.0, -283.3946590423584, -339.6427543759346, -247.73097306489944, -67.7370679974556, -1.0240000486373901, -1.0240000486373901, 1.0240000486373901, 0.0, 0.0, 0.0, 0.0, 0.0, 1.7063901119309945E9, 0.0, 2024-01-27 16:15:11.930
5.0, -378.89674431085587, -328.39313530921936, -223.07755255699158, -119.43744498491287, -1.0240000486373901, -1.0240000486373901, 1.0240000486373901, 0.0, 0.0, 0.0, 0.0, 0.0, 1.7063901119467435E9, 0.0, 2024-01-27 16:15:11.946
5.0, -371.9554899930954, -320.73382019996643, -206.56215435266495, -155.10113096237183, -1.0240000486373901, -1.0240000486373901, 1.0240000486373901, 0.0, 0.0, 0.0, 0.0, 0.0, 1.7063901119467435E9, 0.0, 2024-01-27 16:15:11.946
6.0, -282.67659825086594, -338.685339987278, -246.29485148191452, -87.36406296491623, -1.0240000486373901, -1.0240000486373901, 1.0240000486373901, 0.0, 0.0, 0.0, 0.0, 0.0, 1.706390111947312E9, 0.0, 2024-01-27 16:15:11.947
6.0, -343.7117655277252, -338.2066327929497, -245.3374370932579, -99.81045001745224, -1.0240000486373901, -1.0240000486373901, 1.0240000486373901, 0.0, 0.0, 0.0, 0.0, 0.0, 1.706390111947312E9, 0.0, 2024-01-27 16:15:11.947
7.0, -391.3431313633919, -313.79256588220596, -202.01443600654602, -161.56367808580399, -1.0240000486373901, -1.0240000486373901, 1.0240000486373901, 0.0, 0.0, 0.0, 0.0, 0.0, 1.7063901119612613E9, 0.0, 2024-01-27 16:15:11.961
7.0, -299.910057246685, -332.2227928638458, -236.72070759534836, -106.99105793237686, -1.0240000486373901, -1.0240000486373901, 1.0240000486373901, 0.0, 0.0, 0.0, 0.0, 0.0, 1.7063901119612613E9, 0.0, 2024-01-27 16:15:11.961
8.0, -310.4416155219078, -339.40340077877045, -252.03933781385422, -78.50797986984253, -1.0240000486373901, -1.0240000486373901, 1.0240000486373901, 0.0, 0.0, 0.0, 0.0, 0.0, 1.7063901119770217E9, 0.0, 2024-01-27 16:15:11.977
8.0, -397.80567848682404, -318.3402842283249, -203.2112039923668, -140.26120793819427, -1.0240000486373901, -1.0240000486373901, 1.0240000486373901, 0.0, 0.0, 0.0, 0.0, 0.0, 1.7063901119770217E9, 0.0, 2024-01-27 16:15:11.977
9.0, -327.43572092056274, -315.46804106235504, -204.88667917251587, -125.89999210834503, -1.0240000486373901, -1.0240000486373901, 1.0240000486373901, 0.0, 0.0, 0.0, 0.0, 0.0, 1.7063901119774797E9, 0.0, 2024-01-27 16:15:11.977
9.0, -280.04370868206024, -335.3343896269798, -245.8161442875862, -66.06159281730652, -1.0240000486373901, -1.0240000486373901, 1.0240000486373901, 0.0, 0.0, 0.0, 0.0, 0.0, 1.7063901119774797E9, 0.0, 2024-01-27 16:15:11.977
10.0, -375.78514754772186, -317.6222234368324, -209.19504392147064, -114.41101944446564, -1.0240000486373901, -1.0240000486373901, 0.6400000303983688, 0.0, 0.0, 0.0, 0.0, 0.0, 1.7063901119912117E9, 0.0, 2024-01-27 16:15:11.991
10.0, -361.6632853150368, -305.41518998146057, -193.39770650863647, -143.61215829849243, -1.0240000486373901, -1.0240000486373901, 0.6400000303983688, 0.0, 0.0, 0.0, 0.0, 0.0, 1.7063901119912117E9, 0.0, 2024-01-27 16:15:11.991
11.0, -271.905686378479, -327.1963673233986, -228.82203888893127, -74.67832231521606, -1.0240000486373901, -0.6400000303983688, 0.6400000303983688, 0.0, 0.0, 0.0, 0.0, 0.0, 1.7063901120066648E9, 0.0, 2024-01-27 16:15:12.006
11.0, -337.0098648071289, -323.84541696310043, -227.6252709031105, -89.03953814506531, -1.0240000486373901, -0.6400000303983688, 0.6400000303983688, 0.0, 0.0, 0.0, 0.0, 0.0, 1.7063901120066648E9, 0.0, 2024-01-27 16:15:12.006
12.0, -390.6250705718994, -312.5957978963852, -188.6106345653534, -147.68116945028305, -0.6400000303983688, -0.6400000303983688, 0.6400000303983688, 0.0, 0.0, 0.0, 0.0, 0.0, 1.706390112007316E9, 0.0, 2024-01-27 16:15:12.007
12.0, -298.9526428580284, -324.5634777545929, -226.42850291728973, -101.00721800327301, -0.6400000303983688, -0.6400000303983688, 0.6400000303983688, 0.0, 0.0, 0.0, 0.0, 0.0, 1.706390112007316E9, 0.0, 2024-01-27 16:15:12.007
13.0, -308.2874331474304, -331.02602487802505, -241.26842594146729, -70.60931116342545, -0.6400000303983688, -0.6400000303983688, 0.6400000303983688, 0.0, 0.0, 0.0, 0.0, 0.0, 1.706390112021115E9, 0.0, 2024-01-27 16:15:12.021
13.0, -394.9334353208542, -315.2286874651909, -198.18477845191956, -136.67090398073196, -0.6400000303983688, -0.6400000303983688, 0.6400000303983688, 0.0, 0.0, 0.0, 0.0, 0.0, 1.706390112021115E9, 0.0, 2024-01-27 16:15:12.021
14.0, -335.81309682130814, -324.5634777545929, -212.0672870874405, -129.7296496629715, -0.6400000303983688, -0.6400000303983688, 0.6400000303983688, 0.0, 0.0, 0.0, 0.0, 0.0, 1.706390112036784E9, 0.0, 2024-01-27 16:15:12.036
14.0, -286.26690220832825, -340.1214615702629, -249.64580184221268, -72.28478634357452, -0.6400000303983688, -0.6400000303983688, 0.6400000303983688, 0.0, 0.0, 0.0, 0.0, 0.0, 1.706390112036784E9, 0.0, 2024-01-27 16:15:12.036
15.0, -370.04066121578217, -319.2976986169815, -222.83819895982742, -118.71938419342041, -0.6400000303983688, -0.6400000303983688, 0.6400000303983688, 0.0, 0.0, 0.0, 0.0, 0.0, 1.7063901120376625E9, 0.0, 2024-01-27 16:15:12.037
15.0, -355.6794453859329, -304.45777559280396, -197.4667176604271, -142.89409750699997, -0.6400000303983688, -0.6400000303983688, 0.6400000303983688, 0.0, 0.0, 0.0, 0.0, 0.0, 1.7063901120376625E9, 0.0, 2024-01-27 16:15:12.037
16.0, -269.03344321250916, -328.39313530921936, -245.8161442875862, -82.337637424469, -0.6400000303983688, -0.6400000303983688, 0.6400000303983688, 0.0, 0.0, 0.0, 0.0, 0.0, 1.7063901120510027E9, 0.0, 2024-01-27 16:15:12.051
16.0, -332.46214646101, -325.28153854608536, -237.67812198400497, -92.15113490819931, -0.6400000303983688, -0.6400000303983688, 0.6400000303983688, 0.0, 0.0, 0.0, 0.0, 0.0, 1.7063901120510027E9, 0.0, 2024-01-27 16:15:12.051
17.0, -384.4018770456314, -308.7661403417587, -191.96158492565155, -152.46824139356613, -0.6400000303983688, -0.6400000303983688, 0.6400000303983688, 0.0, 0.0, 0.0, 0.0, 0.0, 1.7063901120666332E9, 0.0, 2024-01-27 16:15:12.066
17.0, -293.9262173175812, -322.4092953801155, -230.49751406908035, -102.20398598909378, -0.6400000303983688, -0.6400000303983688, 0.6400000303983688, 0.0, 0.0, 0.0, 0.0, 0.0, 1.7063901120666332E9, 0.0, 2024-01-27 16:15:12.066
18.0, -303.2610076069832, -335.3343896269798, -244.8587298989296, -74.91767591238022, -0.6400000303983688, -0.6400000303983688, 0.6400000303983688, 0.0, 0.0, 0.0, 0.0, 0.0, 1.7063901120673296E9, 0.0, 2024-01-27 16:15:12.067
18.0, -387.5134738087654, -309.0054939389229, -205.36538636684418, -141.45797592401505, -0.6400000303983688, -0.6400000303983688, 0.6400000303983688, 0.0, 0.0, 0.0, 0.0, 0.0, 1.7063901120673296E9, 0.0, 2024-01-27 16:15:12.067
19.0, -322.4092953801155, -311.3990299105644, -209.19504392147064, -124.46387052536011, -0.6400000303983688, -0.6400000303983688, 0.6400000303983688, 0.0, 0.0, 0.0, 0.0, 0.0, 1.7063901120973618E9, 0.0, 2024-01-27 16:15:12.097
19.0, -264.96443206071854, -325.0421849489212, -247.01291227340698, -64.14676403999329, -0.6400000303983688, -0.6400000303983688, 0.6400000303983688, 0.0, 0.0, 0.0, 0.0, 0.0, 1.7063901120973618E9, 0.0, 2024-01-27 16:15:12.097
20.0, -356.15815258026123, -308.04807955026627, -207.2802151441574, -110.10265469551086, -0.6400000303983688, -0.6400000303983688, 0.8160000387579203, 0.0, 0.0, 0.0, 0.0, 0.0, 1.7063901120981753E9, 0.0, 2024-01-27 16:15:12.098
20.0, -348.4988374710083, -300.86747163534164, -194.59447449445724, -139.78250074386597, -0.6400000303983688, -0.6400000303983688, 0.8160000387579203, 0.0, 0.0, 0.0, 0.0, 0.0, 1.7063901120981753E9, 0.0, 2024-01-27 16:15:12.098
21.0, -267.8366752266884, -324.32412415742874, -235.76329320669174, -74.67832231521606, -0.6400000303983688, -0.8160000387579203, 0.8160000387579203, 0.0, 0.0, 0.0, 0.0, 0.0, 1.7063901120988898E9, 0.0, 2024-01-27 16:15:12.098
21.0, -324.32412415742874, -315.2286874651909, -226.42850291728973, -84.73117339611053, -0.6400000303983688, -0.8160000387579203, 0.8160000387579203, 0.0, 0.0, 0.0, 0.0, 0.0, 1.7063901120988898E9, 0.0, 2024-01-27 16:15:12.098
22.0, -379.6148051023483, -303.7397148013115, -192.2009385228157, -145.52698707580566, -0.8160000387579203, -0.8160000387579203, 0.8160000387579203, 0.0, 0.0, 0.0, 0.0, 0.0, 1.7063901121109865E9, 0.0, 2024-01-27 16:15:12.110
22.0, -290.8146205544472, -319.53705221414566, -224.0349669456482, -100.76786440610886, -0.8160000387579203, -0.8160000387579203, 0.8160000387579203, 0.0, 0.0, 0.0, 0.0, 0.0, 1.7063901121109865E9, 0.0, 2024-01-27 16:15:12.110
23.0, -307.3300187587738, -334.13762164115906, -241.7471331357956, -72.28478634357452, -0.8160000387579203, -0.8160000387579203, 0.8160000387579203, 0.0, 0.0, 0.0, 0.0, 0.0, 1.7063901121267636E9, 0.0, 2024-01-27 16:15:12.126
23.0, -397.80567848682404, -319.2976986169815, -204.88667917251587, -140.26120793819427, -0.8160000387579203, -0.8160000387579203, 0.8160000387579203, 0.0, 0.0, 0.0, 0.0, 0.0, 1.7063901121267636E9, 0.0, 2024-01-27 16:15:12.126
24.0, -332.2227928638458, -320.9731737971306, -213.50340867042542, -123.02774894237518, -0.8160000387579203, -0.8160000387579203, 0.8160000387579203, 0.0, 0.0, 0.0, 0.0, 0.0, 1.7063901121273787E9, 0.0, 2024-01-27 16:15:12.127
24.0, -281.47983026504517, -337.24921840429306, -250.12450903654099, -65.82223922014236, -0.8160000387579203, -0.8160000387579203, 0.8160000387579203, 0.0, 0.0, 0.0, 0.0, 0.0, 1.7063901121273787E9, 0.0, 2024-01-27 16:15:12.127
25.0, -374.1096723675728, -322.16994178295135, -213.26405507326126, -110.34200829267502, -0.8160000387579203, -0.8160000387579203, 0.8160000387579203, 0.0, 0.0, 0.0, 0.0, 0.0, 1.706390112141088E9, 0.0, 2024-01-27 16:15:12.141
25.0, -362.1419925093651, -310.4416155219078, -193.63706010580063, -140.02185434103012, -0.8160000387579203, -0.8160000387579203, 0.8160000387579203, 0.0, 0.0, 0.0, 0.0, 0.0, 1.706390112141088E9, 0.0, 2024-01-27 16:15:12.141
26.0, -278.84694069623947, -331.7440856695175, -240.07165795564651, -74.91767591238022, -0.8160000387579203, -0.8160000387579203, 0.8160000387579203, 0.0, 0.0, 0.0, 0.0, 0.0, 1.706390112172963E9, 0.0, 2024-01-27 16:15:12.172
26.0, -336.5311576128006, -326.7176601290703, -227.6252709031105, -82.09828382730484, -0.8160000387579203, -0.8160000387579203, 0.8160000387579203, 0.0, 0.0, 0.0, 0.0, 0.0, 1.706390112172963E9, 0.0, 2024-01-27 16:15:12.172
27.0, -389.6676561832428, -311.6383835077286, -192.2009385228157, -150.79276621341705, -0.8160000387579203, -0.8160000387579203, 0.8160000387579203, 0.0, 0.0, 0.0, 0.0, 0.0, 1.7063901121736858E9, 0.0, 2024-01-27 16:15:12.173
27.0, -300.86747163534164, -329.350549697876, -225.47108852863312, -98.13497483730316, -0.8160000387579203, -0.8160000387579203, 0.8160000387579203, 0.0, 0.0, 0.0, 0.0, 0.0, 1.7063901121736858E9, 0.0, 2024-01-27 16:15:12.173
28.0, -306.3726043701172, -335.81309682130814, -243.42260831594467, -68.2157751917839, -0.8160000387579203, -0.8160000387579203, 0.8160000387579203, 0.0, 0.0, 0.0, 0.0, 0.0, 1.706390112174434E9, 0.0, 2024-01-27 16:15:12.174
28.0, -393.49731373786926, -317.6222234368324, -198.18477845191956, -132.8412464261055, -0.8160000387579203, -0.8160000387579203, 0.8160000387579203, 0.0, 0.0, 0.0, 0.0, 0.0, 1.706390112174434E9, 0.0, 2024-01-27 16:15:12.174
29.0, -335.81309682130814, -318.10093063116074, -211.58857989311218, -123.9851633310318, -0.8160000387579203, -0.8160000387579203, 0.8160000387579203, 0.0, 0.0, 0.0, 0.0, 0.0, 1.7063901121752336E9, 0.0, 2024-01-27 16:15:12.175
29.0, -285.0701342225075, -337.24921840429306, -251.5606306195259, -72.76349353790283, -0.8160000387579203, -0.8160000387579203, 0.8160000387579203, 0.0, 0.0, 0.0, 0.0, 0.0, 1.7063901121752336E9, 0.0, 2024-01-27 16:15:12.175
30.0, -372.67355078458786, -321.69123458862305, -223.07755255699158, -117.52261620759964, -0.8160000387579203, -0.8160000387579203, 0.9120000433176756, 0.0, 0.0, 0.0, 0.0, 0.0, 1.7063901121862302E9, 0.0, 2024-01-27 16:15:12.186
30.0, -369.3226004242897, -317.8615770339966, -207.75892233848572, -151.75018060207367, -0.8160000387579203, -0.8160000387579203, 0.9120000433176756, 0.0, 0.0, 0.0, 0.0, 0.0, 1.7063901121862302E9, 0.0, 2024-01-27 16:15:12.186
31.0, -275.017283141613, -331.2653784751892, -242.94390112161636, -82.09828382730484, -0.8160000387579203, -0.9120000433176756, 0.9120000433176756, 0.0, 0.0, 0.0, 0.0, 0.0, 1.706390112200982E9, 0.0, 2024-01-27 16:15:12.200
31.0, -333.4195608496666, -330.7866712808609, -232.17298924922943, -88.560830950737, -0.8160000387579203, -0.9120000433176756, 0.9120000433176756, 0.0, 0.0, 0.0, 0.0, 0.0, 1.706390112200982E9, 0.0, 2024-01-27 16:15:12.200
32.0, -388.94959539175034, -310.20226192474365, -188.37128096818924, -150.0747054219246, -0.9120000433176756, -0.9120000433176756, 0.9120000433176756, 0.0, 0.0, 0.0, 0.0, 0.0, 1.7063901122166307E9, 0.0, 2024-01-27 16:15:12.216
32.0, -298.23458206653595, -321.4518809914589, -224.5136741399765, -102.68269318342209, -0.9120000433176756, -0.9120000433176756, 0.9120000433176756, 0.0, 0.0, 0.0, 0.0, 0.0, 1.7063901122166307E9, 0.0, 2024-01-27 16:15:12.216
33.0, -307.3300187587738, -332.9408536553383, -247.9703266620636, -74.91767591238022, -0.9120000433176756, -0.9120000433176756, 0.9120000433176756, 0.0, 0.0, 0.0, 0.0, 0.0, 1.7063901122173352E9, 0.0, 2024-01-27 16:15:12.217
33.0, -395.65149611234665, -315.46804106235504, -192.2009385228157, -139.5431471467018, -0.9120000433176756, -0.9120000433176756, 0.9120000433176756, 0.0, 0.0, 0.0, 0.0, 0.0, 1.7063901122173352E9, 0.0, 2024-01-27 16:15:12.217
34.0, -339.1640471816063, -320.9731737971306, -214.46082305908203, -130.92641764879227, -0.9120000433176756, -0.9120000433176756, 0.9120000433176756, 0.0, 0.0, 0.0, 0.0, 0.0, 1.706390112231197E9, 0.0, 2024-01-27 16:15:12.231
34.0, -291.7720349431038, -339.1640471816063, -251.5606306195259, -70.8486647605896, -0.9120000433176756, -0.9120000433176756, 0.9120000433176756, 0.0, 0.0, 0.0, 0.0, 0.0, 1.706390112231197E9, 0.0, 2024-01-27 16:15:12.231
35.0, -377.2212691307068, -325.28153854608536, -223.07755255699158, -122.54904174804688, -0.9120000433176756, -0.9120000433176756, 0.9120000433176756, 0.0, 0.0, 0.0, 0.0, 0.0, 1.7063901122466252E9, 0.0, 2024-01-27 16:15:12.246
35.0, -366.2110036611557, -314.5106266736984, -196.50930327177048, -146.72375506162643, -0.9120000433176756, -0.9120000433176756, 0.9120000433176756, 0.0, 0.0, 0.0, 0.0, 0.0, 1.7063901122466252E9, 0.0, 2024-01-27 16:15:12.246
36.0, -280.2830622792244, -333.4195608496666, -241.26842594146729, -83.05569821596146, -0.9120000433176756, -0.9120000433176756, 0.9120000433176756, 0.0, 0.0, 0.0, 0.0, 0.0, 1.7063901122473812E9, 0.0, 2024-01-27 16:15:12.247
36.0, -339.88210797309875, -330.3079640865326, -235.76329320669174, -91.672427713871, -0.9120000433176756, -0.9120000433176756, 0.9120000433176756, 0.0, 0.0, 0.0, 0.0, 0.0, 1.7063901122473812E9, 0.0, 2024-01-27 16:15:12.247
37.0, -399.9598608613014, -321.21252739429474, -202.73249679803848, -151.51082700490952, -0.9120000433176756, -0.9120000433176756, 0.9120000433176756, 0.0, 0.0, 0.0, 0.0, 0.0, 1.7063901122611284E9, 0.0, 2024-01-27 16:15:12.261
37.0, -305.6545435786247, -329.1111961007118, -225.47108852863312, -104.35816836357117, -0.9120000433176756, -0.9120000433176756, 0.9120000433176756, 0.0, 0.0, 0.0, 0.0, 0.0, 1.7063901122611284E9, 0.0, 2024-01-27 16:15:12.261
38.0, -313.31385868787766, -343.9511191248894, -250.36386263370514, -78.98668706417084, -0.9120000433176756, -0.9120000433176756, 0.9120000433176756, 0.0, 0.0, 0.0, 0.0, 0.0, 1.706390112277033E9, 0.0, 2024-01-27 16:15:12.277
38.0, -394.2153745293617, -319.7764058113098, -199.38154643774033, -136.19219678640366, -0.9120000433176756, -0.9120000433176756, 0.9120000433176756, 0.0, 0.0, 0.0, 0.0, 0.0, 1.706390112277033E9, 0.0, 2024-01-27 16:15:12.277
39.0, -337.4885720014572, -319.05834501981735, -215.6575910449028, -131.16577124595642, -0.9120000433176756, -0.9120000433176756, 0.9120000433176756, 0.0, 0.0, 0.0, 0.0, 0.0, 1.7063901122774835E9, 0.0, 2024-01-27 16:15:12.277
39.0, -285.5488414168358, -340.36081516742706, -254.6722273826599, -73.00284713506699, -0.9120000433176756, -0.9120000433176756, 0.9120000433176756, 0.0, 0.0, 0.0, 0.0, 0.0, 1.7063901122774835E9, 0.0, 2024-01-27 16:15:12.277
40.0, -371.71613639593124, -324.0847705602646, -213.0247014760971, -118.48003059625626, -0.9120000433176756, -0.9120000433176756, 0.944000044837594, 0.0, 0.0, 0.0, 0.0, 0.0, 1.706390112291095E9, 0.0, 2024-01-27 16:15:12.291
40.0, -363.57811409235, -311.3990299105644, -202.25378960371017, -145.04827988147736, -0.9120000433176756, -0.9120000433176756, 0.944000044837594, 0.0, 0.0, 0.0, 0.0, 0.0, 1.706390112291095E9, 0.0, 2024-01-27 16:15:12.291
41.0, -271.66633278131485, -328.87184250354767, -250.6032162308693, -86.16729497909546, -0.9120000433176756, -0.944000044837594, 0.944000044837594, 0.0, 0.0, 0.0, 0.0, 0.0, 1.7063901123066435E9, 0.0, 2024-01-27 16:15:12.306
41.0, -329.58990329504013, -327.1963673233986, -235.28458601236343, -87.60341656208038, -0.9120000433176756, -0.944000044837594, 0.944000044837594, 0.0, 0.0, 0.0, 0.0, 0.0, 1.7063901123066435E9, 0.0, 2024-01-27 16:15:12.306
42.0, -375.30644035339355, -303.50036120414734, -186.93515938520432, -145.52698707580566, -0.944000044837594, -0.944000044837594, 0.944000044837594, 0.0, 0.0, 0.0, 0.0, 0.0, 1.7063901123073509E9, 0.0, 2024-01-27 16:15:12.307
42.0, -293.2081565260887, -320.73382019996643, -225.23173493146896, -104.59752196073532, -0.944000044837594, -0.944000044837594, 0.944000044837594, 0.0, 0.0, 0.0, 0.0, 0.0, 1.7063901123073509E9, 0.0, 2024-01-27 16:15:12.307
43.0, -297.75587487220764, -325.28153854608536, -241.7471331357956, -71.08801835775375, -0.944000044837594, -0.944000044837594, 0.944000044837594, 0.0, 0.0, 0.0, 0.0, 0.0, 1.706390112321237E9, 0.0, 2024-01-27 16:15:12.321
43.0, -383.68381625413895, -309.72355473041534, -202.49314320087433, -134.27736800909042, -0.944000044837594, -0.944000044837594, 0.944000044837594, 0.0, 0.0, 0.0, 0.0, 0.0, 1.706390112321237E9, 0.0, 2024-01-27 16:15:12.321
44.0, -334.8556824326515, -319.05834501981735, -207.04086154699326, -127.81482088565826, -0.944000044837594, -0.944000044837594, 0.944000044837594, 0.0, 0.0, 0.0, 0.0, 0.0, 1.7063901123370268E9, 0.0, 2024-01-27 16:15:12.337
44.0, -303.02165400981903, -350.41366624832153, -261.6134817004204, -76.11444389820099, -0.944000044837594, -0.944000044837594, 0.944000044837594, 0.0, 0.0, 0.0, 0.0, 0.0, 1.7063901123370268E9, 0.0, 2024-01-27 16:15:12.337
45.0, -396.60891050100327, -348.4988374710083, -247.01291227340698, -140.26120793819427, -0.944000044837594, -0.944000044837594, 0.944000044837594, 0.0, 0.0, 0.0, 0.0, 0.0, 1.706390112337472E9, 0.0, 2024-01-27 16:15:12.337
45.0, -370.7587220072746, -319.7764058113098, -213.50340867042542, -165.39333564043045, -0.944000044837594, -0.944000044837594, 0.944000044837594, 0.0, 0.0, 0.0, 0.0, 0.0, 1.706390112337472E9, 0.0, 2024-01-27 16:15:12.337
46.0, -277.1714655160904, -337.72792559862137, -256.10834896564484, -99.09238922595978, -0.944000044837594, -0.944000044837594, 0.944000044837594, 0.0, 0.0, 0.0, 0.0, 0.0, 1.7063901123510396E9, 0.0, 2024-01-27 16:15:12.351
46.0, -337.4885720014572, -336.29180401563644, -252.27869141101837, -99.57109642028809, -0.944000044837594, -0.944000044837594, 0.944000044837594, 0.0, 0.0, 0.0, 0.0, 0.0, 1.7063901123510396E9, 0.0, 2024-01-27 16:15:12.351
47.0, -392.53989934921265, -320.4944666028023, -208.47698312997818, -165.6326892375946, -0.944000044837594, -0.944000044837594, 0.944000044837594, 0.0, 0.0, 0.0, 0.0, 0.0, 1.7063901123669286E9, 0.0, 2024-01-27 16:15:12.366
47.0, -301.1068252325058, -337.4885720014572, -237.19941478967667, -123.74580973386765, -0.944000044837594, -0.944000044837594, 0.944000044837594, 0.0, 0.0, 0.0, 0.0, 0.0, 1.7063901123669286E9, 0.0, 2024-01-27 16:15:12.366
48.0, -311.6383835077286, -349.69560545682907, -268.55473601818085, -105.79428994655609, -0.944000044837594, -0.944000044837594, 0.944000044837594, 0.0, 0.0, 0.0, 0.0, 0.0, 1.7063901123675108E9, 0.0, 2024-01-27 16:15:12.367
48.0, -399.4811536669731, -331.02602487802505, -223.55625975131989, -163.71786046028137, -0.944000044837594, -0.944000044837594, 0.944000044837594, 0.0, 0.0, 0.0, 0.0, 0.0, 1.7063901123675108E9, 0.0, 2024-01-27 16:15:12.367
49.0, -336.5311576128006, -334.13762164115906, -226.18914932012558, -155.34048455953598, -0.944000044837594, -0.944000044837594, 0.944000044837594, 0.0, 0.0, 0.0, 0.0, 0.0, 1.706390112381306E9, 0.0, 2024-01-27 16:15:12.381
49.0, -290.8146205544472, -354.00397020578384, -277.88952630758286, -103.1614003777504, -0.944000044837594, -0.944000044837594, 0.944000044837594, 0.0, 0.0, 0.0, 0.0, 0.0, 1.706390112381306E9, 0.0, 2024-01-27 16:15:12.381
50.0, -376.5032083392143, -342.99370473623276, -240.78971874713898, -147.68116945028305, -0.944000044837594, -0.944000044837594, 0.9760000463575125, 0.0, 0.0, 0.0, 0.0, 0.0, 1.7063901123966615E9, 0.0, 2024-01-27 16:15:12.396
50.0, -369.801307618618, -329.1111961007118, -224.5136741399765, -175.20683312416077, -0.944000044837594, -0.944000044837594, 0.9760000463575125, 0.0, 0.0, 0.0, 0.0, 0.0, 1.7063901123966615E9, 0.0, 2024-01-27 16:15:12.396
51.0, -284.8307806253433, -348.02013027668, -270.4695647954941, -108.66653311252594, -0.944000044837594, -0.9760000463575125, 0.9760000463575125, 0.0, 0.0, 0.0, 0.0, 0.0, 1.7063901123973193E9, 0.0, 2024-01-27 16:15:12.397
51.0, -345.62659430503845, -343.47241193056107, -258.02317774295807, -119.19809138774872, -0.944000044837594, -0.9760000463575125, 0.9760000463575125, 0.0, 0.0, 0.0, 0.0, 0.0, 1.7063901123973193E9, 0.0, 2024-01-27 16:15:12.397
52.0, -391.3431313633919, -321.21252739429474, -213.98211586475372, -180.47261226177216, -0.9760000463575125, -0.9760000463575125, 0.9760000463575125, 0.0, 0.0, 0.0, 0.0, 0.0, 1.7063901124112897E9, 0.0, 2024-01-27 16:15:12.411
52.0, -305.6545435786247, -340.83952236175537, -241.98648673295975, -133.79866081476212, -0.9760000463575125, -0.9760000463575125, 0.9760000463575125, 0.0, 0.0, 0.0, 0.0, 0.0, 1.7063901124112897E9, 0.0, 2024-01-27 16:15:12.411
53.0, -302.5429468154907, -340.6001687645912, -262.33154249191284, -95.98079246282578, -0.9760000463575125, -0.9760000463575125, 0.9760000463575125, 0.0, 0.0, 0.0, 0.0, 0.0, 1.70639011242696E9, 0.0, 2024-01-27 16:15:12.426
53.0, -397.80567848682404, -326.4783065319061, -224.5136741399765, -166.59010362625122, -0.9760000463575125, -0.9760000463575125, 0.9760000463575125, 0.0, 0.0, 0.0, 0.0, 0.0, 1.70639011242696E9, 0.0, 2024-01-27 16:15:12.426
54.0, -331.50473207235336, -322.8880025744438, -218.7691878080368, -150.31405901908875, -0.9760000463575125, -0.9760000463575125, 0.9760000463575125, 0.0, 0.0, 0.0, 0.0, 0.0, 1.7063901124274027E9, 0.0, 2024-01-27 16:15:12.427
54.0, -279.56500148773193, -344.1904727220535, -260.65606731176376, -92.86919569969177, -0.9760000463575125, -0.9760000463575125, 0.9760000463575125, 0.0, 0.0, 0.0, 0.0, 0.0, 1.7063901124274027E9, 0.0, 2024-01-27 16:15:12.427
55.0, -370.2800148129463, -328.6324889063835, -233.8484644293785, -138.1070255637169, -0.9760000463575125, -0.9760000463575125, 0.9760000463575125, 0.0, 0.0, 0.0, 0.0, 0.0, 1.7063901124411268E9, 0.0, 2024-01-27 16:15:12.441
55.0, -364.29617488384247, -319.53705221414566, -213.74276226758957, -174.9674795269966, -0.9760000463575125, -0.9760000463575125, 0.9760000463575125, 0.0, 0.0, 0.0, 0.0, 0.0, 1.7063901124411268E9, 0.0, 2024-01-27 16:15:12.441
56.0, -283.3946590423584, -339.88210797309875, -251.79998421669006, -101.96463239192963, -0.9760000463575125, -0.9760000463575125, 0.9760000463575125, 0.0, 0.0, 0.0, 0.0, 0.0, 1.7063901124730232E9, 0.0, 2024-01-27 16:15:12.473
56.0, -344.1904727220535, -342.7543511390686, -253.95416659116745, -114.17166584730148, -0.9760000463575125, -0.9760000463575125, 0.9760000463575125, 0.0, 0.0, 0.0, 0.0, 0.0, 1.7063901124730232E9, 0.0, 2024-01-27 16:15:12.473
57.0, -389.1889489889145, -316.6648090481758, -209.19504392147064, -170.18040758371353, -0.9760000463575125, -0.9760000463575125, 0.9760000463575125, 0.0, 0.0, 0.0, 0.0, 0.0, 1.7063901124737153E9, 0.0, 2024-01-27 16:15:12.473
57.0, -302.30359321832657, -331.2653784751892, -241.26842594146729, -127.0967600941658, -0.9760000463575125, -0.9760000463575125, 0.9760000463575125, 0.0, 0.0, 0.0, 0.0, 0.0, 1.7063901124737153E9, 0.0, 2024-01-27 16:15:12.473
58.0, -304.93648278713226, -343.47241193056107, -264.0070176720619, -98.85303562879562, -0.9760000463575125, -0.9760000463575125, 0.9760000463575125, 0.0, 0.0, 0.0, 0.0, 0.0, 1.7063901124744613E9, 0.0, 2024-01-27 16:15:12.474
58.0, -396.8482640981674, -329.350549697876, -225.94979572296143, -168.7442860007286, -0.9760000463575125, -0.9760000463575125, 0.9760000463575125, 0.0, 0.0, 0.0, 0.0, 0.0, 1.7063901124744613E9, 0.0, 2024-01-27 16:15:12.474
59.0, -338.44598639011383, -325.0421849489212, -230.97622126340866, -157.97337412834167, -0.9760000463575125, -0.9760000463575125, 0.9760000463575125, 0.0, 0.0, 0.0, 0.0, 0.0, 1.7063901124752395E9, 0.0, 2024-01-27 16:15:12.475
59.0, -289.6178525686264, -348.02013027668, -269.7515040040016, -92.86919569969177, -0.9760000463575125, -0.9760000463575125, 0.9760000463575125, 0.0, 0.0, 0.0, 0.0, 0.0, 1.7063901124752395E9, 0.0, 2024-01-27 16:15:12.475
60.0, -375.78514754772186, -335.3343896269798, -244.3800227046013, -145.04827988147736, -0.9760000463575125, -0.9760000463575125, 0.9920000471174717, 0.0, 0.0, 0.0, 0.0, 0.0, 1.7063901124859393E9, 0.0, 2024-01-27 16:15:12.485
60.0, -380.09351229667664, -329.8292568922043, -217.8117734193802, -177.121661901474, -0.9760000463575125, -0.9760000463575125, 0.9920000471174717, 0.0, 0.0, 0.0, 0.0, 0.0, 1.7063901124859393E9, 0.0, 2024-01-27 16:15:12.485
61.0, -292.7294493317604, -351.84978783130646, -267.3579680323601, -114.65037304162979, -0.9760000463575125, -0.9920000471174717, 0.9920000471174717, 0.0, 0.0, 0.0, 0.0, 0.0, 1.7063901125013552E9, 0.0, 2024-01-27 16:15:12.501
61.0, -347.0627158880234, -347.5414230823517, -257.3051169514656, -117.28326261043549, -0.9760000463575125, -0.9920000471174717, 0.9920000471174717, 0.0, 0.0, 0.0, 0.0, 0.0, 1.7063901125013552E9, 0.0, 2024-01-27 16:15:12.501
62.0, -402.35339683294296, -327.91442811489105, -216.37565183639526, -176.88230830430984, -0.9920000471174717, -0.9920000471174717, 0.9920000471174717, 0.0, 0.0, 0.0, 0.0, 0.0, 1.706390112516756E9, 0.0, 2024-01-27 16:15:12.516
62.0, -309.9629083275795, -339.1640471816063, -250.6032162308693, -134.99542880058289, -0.9920000471174717, -0.9920000471174717, 0.9920000471174717, 0.0, 0.0, 0.0, 0.0, 0.0, 1.706390112516756E9, 0.0, 2024-01-27 16:15:12.516
63.0, -314.0319194793701, -347.30206948518753, -257.7838241457939, -95.74143886566162, -0.9920000471174717, -0.9920000471174717, 0.9920000471174717, 0.0, 0.0, 0.0, 0.0, 0.0, 1.7063901125174713E9, 0.0, 2024-01-27 16:15:12.517
63.0, -398.28438568115234, -326.7176601290703, -215.6575910449028, -161.32432448863983, -0.9920000471174717, -0.9920000471174717, 0.9920000471174717, 0.0, 0.0, 0.0, 0.0, 0.0, 1.7063901125174713E9, 0.0, 2024-01-27 16:15:12.517
64.0, -337.72792559862137, -325.0421849489212, -223.07755255699158, -150.0747054219246, -0.9920000471174717, -0.9920000471174717, 0.9920000471174717, 0.0, 0.0, 0.0, 0.0, 0.0, 1.7063901125309317E9, 0.0, 2024-01-27 16:15:12.530
64.0, -284.59142702817917, -346.3446550965309, -263.5283104777336, -94.54467087984085, -0.9920000471174717, -0.9920000471174717, 0.9920000471174717, 0.0, 0.0, 0.0, 0.0, 0.0, 1.7063901125309317E9, 0.0, 2024-01-27 16:15:12.530
65.0, -370.9980756044388, -330.54731768369675, -235.76329320669174, -132.8412464261055, -0.9920000471174717, -0.9920000471174717, 0.9920000471174717, 0.0, 0.0, 0.0, 0.0, 0.0, 1.7063901125466413E9, 0.0, 2024-01-27 16:15:12.546
65.0, -362.38134610652924, -314.27127307653427, -204.64732557535172, -159.4094957113266, -0.9920000471174717, -0.9920000471174717, 0.9920000471174717, 0.0, 0.0, 0.0, 0.0, 0.0, 1.7063901125466413E9, 0.0, 2024-01-27 16:15:12.546
66.0, -278.128879904747, -338.2066327929497, -250.12450903654099, -97.89562124013901, -0.9920000471174717, -0.9920000471174717, 0.9920000471174717, 0.0, 0.0, 0.0, 0.0, 0.0, 1.7063901125473475E9, 0.0, 2024-01-27 16:15:12.547
66.0, -337.72792559862137, -338.44598639011383, -248.20968025922775, -103.87946116924286, -0.9920000471174717, -0.9920000471174717, 0.9920000471174717, 0.0, 0.0, 0.0, 0.0, 0.0, 1.7063901125473475E9, 0.0, 2024-01-27 16:15:12.547
67.0, -393.7366673350334, -320.01575940847397, -202.01443600654602, -168.02622520923615, -0.9920000471174717, -0.9920000471174717, 0.9920000471174717, 0.0, 0.0, 0.0, 0.0, 0.0, 1.7063901125612593E9, 0.0, 2024-01-27 16:15:12.561
67.0, -297.27716767787933, -328.6324889063835, -233.3697572350502, -123.9851633310318, -0.9920000471174717, -0.9920000471174717, 0.9920000471174717, 0.0, 0.0, 0.0, 0.0, 0.0, 1.7063901125612593E9, 0.0, 2024-01-27 16:15:12.561
68.0, -306.8513115644455, -344.908533513546, -255.15093457698822, -89.75759893655777, -0.9920000471174717, -0.9920000471174717, 0.9920000471174717, 0.0, 0.0, 0.0, 0.0, 0.0, 1.7063901125768852E9, 0.0, 2024-01-27 16:15:12.576
68.0, -392.3005457520485, -323.3667097687721, -210.3918119072914, -153.1863021850586, -0.9920000471174717, -0.9920000471174717, 0.9920000471174717, 0.0, 0.0, 0.0, 0.0, 0.0, 1.7063901125768852E9, 0.0, 2024-01-27 16:15:12.576
69.0, -340.6001687645912, -327.43572092056274, -222.12013816833496, -148.87793743610382, -0.9920000471174717, -0.9920000471174717, 0.9920000471174717, 0.0, 0.0, 0.0, 0.0, 0.0, 1.7063901125774205E9, 0.0, 2024-01-27 16:15:12.577
69.0, -285.78819501399994, -347.0627158880234, -260.65606731176376, -91.43307411670685, -0.9920000471174717, -0.9920000471174717, 0.9920000471174717, 0.0, 0.0, 0.0, 0.0, 0.0, 1.7063901125774205E9, 0.0, 2024-01-27 16:15:12.577
70.0, -373.15225797891617, -330.06861048936844, -231.21557486057281, -130.2083568572998, -0.9920000471174717, -0.9920000471174717, 1.008000047877431, 0.0, 0.0, 0.0, 0.0, 0.0, 1.70639011259112E9, 0.0, 2024-01-27 16:15:12.591
70.0, -372.19484359025955, -320.4944666028023, -207.2802151441574, -160.36691009998322, -0.9920000471174717, -0.9920000471174717, 1.008000047877431, 0.0, 0.0, 0.0, 0.0, 0.0, 1.70639011259112E9, 0.0, 2024-01-27 16:15:12.591
71.0, -287.463670194149, -342.99370473623276, -248.68838745355606, -94.3053172826767, -0.9920000471174717, -1.008000047877431, 1.008000047877431, 0.0, 0.0, 0.0, 0.0, 0.0, 1.7063901126068552E9, 0.0, 2024-01-27 16:15:12.606
71.0, -342.99370473623276, -340.36081516742706, -242.2258403301239, -99.09238922595978, -0.9920000471174717, -1.008000047877431, 1.008000047877431, 0.0, 0.0, 0.0, 0.0, 0.0, 1.7063901126068552E9, 0.0, 2024-01-27 16:15:12.606
72.0, -399.4811536669731, -320.4944666028023, -206.8015079498291, -165.6326892375946, -1.008000047877431, -1.008000047877431, 1.008000047877431, 0.0, 0.0, 0.0, 0.0, 0.0, 1.7063901126074677E9, 0.0, 2024-01-27 16:15:12.607
72.0, -308.7661403417587, -336.5311576128006, -232.17298924922943, -113.93231225013733, -1.008000047877431, -1.008000047877431, 1.008000047877431, 0.0, 0.0, 0.0, 0.0, 0.0, 1.7063901126074677E9, 0.0, 2024-01-27 16:15:12.607
73.0, -313.0745050907135, -348.25948387384415, -254.43287378549576, -83.05569821596146, -1.008000047877431, -1.008000047877431, 1.008000047877431, 0.0, 0.0, 0.0, 0.0, 0.0, 1.7063901126211996E9, 0.0, 2024-01-27 16:15:12.621
73.0, -404.02887201309204, -325.0421849489212, -211.58857989311218, -146.48440146446228, -1.008000047877431, -1.008000047877431, 1.008000047877431, 0.0, 0.0, 0.0, 0.0, 0.0, 1.7063901126211996E9, 0.0, 2024-01-27 16:15:12.621
74.0, -343.2330583333969, -333.4195608496666, -222.83819895982742, -145.2876334786415, -1.008000047877431, -1.008000047877431, 1.008000047877431, 0.0, 0.0, 0.0, 0.0, 0.0, 1.7063901126532307E9, 0.0, 2024-01-27 16:15:12.653
74.0, -294.4049245119095, -351.37108063697815, -262.81024968624115, -91.43307411670685, -1.008000047877431, -1.008000047877431, 1.008000047877431, 0.0, 0.0, 0.0, 0.0, 0.0, 1.7063901126532307E9, 0.0, 2024-01-27 16:15:12.653
75.0, -386.5560594201088, -344.1904727220535, -241.50777953863144, -137.86767196655273, -1.008000047877431, -1.008000047877431, 1.008000047877431, 0.0, 0.0, 0.0, 0.0, 0.0, 1.706390112653787E9, 0.0, 2024-01-27 16:15:12.653
75.0, -383.9231698513031, -329.8292568922043, -221.64143097400665, -166.59010362625122, -1.008000047877431, -1.008000047877431, 1.008000047877431, 0.0, 0.0, 0.0, 0.0, 0.0, 1.706390112653787E9, 0.0, 2024-01-27 16:15:12.653
76.0, -298.4739356637001, -354.96138459444046, -262.33154249191284, -110.34200829267502, -1.008000047877431, -1.008000047877431, 1.008000047877431, 0.0, 0.0, 0.0, 0.0, 0.0, 1.7063901126547992E9, 0.0, 2024-01-27 16:15:12.654
76.0, -355.9187989830971, -351.37108063697815, -255.15093457698822, -113.69295865297318, -1.008000047877431, -1.008000047877431, 1.008000047877431, 0.0, 0.0, 0.0, 0.0, 0.0, 1.7063901126547992E9, 0.0, 2024-01-27 16:15:12.654
77.0, -406.4224079847336, -329.1111961007118, -209.9131047129631, -165.6326892375946, -1.008000047877431, -1.008000047877431, 1.008000047877431, 0.0, 0.0, 0.0, 0.0, 0.0, 1.706390112655435E9, 0.0, 2024-01-27 16:15:12.655
77.0, -308.7661403417587, -340.1214615702629, -239.83230435848236, -121.83098095655441, -1.008000047877431, -1.008000047877431, 1.008000047877431, 0.0, 0.0, 0.0, 0.0, 0.0, 1.706390112655435E9, 0.0, 2024-01-27 16:15:12.655
78.0, -313.31385868787766, -345.14788711071014, -252.99675220251083, -86.40664857625961, -1.008000047877431, -1.008000047877431, 1.008000047877431, 0.0, 0.0, 0.0, 0.0, 0.0, 1.7063901126660044E9, 0.0, 2024-01-27 16:15:12.666
78.0, -400.1992144584656, -325.5208921432495, -214.46082305908203, -153.1863021850586, -1.008000047877431, -1.008000047877431, 1.008000047877431, 0.0, 0.0, 0.0, 0.0, 0.0, 1.7063901126660044E9, 0.0, 2024-01-27 16:15:12.666
79.0, -343.7117655277252, -323.6060633659363, -215.6575910449028, -137.62831836938858, -1.008000047877431, -1.008000047877431, 1.008000047877431, 0.0, 0.0, 0.0, 0.0, 0.0, 1.7063901126809664E9, 0.0, 2024-01-27 16:15:12.680
79.0, -288.42108458280563, -342.2756439447403, -254.1935201883316, -80.42280864715576, -1.008000047877431, -1.008000047877431, 1.008000047877431, 0.0, 0.0, 0.0, 0.0, 0.0, 1.7063901126809664E9, 0.0, 2024-01-27 16:15:12.680
80.0, -375.30644035339355, -330.7866712808609, -225.94979572296143, -117.7619698047638, -1.008000047877431, -1.008000047877431, 1.008000047877431, 0.0, 0.0, 0.0, 0.0, 0.0, 1.7063901126968524E9, 0.0, 2024-01-27 16:15:12.696
80.0, -374.82773315906525, -319.05834501981735, -201.5357288122177, -154.62242376804352, -1.008000047877431, -1.008000047877431, 1.008000047877431, 0.0, 0.0, 0.0, 0.0, 0.0, 1.7063901126968524E9, 0.0, 2024-01-27 16:15:12.696
81.0, -283.3946590423584, -341.796936750412, -250.36386263370514, -91.672427713871, -1.008000047877431, -1.008000047877431, 1.008000047877431, 0.0, 0.0, 0.0, 0.0, 0.0, 1.706390112697373E9, 0.0, 2024-01-27 16:15:12.697
81.0, -337.4885720014572, -339.88210797309875, -245.09808349609375, -98.85303562879562, -1.008000047877431, -1.008000047877431, 1.008000047877431, 0.0, 0.0, 0.0, 0.0, 0.0, 1.706390112697373E9, 0.0, 2024-01-27 16:15:12.697
82.0, -402.5927504301071, -325.76024574041367, -202.01443600654602, -161.56367808580399, -1.008000047877431, -1.008000047877431, 1.008000047877431, 0.0, 0.0, 0.0, 0.0, 0.0, 1.7063901127111516E9, 0.0, 2024-01-27 16:15:12.711
82.0, -319.05834501981735, -346.3446550965309, -241.50777953863144, -128.29352807998657, -1.008000047877431, -1.008000047877431, 1.008000047877431, 0.0, 0.0, 0.0, 0.0, 0.0, 1.7063901127111516E9, 0.0, 2024-01-27 16:15:12.711
83.0, -322.64864897727966, -353.52526301145554, -261.13477450609207, -88.08212375640869, -1.008000047877431, -1.008000047877431, 1.008000047877431, 0.0, 0.0, 0.0, 0.0, 0.0, 1.7063901127266588E9, 0.0, 2024-01-27 16:15:12.726
83.0, -412.40624791383743, -339.1640471816063, -218.2904806137085, -151.75018060207367, -1.008000047877431, -1.008000047877431, 1.008000047877431, 0.0, 0.0, 0.0, 0.0, 0.0, 1.7063901127266588E9, 0.0, 2024-01-27 16:15:12.726
84.0, -359.74845653772354, -340.6001687645912, -228.82203888893127, -152.46824139356613, -1.008000047877431, -1.008000047877431, 1.008000047877431, 0.0, 0.0, 0.0, 0.0, 0.0, 1.7063901127273111E9, 0.0, 2024-01-27 16:15:12.727
84.0, -303.50036120414734, -361.18457812070847, -269.2727968096733, -92.62984210252762, -1.008000047877431, -1.008000047877431, 1.008000047877431, 0.0, 0.0, 0.0, 0.0, 0.0, 1.7063901127273111E9, 0.0, 2024-01-27 16:15:12.727
85.0, -383.9231698513031, -344.908533513546, -233.3697572350502, -129.01158887147903, -1.008000047877431, -1.008000047877431, 1.008000047877431, 0.0, 0.0, 0.0, 0.0, 0.0, 1.7063901127410216E9, 0.0, 2024-01-27 16:15:12.741
85.0, -384.4018770456314, -335.0950360298157, -215.89694464206696, -165.87204283475876, -1.008000047877431, -1.008000047877431, 1.008000047877431, 0.0, 0.0, 0.0, 0.0, 0.0, 1.7063901127410216E9, 0.0, 2024-01-27 16:15:12.741
86.0, -296.55910688638687, -354.48267740011215, -251.5606306195259, -98.13497483730316, -1.008000047877431, -1.008000047877431, 1.008000047877431, 0.0, 0.0, 0.0, 0.0, 0.0, 1.7063901127567575E9, 0.0, 2024-01-27 16:15:12.756
86.0, -349.9349590539932, -353.2859094142914, -252.51804500818253, -109.14524030685425, -1.008000047877431, -1.008000047877431, 1.008000047877431, 0.0, 0.0, 0.0, 0.0, 0.0, 1.7063901127567575E9, 0.0, 2024-01-27 16:15:12.756
87.0, -404.50757920742035, -331.02602487802505, -208.71633672714233, -166.82945722341537, -1.008000047877431, -1.008000047877431, 1.008000047877431, 0.0, 0.0, 0.0, 0.0, 0.0, 1.7063901127573657E9, 0.0, 2024-01-27 16:15:12.757
87.0, -313.5532122850418, -339.6427543759346, -239.35359716415405, -122.07033455371857, -1.008000047877431, -1.008000047877431, 1.008000047877431, 0.0, 0.0, 0.0, 0.0, 0.0, 1.7063901127573657E9, 0.0, 2024-01-27 16:15:12.757
88.0, -318.3402842283249, -350.41366624832153, -258.5018849372864, -89.75759893655777, -1.008000047877431, -1.008000047877431, 1.008000047877431, 0.0, 0.0, 0.0, 0.0, 0.0, 1.7063901127711706E9, 0.0, 2024-01-27 16:15:12.771
88.0, -404.50757920742035, -329.8292568922043, -219.48724859952927, -151.51082700490952, -1.008000047877431, -1.008000047877431, 1.008000047877431, 0.0, 0.0, 0.0, 0.0, 0.0, 1.7063901127711706E9, 0.0, 2024-01-27 16:15:12.771
89.0, -345.8659479022026, -330.7866712808609, -224.0349669456482, -142.41539031267166, -1.008000047877431, -1.008000047877431, 1.008000047877431, 0.0, 0.0, 0.0, 0.0, 0.0, 1.7063901127866547E9, 0.0, 2024-01-27 16:15:12.786
89.0, -291.0539741516113, -346.58400869369507, -258.02317774295807, -81.85893023014069, -1.008000047877431, -1.008000047877431, 1.008000047877431, 0.0, 0.0, 0.0, 0.0, 0.0, 1.7063901127866547E9, 0.0, 2024-01-27 16:15:12.786
90.0, -376.024501144886, -331.7440856695175, -228.58268529176712, -119.91615217924118, -1.008000047877431, -1.008000047877431, 0.9920000471174717, 0.0, 0.0, 0.0, 0.0, 0.0, 1.706390112787316E9, 0.0, 2024-01-27 16:15:12.787
90.0, -373.6309651732445, -320.73382019996643, -207.51956874132156, -156.05854535102844, -1.008000047877431, -1.008000047877431, 0.9920000471174717, 0.0, 0.0, 0.0, 0.0, 0.0, 1.706390112787316E9, 0.0, 2024-01-27 16:15:12.787
91.0, -285.30948781967163, -339.40340077877045, -247.73097306489944, -91.91178131103516, -1.008000047877431, -0.9920000471174717, 0.9920000471174717, 0.0, 0.0, 0.0, 0.0, 0.0, 1.7063901128009021E9, 0.0, 2024-01-27 16:15:12.800
91.0, -339.6427543759346, -340.1214615702629, -241.50777953863144, -96.22014605998993, -1.008000047877431, -0.9920000471174717, 0.9920000471174717, 0.0, 0.0, 0.0, 0.0, 0.0, 1.7063901128009021E9, 0.0, 2024-01-27 16:15:12.800
92.0, -397.0876176953316, -321.21252739429474, -203.45055758953094, -157.49466693401337, -0.9920000471174717, -0.9920000471174717, 0.9920000471174717, 0.0, 0.0, 0.0, 0.0, 0.0, 1.7063901128166125E9, 0.0, 2024-01-27 16:15:12.816
92.0, -312.5957978963852, -334.13762164115906, -235.76329320669174, -119.67679858207703, -0.9920000471174717, -0.9920000471174717, 0.9920000471174717, 0.0, 0.0, 0.0, 0.0, 0.0, 1.7063901128166125E9, 0.0, 2024-01-27 16:15:12.816
93.0, -309.4842011332512, -345.3872407078743, -250.36386263370514, -82.09828382730484, -0.9920000471174717, -0.9920000471174717, 0.9920000471174717, 0.0, 0.0, 0.0, 0.0, 0.0, 1.7063901128173087E9, 0.0, 2024-01-27 16:15:12.817
93.0, -397.5663248896599, -321.4518809914589, -209.4343975186348, -142.89409750699997, -0.9920000471174717, -0.9920000471174717, 0.9920000471174717, 0.0, 0.0, 0.0, 0.0, 0.0, 1.7063901128173087E9, 0.0, 2024-01-27 16:15:12.817
94.0, -350.1743126511574, -328.1537817120552, -216.85435903072357, -140.50056153535843, -0.9920000471174717, -0.9920000471174717, 0.9920000471174717, 0.0, 0.0, 0.0, 0.0, 0.0, 1.7063901128309455E9, 0.0, 2024-01-27 16:15:12.830
94.0, -293.9262173175812, -348.73819106817245, -254.43287378549576, -76.11444389820099, -0.9920000471174717, -0.9920000471174717, 0.9920000471174717, 0.0, 0.0, 0.0, 0.0, 0.0, 1.7063901128309455E9, 0.0, 2024-01-27 16:15:12.830
95.0, -376.26385474205017, -330.3079640865326, -229.06139248609543, -117.7619698047638, -0.9920000471174717, -0.9920000471174717, 0.9920000471174717, 0.0, 0.0, 0.0, 0.0, 0.0, 1.70639011286317E9, 0.0, 2024-01-27 16:15:12.863
95.0, -376.26385474205017, -330.06861048936844, -215.89694464206696, -154.1437165737152, -0.9920000471174717, -0.9920000471174717, 0.9920000471174717, 0.0, 0.0, 0.0, 0.0, 0.0, 1.70639011286317E9, 0.0, 2024-01-27 16:15:12.863
96.0, -286.26690220832825, -332.46214646101, -236.0026468038559, -78.74733346700668, -0.9920000471174717, -0.9920000471174717, 0.9920000471174717, 0.0, 0.0, 0.0, 0.0, 0.0, 1.706390112863764E9, 0.0, 2024-01-27 16:15:12.863
96.0, -322.64864897727966, -315.94674825668335, -219.48724859952927, -76.11444389820099, -0.9920000471174717, -0.9920000471174717, 0.9920000471174717, 0.0, 0.0, 0.0, 0.0, 0.0, 1.706390112863764E9, 0.0, 2024-01-27 16:15:12.863
97.0, -369.3226004242897, -294.4049245119095, -182.3874410390854, -134.99542880058289, -0.9920000471174717, -0.9920000471174717, 0.9920000471174717, 0.0, 0.0, 0.0, 0.0, 0.0, 1.7063901128647199E9, 0.0, 2024-01-27 16:15:12.864
97.0, -294.4049245119095, -317.8615770339966, -215.89694464206696, -88.08212375640869, -0.9920000471174717, -0.9920000471174717, 0.9920000471174717, 0.0, 0.0, 0.0, 0.0, 0.0, 1.7063901128647199E9, 0.0, 2024-01-27 16:15:12.864
98.0, -265.682492852211, -293.44751012325287, -205.36538636684418, -26.328895688056946, -0.9920000471174717, -0.9920000471174717, 0.9920000471174717, 0.0, 0.0, 0.0, 0.0, 0.0, 1.7063901128653896E9, 0.0, 2024-01-27 16:15:12.865
98.0, -351.84978783130646, -264.4857248663902, -168.7442860007286, -91.91178131103516, -0.9920000471174717, -0.9920000471174717, 0.9920000471174717, 0.0, 0.0, 0.0, 0.0, 0.0, 1.7063901128653896E9, 0.0, 2024-01-27 16:15:12.865
0.0, -224.5136741399765, -268.794089615345, -199.14219284057617, -13.882508635520935, -0.9920000471174717, -0.9920000471174717, 1.008000047877431, 0.0, 0.0, 0.0, 0.0, 0.0, 1.7063901128918223E9, 0.0, 2024-01-27 16:15:12.891
0.0, -290.8146205544472, -238.6355363726616, -155.34048455953598, -45.716537058353424, -0.9920000471174717, -0.9920000471174717, 1.008000047877431, 0.0, 0.0, 0.0, 0.0, 0.0, 1.7063901128918223E9, 0.0, 2024-01-27 16:15:12.891
1.0, -281.240476667881, -217.8117734193802, -121.59162735939026, -66.06159281730652, -0.9920000471174717, -0.03200000151991844, 1.008000047877431, 0.0, 0.0, 0.0, 0.0, 0.0, 1.706390112892454E9, 0.0, 2024-01-27 16:15:12.892
1.0, -189.56804895401, -232.41234284639359, -159.4094957113266, 2.3935359716415405, -0.9920000471174717, -0.03200000151991844, 1.008000047877431, 0.0, 0.0, 0.0, 0.0, 0.0, 1.706390112892454E9, 0.0, 2024-01-27 16:15:12.892
2.0, -234.80587881803513, -222.12013816833496, -151.75018060207367, 5.744486331939697, 0.09600000455975533, -0.03200000151991844, 1.008000047877431, 0.0, 0.0, 0.0, 0.0, 0.0, 1.7063901129065528E9, 0.0, 2024-01-27 16:15:12.906
2.0, -301.82488602399826, -210.15245831012726, -114.88972663879395, -64.6254712343216, 0.09600000455975533, -0.03200000151991844, 1.008000047877431, 0.0, 0.0, 0.0, 0.0, 0.0, 1.7063901129065528E9, 0.0, 2024-01-27 16:15:12.906
3.0, -221.4020773768425, -227.1465637087822, -146.72375506162643, -20.10570216178894, 0.09600000455975533, -0.03200000151991844, 1.008000047877431, 0.0, 0.0, 0.0, 0.0, 0.0, 1.7063901129216647E9, 0.0, 2024-01-27 16:15:12.921
3.0, -232.41234284639359, -252.75739860534668, -176.40360110998154, 1.4361215829849243, 0.09600000455975533, -0.03200000151991844, 1.008000047877431, 0.0, 0.0, 0.0, 0.0, 0.0, 1.7063901129216647E9, 0.0, 2024-01-27 16:15:12.921
4.0, -324.5634777545929, -236.24200040102005, -143.13345110416412, -72.04543274641037, 0.09600000455975533, -0.03200000151991844, 1.008000047877431, 0.0, 0.0, 0.0, 0.0, 0.0, 1.7063901129223292E9, 0.0, 2024-01-27 16:15:12.922
4.0, -279.8043550848961, -249.88515543937683, -153.6650093793869, -76.83250468969345, 0.09600000455975533, -0.03200000151991844, 1.008000047877431, 0.0, 0.0, 0.0, 0.0, 0.0, 1.7063901129223292E9, 0.0, 2024-01-27 16:15:12.922
5.0, -230.49751406908035, -274.77792954444885, -203.6899111866951, -26.807602882385254, 0.09600000455975533, -0.03200000151991844, 1.008000047877431, 0.0, 0.0, 0.0, 0.0, 0.0, 1.7063901129361582E9, 0.0, 2024-01-27 16:15:12.936
5.0, -327.91442811489105, -273.5811615586281, -179.27584427595139, -72.04543274641037, 0.09600000455975533, -0.03200000151991844, 1.008000047877431, 0.0, 0.0, 0.0, 0.0, 0.0, 1.7063901129361582E9, 0.0, 2024-01-27 16:15:12.936
6.0, -332.70150005817413, -268.55473601818085, -162.0423852801323, -114.41101944446564, 0.09600000455975533, -0.03200000151991844, 1.008000047877431, 0.0, 0.0, 0.0, 0.0, 0.0, 1.7063901129516728E9, 0.0, 2024-01-27 16:15:12.951
6.0, -246.77355867624283, -288.42108458280563, -208.9556903243065, -56.72680252790451, 0.09600000455975533, -0.03200000151991844, 1.008000047877431, 0.0, 0.0, 0.0, 0.0, 0.0, 1.7063901129516728E9, 0.0, 2024-01-27 16:15:12.951
7.0, -309.4842011332512, -298.23458206653595, -215.41823744773865, -67.49771440029144, 0.09600000455975533, -0.03200000151991844, 1.008000047877431, 0.0, 0.0, 0.0, 0.0, 0.0, 1.7063901129524093E9, 0.0, 2024-01-27 16:15:12.952
7.0, -374.82773315906525, -288.6604381799698, -177.83972269296646, -139.78250074386597, 0.09600000455975533, -0.03200000151991844, 1.008000047877431, 0.0, 0.0, 0.0, 0.0, 0.0, 1.7063901129524093E9, 0.0, 2024-01-27 16:15:12.952
8.0, -293.686863720417, -312.35644429922104, -221.16272377967834, -108.18782591819763, 0.09600000455975533, -0.03200000151991844, 1.008000047877431, 0.0, 0.0, 0.0, 0.0, 0.0, 1.7063901129659815E9, 0.0, 2024-01-27 16:15:12.965
8.0, -296.55910688638687, -324.0847705602646, -240.78971874713898, -77.31121188402176, 0.09600000455975533, -0.03200000151991844, 1.008000047877431, 0.0, 0.0, 0.0, 0.0, 0.0, 1.7063901129659815E9, 0.0, 2024-01-27 16:15:12.965
9.0, -387.0347666144371, -310.20226192474365, -202.73249679803848, -140.97926872968674, 0.09600000455975533, -0.03200000151991844, 1.008000047877431, 0.0, 0.0, 0.0, 0.0, 0.0, 1.7063901129819992E9, 0.0, 2024-01-27 16:15:12.981
9.0, -342.99370473623276, -315.2286874651909, -212.78534787893295, -142.89409750699997, 0.09600000455975533, -0.03200000151991844, 1.008000047877431, 0.0, 0.0, 0.0, 0.0, 0.0, 1.7063901129819992E9, 0.0, 2024-01-27 16:15:12.981
10.0, -290.8146205544472, -347.0627158880234, -258.2625313401222, -90.47565972805023, 0.09600000455975533, -0.03200000151991844, 1.008000047877431, 0.0, 0.0, 0.0, 0.0, 0.0, 1.7063901129824364E9, 0.0, 2024-01-27 16:15:12.982
10.0, -374.82773315906525, -330.3079640865326, -227.1465637087822, -123.02774894237518, 0.09600000455975533, -0.03200000151991844, 1.008000047877431, 0.0, 0.0, 0.0, 0.0, 0.0, 1.7063901129824364E9, 0.0, 2024-01-27 16:15:12.982
11.0, -385.11993783712387, -329.58990329504013, -216.37565183639526, -168.50493240356445, 0.09600000455975533, -0.03200000151991844, 1.008000047877431, 0.0, 0.0, 0.0, 0.0, 0.0, 1.7063901129959495E9, 0.0, 2024-01-27 16:15:12.995
11.0, -299.19199645519257, -348.02013027668, -256.8264097571373, -102.92204678058624, 0.09600000455975533, -0.03200000151991844, 1.008000047877431, 0.0, 0.0, 0.0, 0.0, 0.0, 1.7063901129959495E9, 0.0, 2024-01-27 16:15:12.995
12.0, -349.9349590539932, -350.1743126511574, -252.99675220251083, -106.2729971408844, 0.09600000455975533, -0.03200000151991844, 1.008000047877431, 0.0, 0.0, 0.0, 0.0, 0.0, 1.706390113011633E9, 0.0, 2024-01-27 16:15:13.011
12.0, -412.1668943166733, -329.58990329504013, -211.58857989311218, -166.59010362625122, 0.09600000455975533, -0.03200000151991844, 1.008000047877431, 0.0, 0.0, 0.0, 0.0, 0.0, 1.706390113011633E9, 0.0, 2024-01-27 16:15:13.011
13.0, -320.2551130056381, -342.51499754190445, -240.55036514997482, -121.83098095655441, 0.09600000455975533, -0.03200000151991844, 1.008000047877431, 0.0, 0.0, 0.0, 0.0, 0.0, 1.7063901130123296E9, 0.0, 2024-01-27 16:15:13.012
13.0, -323.3667097687721, -351.131727039814, -260.17736011743546, -96.45949965715408, 0.09600000455975533, -0.03200000151991844, 1.008000047877431, 0.0, 0.0, 0.0, 0.0, 0.0, 1.7063901130123296E9, 0.0, 2024-01-27 16:15:13.012
14.0, -400.43856805562973, -328.87184250354767, -216.61500543355942, -157.01595973968506, 0.09600000455975533, -0.03200000151991844, 1.008000047877431, 0.0, 0.0, 0.0, 0.0, 0.0, 1.7063901130264697E9, 0.0, 2024-01-27 16:15:13.026
14.0, -347.30206948518753, -326.95701372623444, -218.52983421087265, -146.48440146446228, 0.09600000455975533, -0.03200000151991844, 1.008000047877431, 0.0, 0.0, 0.0, 0.0, 0.0, 1.7063901130264697E9, 0.0, 2024-01-27 16:15:13.026
15.0, -296.798460483551, -352.8072022199631, -262.81024968624115, -93.34790289402008, 0.09600000455975533, -0.03200000151991844, 1.008000047877431, 0.0, 0.0, 0.0, 0.0, 0.0, 1.7063901130416284E9, 0.0, 2024-01-27 16:15:13.041
15.0, -381.05092668533325, -342.51499754190445, -235.28458601236343, -135.9528431892395, 0.09600000455975533, -0.03200000151991844, 1.008000047877431, 0.0, 0.0, 0.0, 0.0, 0.0, 1.7063901130416284E9, 0.0, 2024-01-27 16:15:13.041
16.0, -389.1889489889145, -332.46214646101, -218.2904806137085, -169.46234679222107, 0.09600000455975533, -0.03200000151991844, 1.008000047877431, 0.0, 0.0, 0.0, 0.0, 0.0, 1.706390113042434E9, 0.0, 2024-01-27 16:15:13.042
16.0, -300.38876444101334, -354.7220309972763, -260.17736011743546, -106.75170433521271, 0.09600000455975533, -0.03200000151991844, 1.008000047877431, 0.0, 0.0, 0.0, 0.0, 0.0, 1.706390113042434E9, 0.0, 2024-01-27 16:15:13.042
17.0, -353.52526301145554, -351.131727039814, -257.54447054862976, -110.82071548700333, 0.09600000455975533, -0.03200000151991844, 1.008000047877431, 0.0, 0.0, 0.0, 0.0, 0.0, 1.706390113056035E9, 0.0, 2024-01-27 16:15:13.056
17.0, -418.8687950372696, -336.5311576128006, -216.61500543355942, -178.79713708162308, 0.09600000455975533, -0.03200000151991844, 1.008000047877431, 0.0, 0.0, 0.0, 0.0, 0.0, 1.706390113056035E9, 0.0, 2024-01-27 16:15:13.056
18.0, -326.4783065319061, -345.14788711071014, -248.4490338563919, -136.19219678640366, 0.09600000455975533, -0.03200000151991844, 1.008000047877431, 0.0, 0.0, 0.0, 0.0, 0.0, 1.7063901130715969E9, 0.0, 2024-01-27 16:15:13.071
18.0, -325.76024574041367, -360.22716373205185, -266.1612000465393, -101.00721800327301, 0.09600000455975533, -0.03200000151991844, 1.008000047877431, 0.0, 0.0, 0.0, 0.0, 0.0, 1.7063901130715969E9, 0.0, 2024-01-27 16:15:13.071
19.0, -412.40624791383743, -339.6427543759346, -221.16272377967834, -162.5210924744606, 0.09600000455975533, -0.03200000151991844, 1.008000047877431, 0.0, 0.0, 0.0, 0.0, 0.0, 1.7063901130723062E9, 0.0, 2024-01-27 16:15:13.072
19.0, -348.73819106817245, -328.1537817120552, -216.1362982392311, -143.85151189565659, 0.09600000455975533, -0.03200000151991844, 1.008000047877431, 0.0, 0.0, 0.0, 0.0, 0.0, 1.7063901130723062E9, 0.0, 2024-01-27 16:15:13.072
20.0, -290.0965597629547, -347.30206948518753, -252.27869141101837, -84.73117339611053, 0.09600000455975533, -0.03200000151991844, 1.008000047877431, 0.0, 0.0, 0.0, 0.0, 0.0, 1.7063901130864813E9, 0.0, 2024-01-27 16:15:13.086
20.0, -375.0670867562294, -331.98343926668167, -230.49751406908035, -127.33611369132996, 0.09600000455975533, -0.03200000151991844, 1.008000047877431, 0.0, 0.0, 0.0, 0.0, 0.0, 1.7063901130864813E9, 0.0, 2024-01-27 16:15:13.086
21.0, -381.7689874768257, -319.7764058113098, -207.75892233848572, -161.80303168296814, 0.09600000455975533, -0.03200000151991844, 1.008000047877431, 0.0, 0.0, 0.0, 0.0, 0.0, 1.7063901131019547E9, 0.0, 2024-01-27 16:15:13.101
21.0, -297.5165212750435, -343.2330583333969, -253.7148129940033, -103.6401075720787, 0.09600000455975533, -0.03200000151991844, 1.008000047877431, 0.0, 0.0, 0.0, 0.0, 0.0, 1.7063901131019547E9, 0.0, 2024-01-27 16:15:13.101
22.0, -346.58400869369507, -341.3182295560837, -250.6032162308693, -107.70911872386932, 0.09600000455975533, -0.03200000151991844, 1.008000047877431, 0.0, 0.0, 0.0, 0.0, 0.0, 1.7063901131024148E9, 0.0, 2024-01-27 16:15:13.102
22.0, -413.6030158996582, -325.28153854608536, -216.61500543355942, -167.54751801490784, 0.09600000455975533, -0.03200000151991844, 1.008000047877431, 0.0, 0.0, 0.0, 0.0, 0.0, 1.7063901131024148E9, 0.0, 2024-01-27 16:15:13.102
23.0, -321.69123458862305, -338.44598639011383, -239.83230435848236, -127.33611369132996, 0.09600000455975533, -0.03200000151991844, 1.008000047877431, 0.0, 0.0, 0.0, 0.0, 0.0, 1.7063901131161084E9, 0.0, 2024-01-27 16:15:13.116
23.0, -329.58990329504013, -361.6632853150368, -264.7250784635544, -88.08212375640869, 0.09600000455975533, -0.03200000151991844, 1.008000047877431, 0.0, 0.0, 0.0, 0.0, 0.0, 1.7063901131161084E9, 0.0, 2024-01-27 16:15:13.116
24.0, -417.43267345428467, -338.685339987278, -221.4020773768425, -154.62242376804352, 0.09600000455975533, -0.03200000151991844, 1.008000047877431, 0.0, 0.0, 0.0, 0.0, 0.0, 1.7063901131316729E9, 0.0, 2024-01-27 16:15:13.131
24.0, -369.3226004242897, -341.796936750412, -228.82203888893127, -158.69143491983414, 0.09600000455975533, -0.03200000151991844, 1.008000047877431, 0.0, 0.0, 0.0, 0.0, 0.0, 1.7063901131316729E9, 0.0, 2024-01-27 16:15:13.131
25.0, -314.0319194793701, -363.57811409235, -272.62374716997147, -97.65626764297485, 0.09600000455975533, -0.03200000151991844, 1.008000047877431, 0.0, 0.0, 0.0, 0.0, 0.0, 1.706390113132346E9, 0.0, 2024-01-27 16:15:13.132
25.0, -397.3269712924957, -347.0627158880234, -233.3697572350502, -129.96900326013565, 0.09600000455975533, -0.03200000151991844, 1.008000047877431, 0.0, 0.0, 0.0, 0.0, 0.0, 1.706390113132346E9, 0.0, 2024-01-27 16:15:13.132
26.0, -398.76309287548065, -338.685339987278, -219.48724859952927, -171.13782197237015, 0.09600000455975533, -0.03200000151991844, 1.008000047877431, 0.0, 0.0, 0.0, 0.0, 0.0, 1.7063901131459415E9, 0.0, 2024-01-27 16:15:13.145
26.0, -302.30359321832657, -349.21689826250076, -252.27869141101837, -105.07622915506363, 0.09600000455975533, -0.03200000151991844, 1.008000047877431, 0.0, 0.0, 0.0, 0.0, 0.0, 1.7063901131459415E9, 0.0, 2024-01-27 16:15:13.145
27.0, -353.7646166086197, -351.6104342341423, -256.8264097571373, -108.42717951536179, 0.09600000455975533, -0.03200000151991844, 1.008000047877431, 0.0, 0.0, 0.0, 0.0, 0.0, 1.706390113161646E9, 0.0, 2024-01-27 16:15:13.161
27.0, -411.20947992801666, -330.54731768369675, -218.7691878080368, -175.44618672132492, 0.09600000455975533, -0.03200000151991844, 1.008000047877431, 0.0, 0.0, 0.0, 0.0, 0.0, 1.706390113161646E9, 0.0, 2024-01-27 16:15:13.161
28.0, -325.28153854608536, -344.4298263192177, -247.25226587057114, -132.12318563461304, 0.09600000455975533, -0.03200000151991844, 1.008000047877431, 0.0, 0.0, 0.0, 0.0, 0.0, 1.7063901131623502E9, 0.0, 2024-01-27 16:15:13.162
28.0, -324.5634777545929, -357.59427416324615, -271.905686378479, -100.5285108089447, 0.09600000455975533, -0.03200000151991844, 1.008000047877431, 0.0, 0.0, 0.0, 0.0, 0.0, 1.7063901131623502E9, 0.0, 2024-01-27 16:15:13.162
29.0, -410.0127119421959, -338.44598639011383, -224.27432054281235, -159.4094957113266, 0.09600000455975533, -0.03200000151991844, 1.008000047877431, 0.0, 0.0, 0.0, 0.0, 0.0, 1.7063901131761844E9, 0.0, 2024-01-27 16:15:13.176
29.0, -354.96138459444046, -337.0098648071289, -227.6252709031105, -156.53725254535675, 0.09600000455975533, -0.03200000151991844, 1.008000047877431, 0.0, 0.0, 0.0, 0.0, 0.0, 1.7063901131761844E9, 0.0, 2024-01-27 16:15:13.176
30.0, -304.93648278713226, -355.2007381916046, -269.2727968096733, -98.61368203163147, 0.09600000455975533, -0.03200000151991844, 1.008000047877431, 0.0, 0.0, 0.0, 0.0, 0.0, 1.7063901132082183E9, 0.0, 2024-01-27 16:15:13.208
30.0, -379.6148051023483, -334.13762164115906, -233.13040363788605, -125.66063851118088, 0.09600000455975533, -0.03200000151991844, 1.008000047877431, 0.0, 0.0, 0.0, 0.0, 0.0, 1.7063901132082183E9, 0.0, 2024-01-27 16:15:13.208
31.0, -380.8115730881691, -322.4092953801155, -210.15245831012726, -158.21272772550583, 0.09600000455975533, -0.03200000151991844, 1.008000047877431, 0.0, 0.0, 0.0, 0.0, 0.0, 1.7063901132091048E9, 0.0, 2024-01-27 16:15:13.209
31.0, -298.71328926086426, -347.0627158880234, -257.54447054862976, -106.2729971408844, 0.09600000455975533, -0.03200000151991844, 1.008000047877431, 0.0, 0.0, 0.0, 0.0, 0.0, 1.7063901132091048E9, 0.0, 2024-01-27 16:15:13.209
32.0, -347.30206948518753, -344.908533513546, -256.10834896564484, -114.65037304162979, 0.09600000455975533, -0.03200000151991844, 1.008000047877431, 0.0, 0.0, 0.0, 0.0, 0.0, 1.7063901132096217E9, 0.0, 2024-01-27 16:15:13.209
32.0, -399.72050726413727, -318.57963782548904, -202.49314320087433, -157.73402053117752, 0.09600000455975533, -0.03200000151991844, 1.008000047877431, 0.0, 0.0, 0.0, 0.0, 0.0, 1.7063901132096217E9, 0.0, 2024-01-27 16:15:13.209
33.0, -320.4944666028023, -335.3343896269798, -239.1142435669899, -123.9851633310318, 0.09600000455975533, -0.03200000151991844, 1.008000047877431, 0.0, 0.0, 0.0, 0.0, 0.0, 1.706390113210443E9, 0.0, 2024-01-27 16:15:13.210
33.0, -315.7073946595192, -349.69560545682907, -258.02317774295807, -86.64600217342377, 0.09600000455975533, -0.03200000151991844, 1.008000047877431, 0.0, 0.0, 0.0, 0.0, 0.0, 1.706390113210443E9, 0.0, 2024-01-27 16:15:13.210
34.0, -411.4488335251808, -333.65891444683075, -216.61500543355942, -153.42565578222275, 0.09600000455975533, -0.03200000151991844, 1.008000047877431, 0.0, 0.0, 0.0, 0.0, 0.0, 1.706390113221244E9, 0.0, 2024-01-27 16:15:13.221
34.0, -357.59427416324615, -336.0524504184723, -221.4020773768425, -147.20246225595474, 0.09600000455975533, -0.03200000151991844, 1.008000047877431, 0.0, 0.0, 0.0, 0.0, 0.0, 1.706390113221244E9, 0.0, 2024-01-27 16:15:13.221
35.0, -301.1068252325058, -349.69560545682907, -268.07602882385254, -85.20988059043884, 0.09600000455975533, -0.03200000151991844, 1.008000047877431, 0.0, 0.0, 0.0, 0.0, 0.0, 1.7063901132359068E9, 0.0, 2024-01-27 16:15:13.235
35.0, -382.72640186548233, -335.573743224144, -237.43876838684082, -127.57546728849411, 0.09600000455975533, -0.03200000151991844, 1.008000047877431, 0.0, 0.0, 0.0, 0.0, 0.0, 1.7063901132359068E9, 0.0, 2024-01-27 16:15:13.235
36.0, -394.9334353208542, -332.2227928638458, -208.9556903243065, -162.9997996687889, 0.09600000455975533, -0.03200000151991844, 1.008000047877431, 0.0, 0.0, 0.0, 0.0, 0.0, 1.7063901132519705E9, 0.0, 2024-01-27 16:15:13.251
36.0, -304.6971291899681, -351.84978783130646, -259.21994572877884, -105.31558275222778, 0.09600000455975533, -0.03200000151991844, 1.008000047877431, 0.0, 0.0, 0.0, 0.0, 0.0, 1.7063901132519705E9, 0.0, 2024-01-27 16:15:13.251
37.0, -356.8762133717537, -356.15815258026123, -264.7250784635544, -111.53877627849579, 0.09600000455975533, -0.03200000151991844, 1.008000047877431, 0.0, 0.0, 0.0, 0.0, 0.0, 1.7063901132524064E9, 0.0, 2024-01-27 16:15:13.252
37.0, -418.8687950372696, -337.0098648071289, -222.35949176549911, -171.13782197237015, 0.09600000455975533, -0.03200000151991844, 1.008000047877431, 0.0, 0.0, 0.0, 0.0, 0.0, 1.7063901132524064E9, 0.0, 2024-01-27 16:15:13.252
38.0, -324.32412415742874, -343.9511191248894, -247.25226587057114, -127.33611369132996, 0.09600000455975533, -0.03200000151991844, 1.008000047877431, 0.0, 0.0, 0.0, 0.0, 0.0, 1.706390113266284E9, 0.0, 2024-01-27 16:15:13.266
38.0, -325.9995993375778, -356.63685977458954, -268.55473601818085, -95.98079246282578, 0.09600000455975533, -0.03200000151991844, 1.008000047877431, 0.0, 0.0, 0.0, 0.0, 0.0, 1.706390113266284E9, 0.0, 2024-01-27 16:15:13.266
39.0, -416.95396625995636, -339.40340077877045, -230.7368676662445, -159.64884930849075, 0.09600000455975533, -0.03200000151991844, 1.008000047877431, 0.0, 0.0, 0.0, 0.0, 0.0, 1.70639011328167E9, 0.0, 2024-01-27 16:15:13.281
39.0, -356.63685977458954, -335.3343896269798, -223.31690615415573, -147.68116945028305, 0.09600000455975533, -0.03200000151991844, 1.008000047877431, 0.0, 0.0, 0.0, 0.0, 0.0, 1.70639011328167E9, 0.0, 2024-01-27 16:15:13.281
40.0, -301.82488602399826, -352.32849502563477, -261.85283529758453, -86.16729497909546, 0.09600000455975533, -0.03200000151991844, 1.008000047877431, 0.0, 0.0, 0.0, 0.0, 0.0, 1.7063901132825365E9, 0.0, 2024-01-27 16:15:13.282
40.0, -386.0773522257805, -342.7543511390686, -232.17298924922943, -127.57546728849411, 0.09600000455975533, -0.03200000151991844, 1.008000047877431, 0.0, 0.0, 0.0, 0.0, 0.0, 1.7063901132825365E9, 0.0, 2024-01-27 16:15:13.282
41.0, -382.9657554626465, -320.9731737971306, -211.34922629594803, -158.9307885169983, 0.09600000455975533, -0.03200000151991844, 1.008000047877431, 0.0, 0.0, 0.0, 0.0, 0.0, 1.7063901132959523E9, 0.0, 2024-01-27 16:15:13.295
41.0, -291.7720349431038, -338.685339987278, -244.3800227046013, -97.89562124013901, 0.09600000455975533, -0.03200000151991844, 1.008000047877431, 0.0, 0.0, 0.0, 0.0, 0.0, 1.7063901132959523E9, 0.0, 2024-01-27 16:15:13.295
42.0, -344.66917991638184, -339.6427543759346, -245.09808349609375, -96.93820685148239, 0.09600000455975533, -0.03200000151991844, 1.008000047877431, 0.0, 0.0, 0.0, 0.0, 0.0, 1.7063901133117547E9, 0.0, 2024-01-27 16:15:13.311
42.0, -409.77335834503174, -323.3667097687721, -211.10987269878387, -161.08497089147568, 0.09600000455975533, -0.03200000151991844, 1.008000047877431, 0.0, 0.0, 0.0, 0.0, 0.0, 1.7063901133117547E9, 0.0, 2024-01-27 16:15:13.311
43.0, -312.5957978963852, -329.58990329504013, -231.45492845773697, -118.2406769990921, 0.09600000455975533, -0.03200000151991844, 1.008000047877431, 0.0, 0.0, 0.0, 0.0, 0.0, 1.7063901133125792E9, 0.0, 2024-01-27 16:15:13.312
43.0, -308.04807955026627, -336.5311576128006, -249.16709464788437, -79.7047478556633, 0.09600000455975533, -0.03200000151991844, 1.008000047877431, 0.0, 0.0, 0.0, 0.0, 0.0, 1.7063901133125792E9, 0.0, 2024-01-27 16:15:13.312
44.0, -394.9334353208542, -318.57963782548904, -205.36538636684418, -134.51672160625458, 0.09600000455975533, -0.03200000151991844, 1.008000047877431, 0.0, 0.0, 0.0, 0.0, 0.0, 1.706390113325961E9, 0.0, 2024-01-27 16:15:13.325
44.0, -351.6104342341423, -324.80283135175705, -219.2478950023651, -136.91025757789612, 0.09600000455975533, -0.03200000151991844, 1.008000047877431, 0.0, 0.0, 0.0, 0.0, 0.0, 1.706390113325961E9, 0.0, 2024-01-27 16:15:13.325
45.0, -299.6707036495209, -349.9349590539932, -257.3051169514656, -84.01311260461807, 0.09600000455975533, -0.03200000151991844, 1.008000047877431, 0.0, 0.0, 0.0, 0.0, 0.0, 1.7063901133417804E9, 0.0, 2024-01-27 16:15:13.341
45.0, -379.8541586995125, -333.8982680439949, -226.90721011161804, -116.32584822177887, 0.09600000455975533, -0.03200000151991844, 1.008000047877431, 0.0, 0.0, 0.0, 0.0, 0.0, 1.7063901133417804E9, 0.0, 2024-01-27 16:15:13.341
46.0, -382.00834107398987, -324.32412415742874, -205.60473996400833, -154.86177736520767, 0.09600000455975533, -0.03200000151991844, 1.008000047877431, 0.0, 0.0, 0.0, 0.0, 0.0, 1.7063901133423235E9, 0.0, 2024-01-27 16:15:13.342
46.0, -296.08039969205856, -342.2756439447403, -244.8587298989296, -92.62984210252762, 0.09600000455975533, -0.03200000151991844, 1.008000047877431, 0.0, 0.0, 0.0, 0.0, 0.0, 1.7063901133423235E9, 0.0, 2024-01-27 16:15:13.342
47.0, -341.55758315324783, -339.6427543759346, -244.61937630176544, -97.17756044864655, 0.09600000455975533, -0.03200000151991844, 1.008000047877431, 0.0, 0.0, 0.0, 0.0, 0.0, 1.706390113355974E9, 0.0, 2024-01-27 16:15:13.355
47.0, -405.2256399989128, -320.73382019996643, -209.4343975186348, -159.4094957113266, 0.09600000455975533, -0.03200000151991844, 1.008000047877431, 0.0, 0.0, 0.0, 0.0, 0.0, 1.706390113355974E9, 0.0, 2024-01-27 16:15:13.355
48.0, -314.27127307653427, -328.6324889063835, -225.47108852863312, -113.93231225013733, 0.09600000455975533, -0.03200000151991844, 1.008000047877431, 0.0, 0.0, 0.0, 0.0, 0.0, 1.7063901133716693E9, 0.0, 2024-01-27 16:15:13.371
48.0, -310.9203227162361, -339.88210797309875, -253.7148129940033, -74.67832231521606, 0.09600000455975533, -0.03200000151991844, 1.008000047877431, 0.0, 0.0, 0.0, 0.0, 0.0, 1.7063901133716693E9, 0.0, 2024-01-27 16:15:13.371
49.0, -399.9598608613014, -319.05834501981735, -204.1686183810234, -138.1070255637169, 0.09600000455975533, -0.03200000151991844, 1.008000047877431, 0.0, 0.0, 0.0, 0.0, 0.0, 1.706390113372376E9, 0.0, 2024-01-27 16:15:13.372
49.0, -349.4562518596649, -320.4944666028023, -213.50340867042542, -139.5431471467018, 0.09600000455975533, -0.03200000151991844, 1.008000047877431, 0.0, 0.0, 0.0, 0.0, 0.0, 1.706390113372376E9, 0.0, 2024-01-27 16:15:13.372
50.0, -290.8146205544472, -345.14788711071014, -263.5283104777336, -78.50797986984253, 0.09600000455975533, -0.03200000151991844, 1.0240000486373901, 0.0, 0.0, 0.0, 0.0, 0.0, 1.7063901133859532E9, 0.0, 2024-01-27 16:15:13.385
50.0, -380.57221949100494, -333.4195608496666, -237.43876838684082, -122.78839534521103, 0.09600000455975533, -0.03200000151991844, 1.0240000486373901, 0.0, 0.0, 0.0, 0.0, 0.0, 1.7063901133859532E9, 0.0, 2024-01-27 16:15:13.385
51.0, -381.2902802824974, -316.6648090481758, -204.40797197818756, -156.05854535102844, 0.09600000455975533, -0.03200000151991844, 1.0240000486373901, 0.0, 0.0, 0.0, 0.0, 0.0, 1.7063901134018698E9, 0.0, 2024-01-27 16:15:13.401
51.0, -294.64427810907364, -337.72792559862137, -243.18325471878052, -93.58725649118423, 0.09600000455975533, -0.03200000151991844, 1.0240000486373901, 0.0, 0.0, 0.0, 0.0, 0.0, 1.7063901134018698E9, 0.0, 2024-01-27 16:15:13.401
52.0, -337.0098648071289, -334.3769752383232, -247.9703266620636, -92.39048850536346, 0.09600000455975533, -0.03200000151991844, 1.0240000486373901, 0.0, 0.0, 0.0, 0.0, 0.0, 1.706390113402404E9, 0.0, 2024-01-27 16:15:13.402
52.0, -398.76309287548065, -316.6648090481758, -206.8015079498291, -157.01595973968506, 0.09600000455975533, -0.03200000151991844, 1.0240000486373901, 0.0, 0.0, 0.0, 0.0, 0.0, 1.706390113402404E9, 0.0, 2024-01-27 16:15:13.402
53.0, -306.61195796728134, -325.5208921432495, -227.86462450027466, -111.53877627849579, 0.09600000455975533, -0.03200000151991844, 1.0240000486373901, 0.0, 0.0, 0.0, 0.0, 0.0, 1.706390113416108E9, 0.0, 2024-01-27 16:15:13.416
53.0, -311.15967631340027, -341.796936750412, -248.68838745355606, -76.83250468969345, 0.09600000455975533, -0.03200000151991844, 1.0240000486373901, 0.0, 0.0, 0.0, 0.0, 0.0, 1.706390113416108E9, 0.0, 2024-01-27 16:15:13.416
54.0, -404.02887201309204, -325.0421849489212, -213.26405507326126, -143.61215829849243, 0.09600000455975533, -0.03200000151991844, 1.0240000486373901, 0.0, 0.0, 0.0, 0.0, 0.0, 1.7063901134320607E9, 0.0, 2024-01-27 16:15:13.432
54.0, -352.0891414284706, -325.28153854608536, -215.41823744773865, -136.67090398073196, 0.09600000455975533, -0.03200000151991844, 1.0240000486373901, 0.0, 0.0, 0.0, 0.0, 0.0, 1.7063901134320607E9, 0.0, 2024-01-27 16:15:13.432
55.0, -293.686863720417, -347.5414230823517, -255.39028817415237, -75.87509030103683, 0.09600000455975533, -0.03200000151991844, 1.0240000486373901, 0.0, 0.0, 0.0, 0.0, 0.0, 1.7063901134324276E9, 0.0, 2024-01-27 16:15:13.432
55.0, -380.09351229667664, -332.9408536553383, -223.79561334848404, -109.3845939040184, 0.09600000455975533, -0.03200000151991844, 1.0240000486373901, 0.0, 0.0, 0.0, 0.0, 0.0, 1.7063901134324276E9, 0.0, 2024-01-27 16:15:13.432
56.0, -382.247694671154, -319.7764058113098, -207.2802151441574, -153.90436297655106, 0.09600000455975533, -0.03200000151991844, 1.0240000486373901, 0.0, 0.0, 0.0, 0.0, 0.0, 1.7063901134459305E9, 0.0, 2024-01-27 16:15:13.445
56.0, -296.3197532892227, -343.9511191248894, -244.8587298989296, -91.91178131103516, 0.09600000455975533, -0.03200000151991844, 1.0240000486373901, 0.0, 0.0, 0.0, 0.0, 0.0, 1.7063901134459305E9, 0.0, 2024-01-27 16:15:13.445
57.0, -339.40340077877045, -341.0788759589195, -241.50777953863144, -89.75759893655777, 0.09600000455975533, -0.03200000151991844, 1.0240000486373901, 0.0, 0.0, 0.0, 0.0, 0.0, 1.7063901134616008E9, 0.0, 2024-01-27 16:15:13.461
57.0, -410.4914191365242, -325.5208921432495, -212.0672870874405, -159.64884930849075, 0.09600000455975533, -0.03200000151991844, 1.0240000486373901, 0.0, 0.0, 0.0, 0.0, 0.0, 1.7063901134616008E9, 0.0, 2024-01-27 16:15:13.461
58.0, -312.35644429922104, -328.1537817120552, -229.7794532775879, -111.53877627849579, 0.09600000455975533, -0.03200000151991844, 1.0240000486373901, 0.0, 0.0, 0.0, 0.0, 0.0, 1.7063901134623344E9, 0.0, 2024-01-27 16:15:13.462
58.0, -315.46804106235504, -347.30206948518753, -256.347702562809, -79.94410145282745, 0.09600000455975533, -0.03200000151991844, 1.0240000486373901, 0.0, 0.0, 0.0, 0.0, 0.0, 1.7063901134623344E9, 0.0, 2024-01-27 16:15:13.462
59.0, -404.2682256102562, -327.6750745177269, -215.6575910449028, -142.41539031267166, 0.09600000455975533, -0.03200000151991844, 1.0240000486373901, 0.0, 0.0, 0.0, 0.0, 0.0, 1.7063901134759493E9, 0.0, 2024-01-27 16:15:13.475
59.0, -345.62659430503845, -318.57963782548904, -205.36538636684418, -134.51672160625458, 0.09600000455975533, -0.03200000151991844, 1.0240000486373901, 0.0, 0.0, 0.0, 0.0, 0.0, 1.7063901134759493E9, 0.0, 2024-01-27 16:15:13.475
60.0, -293.686863720417, -345.62659430503845, -256.347702562809, -79.7047478556633, 0.09600000455975533, -0.03200000151991844, 1.008000047877431, 0.0, 0.0, 0.0, 0.0, 0.0, 1.7063901134918685E9, 0.0, 2024-01-27 16:15:13.491
60.0, -379.13609790802, -336.29180401563644, -224.5136741399765, -115.84714102745056, 0.09600000455975533, -0.03200000151991844, 1.008000047877431, 0.0, 0.0, 0.0, 0.0, 0.0, 1.7063901134918685E9, 0.0, 2024-01-27 16:15:13.491
61.0, -386.5560594201088, -321.21252739429474, -210.15245831012726, -157.2553133368492, 0.09600000455975533, -0.03200000151991844, 1.008000047877431, 0.0, 0.0, 0.0, 0.0, 0.0, 1.7063901134925375E9, 0.0, 2024-01-27 16:15:13.492
61.0, -292.01138854026794, -337.24921840429306, -243.90131551027298, -91.1937205195427, 0.09600000455975533, -0.03200000151991844, 1.008000047877431, 0.0, 0.0, 0.0, 0.0, 0.0, 1.7063901134925375E9, 0.0, 2024-01-27 16:15:13.492
62.0, -342.2756439447403, -338.2066327929497, -237.43876838684082, -89.99695253372192, 0.09600000455975533, -0.03200000151991844, 1.008000047877431, 0.0, 0.0, 0.0, 0.0, 0.0, 1.7063901135061493E9, 0.0, 2024-01-27 16:15:13.506
62.0, -407.8585295677185, -319.05834501981735, -196.03059607744217, -156.7766061425209, 0.09600000455975533, -0.03200000151991844, 1.008000047877431, 0.0, 0.0, 0.0, 0.0, 0.0, 1.7063901135061493E9, 0.0, 2024-01-27 16:15:13.506
63.0, -312.83515149354935, -328.6324889063835, -227.1465637087822, -111.29942268133163, 0.09600000455975533, -0.03200000151991844, 1.008000047877431, 0.0, 0.0, 0.0, 0.0, 0.0, 1.7063901135216289E9, 0.0, 2024-01-27 16:15:13.521
63.0, -308.5267867445946, -338.685339987278, -245.8161442875862, -73.00284713506699, 0.09600000455975533, -0.03200000151991844, 1.008000047877431, 0.0, 0.0, 0.0, 0.0, 0.0, 1.7063901135216289E9, 0.0, 2024-01-27 16:15:13.521
64.0, -399.72050726413727, -321.69123458862305, -212.30664068460464, -137.14961117506027, 0.09600000455975533, -0.03200000151991844, 1.008000047877431, 0.0, 0.0, 0.0, 0.0, 0.0, 1.7063901135223267E9, 0.0, 2024-01-27 16:15:13.522
64.0, -349.9349590539932, -319.2976986169815, -211.10987269878387, -136.4315503835678, 0.09600000455975533, -0.03200000151991844, 1.008000047877431, 0.0, 0.0, 0.0, 0.0, 0.0, 1.7063901135223267E9, 0.0, 2024-01-27 16:15:13.522
65.0, -292.2507421374321, -346.3446550965309, -256.58705615997314, -77.31121188402176, 0.09600000455975533, -0.03200000151991844, 1.008000047877431, 0.0, 0.0, 0.0, 0.0, 0.0, 1.7063901135362158E9, 0.0, 2024-01-27 16:15:13.536
65.0, -379.6148051023483, -333.4195608496666, -230.49751406908035, -118.71938419342041, 0.09600000455975533, -0.03200000151991844, 1.008000047877431, 0.0, 0.0, 0.0, 0.0, 0.0, 1.7063901135362158E9, 0.0, 2024-01-27 16:15:13.536
66.0, -386.79541301727295, -323.12735617160797, -208.71633672714233, -157.49466693401337, 0.09600000455975533, -0.03200000151991844, 1.008000047877431, 0.0, 0.0, 0.0, 0.0, 0.0, 1.7063901135517516E9, 0.0, 2024-01-27 16:15:13.551
66.0, -301.5855324268341, -343.9511191248894, -245.3374370932579, -95.74143886566162, 0.09600000455975533, -0.03200000151991844, 1.008000047877431, 0.0, 0.0, 0.0, 0.0, 0.0, 1.7063901135517516E9, 0.0, 2024-01-27 16:15:13.551
67.0, -347.0627158880234, -344.4298263192177, -242.7045475244522, -95.98079246282578, 0.09600000455975533, -0.03200000151991844, 1.008000047877431, 0.0, 0.0, 0.0, 0.0, 0.0, 1.7063901135524251E9, 0.0, 2024-01-27 16:15:13.552
67.0, -411.20947992801666, -317.8615770339966, -204.88667917251587, -156.05854535102844, 0.09600000455975533, -0.03200000151991844, 1.008000047877431, 0.0, 0.0, 0.0, 0.0, 0.0, 1.7063901135524251E9, 0.0, 2024-01-27 16:15:13.552
68.0, -318.10093063116074, -330.7866712808609, -225.94979572296143, -113.21425145864487, 0.09600000455975533, -0.03200000151991844, 1.008000047877431, 0.0, 0.0, 0.0, 0.0, 0.0, 1.7063901135660725E9, 0.0, 2024-01-27 16:15:13.566
68.0, -316.1861018538475, -342.99370473623276, -252.99675220251083, -80.66216224431992, 0.09600000455975533, -0.03200000151991844, 1.008000047877431, 0.0, 0.0, 0.0, 0.0, 0.0, 1.7063901135660725E9, 0.0, 2024-01-27 16:15:13.566
69.0, -399.0024464726448, -323.3667097687721, -213.74276226758957, -143.13345110416412, 0.09600000455975533, -0.03200000151991844, 1.008000047877431, 0.0, 0.0, 0.0, 0.0, 0.0, 1.7063901135820415E9, 0.0, 2024-01-27 16:15:13.582
69.0, -352.0891414284706, -322.64864897727966, -210.15245831012726, -140.97926872968674, 0.09600000455975533, -0.03200000151991844, 1.008000047877431, 0.0, 0.0, 0.0, 0.0, 0.0, 1.7063901135820415E9, 0.0, 2024-01-27 16:15:13.582
70.0, -293.2081565260887, -340.6001687645912, -250.6032162308693, -78.98668706417084, 0.09600000455975533, -0.03200000151991844, 0.9920000471174717, 0.0, 0.0, 0.0, 0.0, 0.0, 1.7063901135824404E9, 0.0, 2024-01-27 16:15:13.582
70.0, -373.3916115760803, -328.87184250354767, -227.38591730594635, -118.95873779058456, 0.09600000455975533, -0.03200000151991844, 0.9920000471174717, 0.0, 0.0, 0.0, 0.0, 0.0, 1.7063901135824404E9, 0.0, 2024-01-27 16:15:13.582
71.0, -380.8115730881691, -316.90416264533997, -200.0996072292328, -150.31405901908875, 0.09600000455975533, -0.04800000227987766, 0.9920000471174717, 0.0, 0.0, 0.0, 0.0, 0.0, 1.7063901135960984E9, 0.0, 2024-01-27 16:15:13.596
71.0, -290.33591336011887, -334.13762164115906, -238.87488996982574, -84.73117339611053, 0.09600000455975533, -0.04800000227987766, 0.9920000471174717, 0.0, 0.0, 0.0, 0.0, 0.0, 1.7063901135960984E9, 0.0, 2024-01-27 16:15:13.596
72.0, -336.0524504184723, -332.46214646101, -241.50777953863144, -90.23630613088608, 0.09600000455975533, -0.04800000227987766, 0.9920000471174717, 0.0, 0.0, 0.0, 0.0, 0.0, 1.7063901136116393E9, 0.0, 2024-01-27 16:15:13.611
72.0, -401.1566288471222, -312.5957978963852, -189.56804895401, -153.90436297655106, 0.09600000455975533, -0.04800000227987766, 0.9920000471174717, 0.0, 0.0, 0.0, 0.0, 0.0, 1.7063901136116393E9, 0.0, 2024-01-27 16:15:13.611
73.0, -310.4416155219078, -321.9305881857872, -217.33306622505188, -109.14524030685425, 0.09600000455975533, -0.04800000227987766, 0.9920000471174717, 0.0, 0.0, 0.0, 0.0, 0.0, 1.7063901136123483E9, 0.0, 2024-01-27 16:15:13.612
73.0, -306.3726043701172, -331.02602487802505, -244.61937630176544, -73.00284713506699, 0.09600000455975533, -0.04800000227987766, 0.9920000471174717, 0.0, 0.0, 0.0, 0.0, 0.0, 1.7063901136123483E9, 0.0, 2024-01-27 16:15:13.612
74.0, -405.46499359607697, -327.6750745177269, -214.22146946191788, -148.63858383893967, 0.09600000455975533, -0.04800000227987766, 0.9920000471174717, 0.0, 0.0, 0.0, 0.0, 0.0, 1.70639011362597E9, 0.0, 2024-01-27 16:15:13.625
74.0, -357.354920566082, -326.238952934742, -211.34922629594803, -138.1070255637169, 0.09600000455975533, -0.04800000227987766, 0.9920000471174717, 0.0, 0.0, 0.0, 0.0, 0.0, 1.70639011362597E9, 0.0, 2024-01-27 16:15:13.625
75.0, -284.11271983385086, -333.18020725250244, -245.3374370932579, -65.58288562297821, 0.09600000455975533, -0.04800000227987766, 0.9920000471174717, 0.0, 0.0, 0.0, 0.0, 0.0, 1.7063901136416554E9, 0.0, 2024-01-27 16:15:13.641
75.0, -371.71613639593124, -318.10093063116074, -214.46082305908203, -91.91178131103516, 0.09600000455975533, -0.04800000227987766, 0.9920000471174717, 0.0, 0.0, 0.0, 0.0, 0.0, 1.7063901136416554E9, 0.0, 2024-01-27 16:15:13.641
76.0, -397.5663248896599, -322.64864897727966, -207.75892233848572, -150.0747054219246, 0.09600000455975533, -0.04800000227987766, 0.9920000471174717, 0.0, 0.0, 0.0, 0.0, 0.0, 1.7063901136423428E9, 0.0, 2024-01-27 16:15:13.642
76.0, -292.7294493317604, -320.2551130056381, -224.0349669456482, -62.949996054172516, 0.09600000455975533, -0.04800000227987766, 0.9920000471174717, 0.0, 0.0, 0.0, 0.0, 0.0, 1.7063901136423428E9, 0.0, 2024-01-27 16:15:13.642
77.0, -356.8762133717537, -335.3343896269798, -238.39618277549744, -77.55056548118591, 0.09600000455975533, -0.04800000227987766, 0.9920000471174717, 0.0, 0.0, 0.0, 0.0, 0.0, 1.7063901136559963E9, 0.0, 2024-01-27 16:15:13.655
77.0, -399.4811536669731, -291.7720349431038, -169.70170038938522, -113.21425145864487, 0.09600000455975533, -0.04800000227987766, 0.9920000471174717, 0.0, 0.0, 0.0, 0.0, 0.0, 1.7063901136559963E9, 0.0, 2024-01-27 16:15:13.655
78.0, -327.6750745177269, -316.1861018538475, -210.87051910161972, -81.38022303581238, 0.09600000455975533, -0.04800000227987766, 0.9920000471174717, 0.0, 0.0, 0.0, 0.0, 0.0, 1.7063901136715996E9, 0.0, 2024-01-27 16:15:13.671
78.0, -305.6545435786247, -308.7661403417587, -214.70017665624619, -32.07338201999664, 0.09600000455975533, -0.04800000227987766, 0.9920000471174717, 0.0, 0.0, 0.0, 0.0, 0.0, 1.7063901136715996E9, 0.0, 2024-01-27 16:15:13.671
79.0, -393.7366673350334, -288.42108458280563, -177.121661901474, -95.50208526849747, 0.09600000455975533, -0.04800000227987766, 0.9920000471174717, 0.0, 0.0, 0.0, 0.0, 0.0, 1.7063901136723137E9, 0.0, 2024-01-27 16:15:13.672
79.0, -353.7646166086197, -300.1494108438492, -190.52546334266663, -103.87946116924286, 0.09600000455975533, -0.04800000227987766, 0.9920000471174717, 0.0, 0.0, 0.0, 0.0, 0.0, 1.7063901136723137E9, 0.0, 2024-01-27 16:15:13.672
80.0, -294.64427810907364, -319.2976986169815, -233.60911083221436, -44.2804154753685, 0.09600000455975533, -0.04800000227987766, 0.9920000471174717, 0.0, 0.0, 0.0, 0.0, 0.0, 1.7063901136862476E9, 0.0, 2024-01-27 16:15:13.686
80.0, -383.9231698513031, -312.1170907020569, -218.05112701654434, -87.60341656208038, 0.09600000455975533, -0.04800000227987766, 0.9920000471174717, 0.0, 0.0, 0.0, 0.0, 0.0, 1.7063901136862476E9, 0.0, 2024-01-27 16:15:13.686
81.0, -393.2579601407051, -303.50036120414734, -184.54162341356277, -125.89999210834503, 0.09600000455975533, -0.03200000151991844, 0.9920000471174717, 0.0, 0.0, 0.0, 0.0, 0.0, 1.7063901137016027E9, 0.0, 2024-01-27 16:15:13.701
81.0, -299.19199645519257, -320.4944666028023, -229.06139248609543, -62.949996054172516, 0.09600000455975533, -0.03200000151991844, 0.9920000471174717, 0.0, 0.0, 0.0, 0.0, 0.0, 1.7063901137016027E9, 0.0, 2024-01-27 16:15:13.701
82.0, -344.908533513546, -319.53705221414566, -227.38591730594635, -63.66805684566498, 0.09600000455975533, -0.03200000151991844, 0.9920000471174717, 0.0, 0.0, 0.0, 0.0, 0.0, 1.70639011370235E9, 0.0, 2024-01-27 16:15:13.702
82.0, -415.51784467697144, -307.09066516160965, -191.2435241341591, -133.79866081476212, 0.09600000455975533, -0.03200000151991844, 0.9920000471174717, 0.0, 0.0, 0.0, 0.0, 0.0, 1.70639011370235E9, 0.0, 2024-01-27 16:15:13.702
83.0, -325.76024574041367, -313.79256588220596, -213.98211586475372, -93.58725649118423, 0.09600000455975533, -0.03200000151991844, 0.9920000471174717, 0.0, 0.0, 0.0, 0.0, 0.0, 1.7063901137160287E9, 0.0, 2024-01-27 16:15:13.716
83.0, -315.46804106235504, -328.39313530921936, -236.24200040102005, -52.17908418178558, 0.09600000455975533, -0.03200000151991844, 0.9920000471174717, 0.0, 0.0, 0.0, 0.0, 0.0, 1.7063901137160287E9, 0.0, 2024-01-27 16:15:13.716
84.0, -405.2256399989128, -309.0054939389229, -194.11576730012894, -109.62394750118256, 0.09600000455975533, -0.03200000151991844, 0.9920000471174717, 0.0, 0.0, 0.0, 0.0, 0.0, 1.70639011373184E9, 0.0, 2024-01-27 16:15:13.731
84.0, -356.8762133717537, -312.5957978963852, -197.9454248547554, -116.08649462461472, 0.09600000455975533, -0.03200000151991844, 0.9920000471174717, 0.0, 0.0, 0.0, 0.0, 0.0, 1.70639011373184E9, 0.0, 2024-01-27 16:15:13.731
85.0, -295.60169249773026, -332.9408536553383, -243.18325471878052, -55.769388139247894, 0.09600000455975533, -0.03200000151991844, 0.9920000471174717, 0.0, 0.0, 0.0, 0.0, 0.0, 1.7063901137324257E9, 0.0, 2024-01-27 16:15:13.732
85.0, -388.7102417945862, -325.28153854608536, -221.8807845711708, -96.69885325431824, 0.09600000455975533, -0.03200000151991844, 0.9920000471174717, 0.0, 0.0, 0.0, 0.0, 0.0, 1.7063901137324257E9, 0.0, 2024-01-27 16:15:13.732
86.0, -399.4811536669731, -315.7073946595192, -191.2435241341591, -137.14961117506027, 0.09600000455975533, -0.03200000151991844, 0.9920000471174717, 0.0, 0.0, 0.0, 0.0, 0.0, 1.7063901137625012E9, 0.0, 2024-01-27 16:15:13.762
86.0, -307.56937235593796, -331.7440856695175, -236.72070759534836, -77.31121188402176, 0.09600000455975533, -0.03200000151991844, 0.9920000471174717, 0.0, 0.0, 0.0, 0.0, 0.0, 1.7063901137625012E9, 0.0, 2024-01-27 16:15:13.762
87.0, -355.9187989830971, -333.8982680439949, -234.80587881803513, -74.67832231521606, 0.09600000455975533, -0.03200000151991844, 0.9920000471174717, 0.0, 0.0, 0.0, 0.0, 0.0, 1.7063901137630572E9, 0.0, 2024-01-27 16:15:13.763
87.0, -416.2359054684639, -314.0319194793701, -191.7222313284874, -135.9528431892395, 0.09600000455975533, -0.03200000151991844, 0.9920000471174717, 0.0, 0.0, 0.0, 0.0, 0.0, 1.7063901137630572E9, 0.0, 2024-01-27 16:15:13.763
88.0, -328.87184250354767, -323.6060633659363, -214.93953025341034, -92.15113490819931, 0.09600000455975533, -0.03200000151991844, 0.9920000471174717, 0.0, 0.0, 0.0, 0.0, 0.0, 1.7063901137637932E9, 0.0, 2024-01-27 16:15:13.763
88.0, -323.12735617160797, -335.0950360298157, -238.87488996982574, -59.59904569387436, 0.09600000455975533, -0.03200000151991844, 0.9920000471174717, 0.0, 0.0, 0.0, 0.0, 0.0, 1.7063901137637932E9, 0.0, 2024-01-27 16:15:13.763
89.0, -411.20947992801666, -313.5532122850418, -202.49314320087433, -118.00132340192795, 0.09600000455975533, -0.03200000151991844, 0.9920000471174717, 0.0, 0.0, 0.0, 0.0, 0.0, 1.706390113775939E9, 0.0, 2024-01-27 16:15:13.775
89.0, -367.8864788413048, -317.8615770339966, -198.18477845191956, -119.43744498491287, 0.09600000455975533, -0.03200000151991844, 0.9920000471174717, 0.0, 0.0, 0.0, 0.0, 0.0, 1.706390113775939E9, 0.0, 2024-01-27 16:15:13.775
90.0, -304.6971291899681, -339.40340077877045, -246.77355867624283, -56.00874173641205, 0.09600000455975533, -0.03200000151991844, 1.008000047877431, 0.0, 0.0, 0.0, 0.0, 0.0, 1.706390113791645E9, 0.0, 2024-01-27 16:15:13.791
90.0, -386.31670582294464, -323.84541696310043, -218.2904806137085, -95.50208526849747, 0.09600000455975533, -0.03200000151991844, 1.008000047877431, 0.0, 0.0, 0.0, 0.0, 0.0, 1.706390113791645E9, 0.0, 2024-01-27 16:15:13.791
91.0, -399.24180006980896, -313.79256588220596, -193.63706010580063, -138.5857327580452, 0.09600000455975533, -0.03200000151991844, 1.008000047877431, 0.0, 0.0, 0.0, 0.0, 0.0, 1.7063901137923672E9, 0.0, 2024-01-27 16:15:13.792
91.0, -302.0642396211624, -331.7440856695175, -230.01880687475204, -70.36995756626129, 0.09600000455975533, -0.03200000151991844, 1.008000047877431, 0.0, 0.0, 0.0, 0.0, 0.0, 1.7063901137923672E9, 0.0, 2024-01-27 16:15:13.792
92.0, -348.02013027668, -329.1111961007118, -229.30074608325958, -71.80607914924622, 0.09600000455975533, -0.03200000151991844, 1.008000047877431, 0.0, 0.0, 0.0, 0.0, 0.0, 1.7063901138063128E9, 0.0, 2024-01-27 16:15:13.806
92.0, -408.57659035921097, -303.02165400981903, -182.3874410390854, -131.64447844028473, 0.09600000455975533, -0.03200000151991844, 1.008000047877431, 0.0, 0.0, 0.0, 0.0, 0.0, 1.7063901138063128E9, 0.0, 2024-01-27 16:15:13.806
93.0, -319.53705221414566, -317.8615770339966, -208.23762953281403, -94.3053172826767, 0.09600000455975533, -0.03200000151991844, 1.008000047877431, 0.0, 0.0, 0.0, 0.0, 0.0, 1.7063901138216715E9, 0.0, 2024-01-27 16:15:13.821
93.0, -313.79256588220596, -333.65891444683075, -241.7471331357956, -59.59904569387436, 0.09600000455975533, -0.03200000151991844, 1.008000047877431, 0.0, 0.0, 0.0, 0.0, 0.0, 1.7063901138216715E9, 0.0, 2024-01-27 16:15:13.821
94.0, -405.9437007904053, -319.7764058113098, -204.88667917251587, -123.26710253953934, 0.09600000455975533, -0.03200000151991844, 1.008000047877431, 0.0, 0.0, 0.0, 0.0, 0.0, 1.7063901138223968E9, 0.0, 2024-01-27 16:15:13.822
94.0, -357.354920566082, -309.24484753608704, -203.2112039923668, -117.52261620759964, 0.09600000455975533, -0.03200000151991844, 1.008000047877431, 0.0, 0.0, 0.0, 0.0, 0.0, 1.7063901138223968E9, 0.0, 2024-01-27 16:15:13.822
95.0, -293.9262173175812, -338.685339987278, -240.78971874713898, -59.359692096710205, 0.09600000455975533, -0.03200000151991844, 1.008000047877431, 0.0, 0.0, 0.0, 0.0, 0.0, 1.706390113835996E9, 0.0, 2024-01-27 16:15:13.835
95.0, -374.5883795619011, -315.46804106235504, -206.08344715833664, -86.40664857625961, 0.09600000455975533, -0.03200000151991844, 1.008000047877431, 0.0, 0.0, 0.0, 0.0, 0.0, 1.706390113835996E9, 0.0, 2024-01-27 16:15:13.835
96.0, -380.3328658938408, -298.23458206653595, -174.72812592983246, -117.28326261043549, 0.09600000455975533, -0.03200000151991844, 1.008000047877431, 0.0, 0.0, 0.0, 0.0, 0.0, 1.7063901138517823E9, 0.0, 2024-01-27 16:15:13.851
96.0, -280.7617694735527, -315.2286874651909, -218.7691878080368, -57.44486331939697, 0.09600000455975533, -0.03200000151991844, 1.008000047877431, 0.0, 0.0, 0.0, 0.0, 0.0, 1.7063901138517823E9, 0.0, 2024-01-27 16:15:13.851
97.0, -318.3402842283249, -305.8938971757889, -208.71633672714233, -49.54619461297989, 0.09600000455975533, -0.03200000151991844, 1.008000047877431, 0.0, 0.0, 0.0, 0.0, 0.0, 1.7063901138524284E9, 0.0, 2024-01-27 16:15:13.852
97.0, -395.4121425151825, -302.0642396211624, -181.43002665042877, -123.02774894237518, 0.09600000455975533, -0.03200000151991844, 1.008000047877431, 0.0, 0.0, 0.0, 0.0, 0.0, 1.7063901138524284E9, 0.0, 2024-01-27 16:15:13.852
98.0, -287.9423773884773, -283.63401263952255, -182.8661482334137, -57.20550972223282, 0.09600000455975533, -0.03200000151991844, 1.008000047877431, 0.0, 0.0, 0.0, 0.0, 0.0, 1.706390113865973E9, 0.0, 2024-01-27 16:15:13.865
98.0, -267.3579680323601, -277.6501727104187, -190.76481693983078, -3.1115967631340027, 0.09600000455975533, -0.03200000151991844, 1.008000047877431, 0.0, 0.0, 0.0, 0.0, 0.0, 1.706390113865973E9, 0.0, 2024-01-27 16:15:13.865
99.0, -354.48267740011215, -261.6134817004204, -154.1437165737152, -69.89125037193298, 0.09600000455975533, -0.03200000151991844, 1.008000047877431, 0.0, 0.0, 0.0, 0.0, 0.0, 1.7063901138980446E9, 0.0, 2024-01-27 16:15:13.898
99.0, -296.3197532892227, -247.25226587057114, -140.50056153535843, -56.487448930740356, 0.09600000455975533, -0.03200000151991844, 1.008000047877431, 0.0, 0.0, 0.0, 0.0, 0.0, 1.7063901138980446E9, 0.0, 2024-01-27 16:15:13.898
0.0, -305.1758363842964, -245.3374370932579, -150.79276621341705, -13.643155038356781, 0.09600000455975533, -0.03200000151991844, 0.9920000471174717, 0.0, 0.0, 0.0, 0.0, 0.0, 1.7063901138986533E9, 0.0, 2024-01-27 16:15:13.898
0.0, -314.5106266736984, -229.7794532775879, -119.91615217924118, -51.46102339029312, 0.09600000455975533, -0.03200000151991844, 0.9920000471174717, 0.0, 0.0, 0.0, 0.0, 0.0, 1.7063901138986533E9, 0.0, 2024-01-27 16:15:13.898
1.0, -220.9233701825142, -251.0819234251976, -162.9997996687889, 9.095436692237854, 0.09600000455975533, -0.03200000151991844, 0.9920000471174717, 0.0, 0.0, 0.0, 0.0, 0.0, 1.706390113911394E9, 0.0, 2024-01-27 16:15:13.911
1.0, -284.11271983385086, -266.6399072408676, -173.77071154117584, -6.462547123432159, 0.09600000455975533, -0.03200000151991844, 0.9920000471174717, 0.0, 0.0, 0.0, 0.0, 0.0, 1.706390113911394E9, 0.0, 2024-01-27 16:15:13.911
2.0, -349.21689826250076, -243.90131551027298, -134.03801441192627, -76.11444389820099, 0.09600000455975533, -0.03200000151991844, 0.9920000471174717, 0.0, 0.0, 0.0, 0.0, 0.0, 1.7063901139274693E9, 0.0, 2024-01-27 16:15:13.927
2.0, -275.4959903359413, -265.92184644937515, -167.786871612072, -41.647525906562805, 0.09600000455975533, -0.03200000151991844, 0.9920000471174717, 0.0, 0.0, 0.0, 0.0, 0.0, 1.7063901139274693E9, 0.0, 2024-01-27 16:15:13.927
3.0, -264.7250784635544, -276.6927583217621, -193.15835291147232, -3.3509503602981567, 0.09600000455975533, -0.03200000151991844, 0.9920000471174717, 0.0, 0.0, 0.0, 0.0, 0.0, 1.7063901139279904E9, 0.0, 2024-01-27 16:15:13.927
3.0, -360.466517329216, -270.4695647954941, -152.22888779640198, -74.67832231521606, 0.09600000455975533, -0.03200000151991844, 0.9920000471174717, 0.0, 0.0, 0.0, 0.0, 0.0, 1.7063901139279904E9, 0.0, 2024-01-27 16:15:13.927
4.0, -322.16994178295135, -273.1024543642998, -158.9307885169983, -75.63573670387268, 0.09600000455975533, -0.03200000151991844, 0.9920000471174717, 0.0, 0.0, 0.0, 0.0, 0.0, 1.7063901139287312E9, 0.0, 2024-01-27 16:15:13.928
4.0, -268.55473601818085, -302.0642396211624, -208.9556903243065, -21.541823744773865, 0.09600000455975533, -0.03200000151991844, 0.9920000471174717, 0.0, 0.0, 0.0, 0.0, 0.0, 1.7063901139287312E9, 0.0, 2024-01-27 16:15:13.928
5.0, -359.26974934339523, -297.9952284693718, -187.65322017669678, -62.47128885984421, 0.09600000455975533, -0.03200000151991844, 0.9920000471174717, 0.0, 0.0, 0.0, 0.0, 0.0, 1.7063901139411144E9, 0.0, 2024-01-27 16:15:13.941
5.0, -375.0670867562294, -290.8146205544472, -167.786871612072, -110.82071548700333, 0.09600000455975533, -0.03200000151991844, 0.9920000471174717, 0.0, 0.0, 0.0, 0.0, 0.0, 1.7063901139411144E9, 0.0, 2024-01-27 16:15:13.941
6.0, -277.88952630758286, -307.56937235593796, -205.36538636684418, -50.503609001636505, 0.09600000455975533, -0.03200000151991844, 0.9920000471174717, 0.0, 0.0, 0.0, 0.0, 0.0, 1.706390113956617E9, 0.0, 2024-01-27 16:15:13.956
6.0, -338.685339987278, -320.73382019996643, -221.4020773768425, -61.51387447118759, 0.09600000455975533, -0.03200000151991844, 0.9920000471174717, 0.0, 0.0, 0.0, 0.0, 0.0, 1.706390113956617E9, 0.0, 2024-01-27 16:15:13.956
7.0, -404.7469328045845, -302.5429468154907, -183.8235626220703, -138.34637916088104, 0.09600000455975533, -0.03200000151991844, 0.9920000471174717, 0.0, 0.0, 0.0, 0.0, 0.0, 1.706390113957374E9, 0.0, 2024-01-27 16:15:13.957
7.0, -322.4092953801155, -321.9305881857872, -213.74276226758957, -101.24657160043716, 0.09600000455975533, -0.03200000151991844, 0.9920000471174717, 0.0, 0.0, 0.0, 0.0, 0.0, 1.706390113957374E9, 0.0, 2024-01-27 16:15:13.957
8.0, -317.8615770339966, -333.8982680439949, -241.98648673295975, -66.54030001163483, 0.09600000455975533, -0.03200000151991844, 0.9920000471174717, 0.0, 0.0, 0.0, 0.0, 0.0, 1.7063901139710093E9, 0.0, 2024-01-27 16:15:13.971
8.0, -409.0552975535393, -320.2551130056381, -209.19504392147064, -131.88383203744888, 0.09600000455975533, -0.03200000151991844, 0.9920000471174717, 0.0, 0.0, 0.0, 0.0, 0.0, 1.7063901139710093E9, 0.0, 2024-01-27 16:15:13.971
9.0, -361.4239317178726, -317.6222234368324, -204.1686183810234, -131.64447844028473, 0.09600000455975533, -0.03200000151991844, 0.9920000471174717, 0.0, 0.0, 0.0, 0.0, 0.0, 1.7063901139870405E9, 0.0, 2024-01-27 16:15:13.987
9.0, -298.4739356637001, -343.9511191248894, -249.16709464788437, -73.72090792655945, 0.09600000455975533, -0.03200000151991844, 0.9920000471174717, 0.0, 0.0, 0.0, 0.0, 0.0, 1.7063901139870405E9, 0.0, 2024-01-27 16:15:13.987
10.0, -384.8805842399597, -335.573743224144, -232.17298924922943, -113.21425145864487, 0.09600000455975533, -0.03200000151991844, 1.008000047877431, 0.0, 0.0, 0.0, 0.0, 0.0, 1.7063901139874945E9, 0.0, 2024-01-27 16:15:13.987
10.0, -399.72050726413727, -325.9995993375778, -205.84409356117249, -156.05854535102844, 0.09600000455975533, -0.03200000151991844, 1.008000047877431, 0.0, 0.0, 0.0, 0.0, 0.0, 1.7063901139874945E9, 0.0, 2024-01-27 16:15:13.987
11.0, -308.2874331474304, -346.3446550965309, -247.73097306489944, -95.02337807416916, 0.09600000455975533, -0.04800000227987766, 1.008000047877431, 0.0, 0.0, 0.0, 0.0, 0.0, 1.7063901140009732E9, 0.0, 2024-01-27 16:15:14.000
11.0, -357.354920566082, -344.908533513546, -245.09808349609375, -94.784024477005, 0.09600000455975533, -0.04800000227987766, 1.008000047877431, 0.0, 0.0, 0.0, 0.0, 0.0, 1.7063901140009732E9, 0.0, 2024-01-27 16:15:14.000
12.0, -418.3900878429413, -329.8292568922043, -205.36538636684418, -157.2553133368492, 0.09600000455975533, -0.04800000227987766, 1.008000047877431, 0.0, 0.0, 0.0, 0.0, 0.0, 1.7063901140166588E9, 0.0, 2024-01-27 16:15:14.016
12.0, -333.4195608496666, -338.2066327929497, -226.90721011161804, -115.1290802359581, 0.09600000455975533, -0.04800000227987766, 1.008000047877431, 0.0, 0.0, 0.0, 0.0, 0.0, 1.7063901140166588E9, 0.0, 2024-01-27 16:15:14.016
13.0, -320.01575940847397, -345.3872407078743, -251.5606306195259, -76.5931510925293, 0.09600000455975533, -0.04800000227987766, 1.008000047877431, 0.0, 0.0, 0.0, 0.0, 0.0, 1.7063901140173628E9, 0.0, 2024-01-27 16:15:14.017
13.0, -414.0817230939865, -329.350549697876, -210.3918119072914, -134.75607520341873, 0.09600000455975533, -0.04800000227987766, 1.008000047877431, 0.0, 0.0, 0.0, 0.0, 0.0, 1.7063901140173628E9, 0.0, 2024-01-27 16:15:14.017
14.0, -365.2535892724991, -325.9995993375778, -210.3918119072914, -146.72375506162643, 0.09600000455975533, -0.04800000227987766, 1.008000047877431, 0.0, 0.0, 0.0, 0.0, 0.0, 1.706390114031021E9, 0.0, 2024-01-27 16:15:14.031
14.0, -306.8513115644455, -356.63685977458954, -260.65606731176376, -87.84277015924454, 0.09600000455975533, -0.04800000227987766, 1.008000047877431, 0.0, 0.0, 0.0, 0.0, 0.0, 1.706390114031021E9, 0.0, 2024-01-27 16:15:14.031
15.0, -389.6676561832428, -344.1904727220535, -231.93363565206528, -124.70322412252426, 0.09600000455975533, -0.04800000227987766, 1.008000047877431, 0.0, 0.0, 0.0, 0.0, 0.0, 1.7063901140468798E9, 0.0, 2024-01-27 16:15:14.046
15.0, -404.98628640174866, -331.7440856695175, -210.63116550445557, -164.19656765460968, 0.09600000455975533, -0.04800000227987766, 1.008000047877431, 0.0, 0.0, 0.0, 0.0, 0.0, 1.7063901140468798E9, 0.0, 2024-01-27 16:15:14.046
16.0, -312.35644429922104, -350.6530198454857, -257.7838241457939, -103.87946116924286, 0.09600000455975533, -0.04800000227987766, 1.008000047877431, 0.0, 0.0, 0.0, 0.0, 0.0, 1.7063901140474272E9, 0.0, 2024-01-27 16:15:14.047
16.0, -357.354920566082, -350.1743126511574, -257.7838241457939, -103.1614003777504, 0.09600000455975533, -0.04800000227987766, 1.008000047877431, 0.0, 0.0, 0.0, 0.0, 0.0, 1.7063901140474272E9, 0.0, 2024-01-27 16:15:14.047
17.0, -418.62944144010544, -336.29180401563644, -210.15245831012726, -165.6326892375946, 0.09600000455975533, -0.04800000227987766, 1.008000047877431, 0.0, 0.0, 0.0, 0.0, 0.0, 1.7063901140609176E9, 0.0, 2024-01-27 16:15:14.060
17.0, -336.5311576128006, -344.66917991638184, -236.4813539981842, -126.6180528998375, 0.09600000455975533, -0.04800000227987766, 1.008000047877431, 0.0, 0.0, 0.0, 0.0, 0.0, 1.7063901140609176E9, 0.0, 2024-01-27 16:15:14.060
18.0, -329.350549697876, -357.8336277604103, -260.4167137145996, -85.9279413819313, 0.09600000455975533, -0.04800000227987766, 1.008000047877431, 0.0, 0.0, 0.0, 0.0, 0.0, 1.7063901140765908E9, 0.0, 2024-01-27 16:15:14.076
18.0, -417.6720270514488, -334.61632883548737, -211.58857989311218, -143.85151189565659, 0.09600000455975533, -0.04800000227987766, 1.008000047877431, 0.0, 0.0, 0.0, 0.0, 0.0, 1.7063901140765908E9, 0.0, 2024-01-27 16:15:14.076
19.0, -371.4767827987671, -335.3343896269798, -218.7691878080368, -148.15987664461136, 0.09600000455975533, -0.04800000227987766, 1.008000047877431, 0.0, 0.0, 0.0, 0.0, 0.0, 1.7063901140773242E9, 0.0, 2024-01-27 16:15:14.077
19.0, -308.5267867445946, -358.55168855190277, -257.54447054862976, -85.20988059043884, 0.09600000455975533, -0.04800000227987766, 1.008000047877431, 0.0, 0.0, 0.0, 0.0, 0.0, 1.7063901140773242E9, 0.0, 2024-01-27 16:15:14.077
20.0, -387.0347666144371, -342.7543511390686, -231.21557486057281, -123.02774894237518, 0.09600000455975533, -0.04800000227987766, 1.008000047877431, 0.0, 0.0, 0.0, 0.0, 0.0, 1.7063901140911376E9, 0.0, 2024-01-27 16:15:14.091
20.0, -401.6353360414505, -331.7440856695175, -212.5459942817688, -162.28173887729645, 0.09600000455975533, -0.04800000227987766, 1.008000047877431, 0.0, 0.0, 0.0, 0.0, 0.0, 1.7063901140911376E9, 0.0, 2024-01-27 16:15:14.091
21.0, -310.20226192474365, -353.0465558171272, -256.10834896564484, -105.79428994655609, 0.09600000455975533, -0.04800000227987766, 1.008000047877431, 0.0, 0.0, 0.0, 0.0, 0.0, 1.7063901141066089E9, 0.0, 2024-01-27 16:15:14.106
21.0, -347.5414230823517, -346.8233622908592, -252.03933781385422, -99.81045001745224, 0.09600000455975533, -0.04800000227987766, 1.008000047877431, 0.0, 0.0, 0.0, 0.0, 0.0, 1.7063901141066089E9, 0.0, 2024-01-27 16:15:14.106
22.0, -413.84236949682236, -326.95701372623444, -205.60473996400833, -163.47850686311722, 0.09600000455975533, -0.04800000227987766, 1.008000047877431, 0.0, 0.0, 0.0, 0.0, 0.0, 1.7063901141073453E9, 0.0, 2024-01-27 16:15:14.107
22.0, -332.9408536553383, -337.9672791957855, -231.21557486057281, -126.37869930267334, 0.09600000455975533, -0.04800000227987766, 1.008000047877431, 0.0, 0.0, 0.0, 0.0, 0.0, 1.7063901141073453E9, 0.0, 2024-01-27 16:15:14.107
23.0, -322.8880025744438, -357.8336277604103, -253.47545939683914, -81.85893023014069, 0.09600000455975533, -0.04800000227987766, 1.008000047877431, 0.0, 0.0, 0.0, 0.0, 0.0, 1.7063901141209478E9, 0.0, 2024-01-27 16:15:14.120
23.0, -409.29465115070343, -335.81309682130814, -210.63116550445557, -138.82508635520935, 0.09600000455975533, -0.04800000227987766, 1.008000047877431, 0.0, 0.0, 0.0, 0.0, 0.0, 1.7063901141209478E9, 0.0, 2024-01-27 16:15:14.120
24.0, -369.3226004242897, -331.98343926668167, -214.93953025341034, -143.13345110416412, 0.09600000455975533, -0.04800000227987766, 1.008000047877431, 0.0, 0.0, 0.0, 0.0, 0.0, 1.7063901141366043E9, 0.0, 2024-01-27 16:15:14.136
24.0, -309.0054939389229, -358.55168855190277, -259.9380065202713, -88.08212375640869, 0.09600000455975533, -0.04800000227987766, 1.008000047877431, 0.0, 0.0, 0.0, 0.0, 0.0, 1.7063901141366043E9, 0.0, 2024-01-27 16:15:14.136
25.0, -390.86442416906357, -344.908533513546, -237.43876838684082, -122.30968815088272, 0.09600000455975533, -0.04800000227987766, 1.008000047877431, 0.0, 0.0, 0.0, 0.0, 0.0, 1.706390114137359E9, 0.0, 2024-01-27 16:15:14.137
25.0, -402.35339683294296, -330.06861048936844, -215.1788838505745, -163.71786046028137, 0.09600000455975533, -0.04800000227987766, 1.008000047877431, 0.0, 0.0, 0.0, 0.0, 0.0, 1.706390114137359E9, 0.0, 2024-01-27 16:15:14.137
26.0, -312.83515149354935, -353.0465558171272, -262.33154249191284, -104.11881476640701, 0.09600000455975533, -0.04800000227987766, 1.008000047877431, 0.0, 0.0, 0.0, 0.0, 0.0, 1.7063901141509304E9, 0.0, 2024-01-27 16:15:14.150
26.0, -359.5091029405594, -355.6794453859329, -253.236105799675, -97.89562124013901, 0.09600000455975533, -0.04800000227987766, 1.008000047877431, 0.0, 0.0, 0.0, 0.0, 0.0, 1.7063901141509304E9, 0.0, 2024-01-27 16:15:14.150
27.0, -423.8952205777168, -332.9408536553383, -213.98211586475372, -160.12755650281906, 0.09600000455975533, -0.04800000227987766, 1.008000047877431, 0.0, 0.0, 0.0, 0.0, 0.0, 1.70639011416692E9, 0.0, 2024-01-27 16:15:14.166
27.0, -330.54731768369675, -335.0950360298157, -233.8484644293785, -126.6180528998375, 0.09600000455975533, -0.04800000227987766, 1.008000047877431, 0.0, 0.0, 0.0, 0.0, 0.0, 1.70639011416692E9, 0.0, 2024-01-27 16:15:14.166
28.0, -319.53705221414566, -348.73819106817245, -251.32127702236176, -81.61957663297653, 0.09600000455975533, -0.04800000227987766, 1.008000047877431, 0.0, 0.0, 0.0, 0.0, 0.0, 1.7063901141677787E9, 0.0, 2024-01-27 16:15:14.167
28.0, -414.5604302883148, -333.18020725250244, -210.15245831012726, -139.30379354953766, 0.09600000455975533, -0.04800000227987766, 1.008000047877431, 0.0, 0.0, 0.0, 0.0, 0.0, 1.7063901141677787E9, 0.0, 2024-01-27 16:15:14.167
29.0, -369.801307618618, -331.7440856695175, -209.9131047129631, -146.00569427013397, 0.09600000455975533, -0.04800000227987766, 1.008000047877431, 0.0, 0.0, 0.0, 0.0, 0.0, 1.7063901141809185E9, 0.0, 2024-01-27 16:15:14.180
29.0, -304.6971291899681, -353.7646166086197, -255.86899536848068, -82.337637424469, 0.09600000455975533, -0.04800000227987766, 1.008000047877431, 0.0, 0.0, 0.0, 0.0, 0.0, 1.7063901141809185E9, 0.0, 2024-01-27 16:15:14.180
30.0, -387.0347666144371, -342.51499754190445, -235.28458601236343, -117.52261620759964, 0.09600000455975533, -0.04800000227987766, 1.008000047877431, 0.0, 0.0, 0.0, 0.0, 0.0, 1.7063901141970313E9, 0.0, 2024-01-27 16:15:14.197
30.0, -399.4811536669731, -327.6750745177269, -198.66348564624786, -154.1437165737152, 0.09600000455975533, -0.04800000227987766, 1.008000047877431, 0.0, 0.0, 0.0, 0.0, 0.0, 1.7063901141970313E9, 0.0, 2024-01-27 16:15:14.197
31.0, -306.61195796728134, -340.6001687645912, -244.14066910743713, -89.27889174222946, 0.09600000455975533, -0.04800000227987766, 1.008000047877431, 0.0, 0.0, 0.0, 0.0, 0.0, 1.7063901141974013E9, 0.0, 2024-01-27 16:15:14.197
31.0, -352.32849502563477, -349.21689826250076, -251.5606306195259, -94.784024477005, 0.09600000455975533, -0.04800000227987766, 1.008000047877431, 0.0, 0.0, 0.0, 0.0, 0.0, 1.7063901141974013E9, 0.0, 2024-01-27 16:15:14.197
32.0, -416.2359054684639, -325.76024574041367, -198.18477845191956, -154.62242376804352, 0.09600000455975533, -0.04800000227987766, 1.008000047877431, 0.0, 0.0, 0.0, 0.0, 0.0, 1.7063901142109704E9, 0.0, 2024-01-27 16:15:14.210
32.0, -341.3182295560837, -342.7543511390686, -232.8910500407219, -121.3522737622261, 0.09600000455975533, -0.04800000227987766, 1.008000047877431, 0.0, 0.0, 0.0, 0.0, 0.0, 1.7063901142109704E9, 0.0, 2024-01-27 16:15:14.210
33.0, -332.9408536553383, -359.26974934339523, -264.4857248663902, -85.68858778476715, 0.09600000455975533, -0.04800000227987766, 1.008000047877431, 0.0, 0.0, 0.0, 0.0, 0.0, 1.706390114226594E9, 0.0, 2024-01-27 16:15:14.226
33.0, -413.1243087053299, -336.5311576128006, -214.22146946191788, -140.02185434103012, 0.09600000455975533, -0.04800000227987766, 1.008000047877431, 0.0, 0.0, 0.0, 0.0, 0.0, 1.706390114226594E9, 0.0, 2024-01-27 16:15:14.226
34.0, -373.15225797891617, -333.18020725250244, -213.50340867042542, -146.9631086587906, 0.09600000455975533, -0.04800000227987766, 1.008000047877431, 0.0, 0.0, 0.0, 0.0, 0.0, 1.7063901142272985E9, 0.0, 2024-01-27 16:15:14.227
34.0, -298.71328926086426, -348.9775446653366, -255.39028817415237, -80.66216224431992, 0.09600000455975533, -0.04800000227987766, 1.008000047877431, 0.0, 0.0, 0.0, 0.0, 0.0, 1.7063901142272985E9, 0.0, 2024-01-27 16:15:14.227
35.0, -383.9231698513031, -336.29180401563644, -235.04523241519928, -113.93231225013733, 0.09600000455975533, -0.04800000227987766, 1.008000047877431, 0.0, 0.0, 0.0, 0.0, 0.0, 1.706390114240958E9, 0.0, 2024-01-27 16:15:14.240
35.0, -397.3269712924957, -319.53705221414566, -205.12603276968002, -154.62242376804352, 0.09600000455975533, -0.04800000227987766, 1.008000047877431, 0.0, 0.0, 0.0, 0.0, 0.0, 1.706390114240958E9, 0.0, 2024-01-27 16:15:14.240
36.0, -305.6545435786247, -341.796936750412, -244.8587298989296, -95.02337807416916, 0.09600000455975533, -0.04800000227987766, 1.008000047877431, 0.0, 0.0, 0.0, 0.0, 0.0, 1.706390114256627E9, 0.0, 2024-01-27 16:15:14.256
36.0, -348.25948387384415, -341.796936750412, -241.7471331357956, -86.88535577058792, 0.09600000455975533, -0.04800000227987766, 1.008000047877431, 0.0, 0.0, 0.0, 0.0, 0.0, 1.706390114256627E9, 0.0, 2024-01-27 16:15:14.256
37.0, -414.32107669115067, -321.21252739429474, -199.14219284057617, -156.53725254535675, 0.09600000455975533, -0.04800000227987766, 1.008000047877431, 0.0, 0.0, 0.0, 0.0, 0.0, 1.7063901142573388E9, 0.0, 2024-01-27 16:15:14.257
37.0, -330.3079640865326, -336.29180401563644, -221.64143097400665, -120.15550577640533, 0.09600000455975533, -0.04800000227987766, 1.008000047877431, 0.0, 0.0, 0.0, 0.0, 0.0, 1.7063901142573388E9, 0.0, 2024-01-27 16:15:14.257
38.0, -324.32412415742874, -355.2007381916046, -258.9805921316147, -84.25246620178223, 0.09600000455975533, -0.04800000227987766, 1.008000047877431, 0.0, 0.0, 0.0, 0.0, 0.0, 1.7063901142711065E9, 0.0, 2024-01-27 16:15:14.271
38.0, -402.5927504301071, -325.28153854608536, -210.15245831012726, -137.62831836938858, 0.09600000455975533, -0.04800000227987766, 1.008000047877431, 0.0, 0.0, 0.0, 0.0, 0.0, 1.7063901142711065E9, 0.0, 2024-01-27 16:15:14.271
39.0, -364.5355284810066, -323.6060633659363, -207.51956874132156, -141.2186223268509, 0.09600000455975533, -0.04800000227987766, 1.008000047877431, 0.0, 0.0, 0.0, 0.0, 0.0, 1.7063901142867556E9, 0.0, 2024-01-27 16:15:14.286
39.0, -297.75587487220764, -348.02013027668, -254.6722273826599, -79.94410145282745, 0.09600000455975533, -0.04800000227987766, 1.008000047877431, 0.0, 0.0, 0.0, 0.0, 0.0, 1.7063901142867556E9, 0.0, 2024-01-27 16:15:14.286
40.0, -378.89674431085587, -331.98343926668167, -227.38591730594635, -111.06006908416748, 0.09600000455975533, -0.04800000227987766, 1.008000047877431, 0.0, 0.0, 0.0, 0.0, 0.0, 1.7063901142874022E9, 0.0, 2024-01-27 16:15:14.287
40.0, -391.8218385577202, -323.84541696310043, -206.08344715833664, -161.56367808580399, 0.09600000455975533, -0.04800000227987766, 1.008000047877431, 0.0, 0.0, 0.0, 0.0, 0.0, 1.7063901142874022E9, 0.0, 2024-01-27 16:15:14.287
41.0, -296.3197532892227, -336.29180401563644, -241.7471331357956, -93.82661008834839, 0.09600000455975533, -0.04800000227987766, 1.008000047877431, 0.0, 0.0, 0.0, 0.0, 0.0, 1.7063901143176112E9, 0.0, 2024-01-27 16:15:14.317
41.0, -340.36081516742706, -339.88210797309875, -246.29485148191452, -90.47565972805023, 0.09600000455975533, -0.04800000227987766, 1.008000047877431, 0.0, 0.0, 0.0, 0.0, 0.0, 1.7063901143176112E9, 0.0, 2024-01-27 16:15:14.317
42.0, -407.8585295677185, -317.8615770339966, -193.15835291147232, -152.94694858789444, 0.09600000455975533, -0.04800000227987766, 1.008000047877431, 0.0, 0.0, 0.0, 0.0, 0.0, 1.7063901143181596E9, 0.0, 2024-01-27 16:15:14.318
42.0, -324.5634777545929, -330.7866712808609, -226.42850291728973, -113.69295865297318, 0.09600000455975533, -0.04800000227987766, 1.008000047877431, 0.0, 0.0, 0.0, 0.0, 0.0, 1.7063901143181596E9, 0.0, 2024-01-27 16:15:14.318
43.0, -311.15967631340027, -346.8233622908592, -246.29485148191452, -76.5931510925293, 0.09600000455975533, -0.04800000227987766, 1.008000047877431, 0.0, 0.0, 0.0, 0.0, 0.0, 1.706390114318898E9, 0.0, 2024-01-27 16:15:14.318
43.0, -403.3108112215996, -327.1963673233986, -207.75892233848572, -135.71348959207535, 0.09600000455975533, -0.04800000227987766, 1.008000047877431, 0.0, 0.0, 0.0, 0.0, 0.0, 1.706390114318898E9, 0.0, 2024-01-27 16:15:14.318
44.0, -358.55168855190277, -320.73382019996643, -202.97185039520264, -141.93668311834335, 0.09600000455975533, -0.04800000227987766, 1.008000047877431, 0.0, 0.0, 0.0, 0.0, 0.0, 1.7063901143309617E9, 0.0, 2024-01-27 16:15:14.330
44.0, -291.2933277487755, -338.92469358444214, -249.64580184221268, -75.87509030103683, 0.09600000455975533, -0.04800000227987766, 1.008000047877431, 0.0, 0.0, 0.0, 0.0, 0.0, 1.7063901143309617E9, 0.0, 2024-01-27 16:15:14.330
45.0, -371.23742920160294, -324.0847705602646, -221.8807845711708, -108.42717951536179, 0.09600000455975533, -0.04800000227987766, 1.008000047877431, 0.0, 0.0, 0.0, 0.0, 0.0, 1.7063901143469107E9, 0.0, 2024-01-27 16:15:14.346
45.0, -382.9657554626465, -310.20226192474365, -195.79124248027802, -148.87793743610382, 0.09600000455975533, -0.04800000227987766, 1.008000047877431, 0.0, 0.0, 0.0, 0.0, 0.0, 1.7063901143469107E9, 0.0, 2024-01-27 16:15:14.346
46.0, -292.2507421374321, -335.3343896269798, -233.13040363788605, -91.1937205195427, 0.09600000455975533, -0.04800000227987766, 1.008000047877431, 0.0, 0.0, 0.0, 0.0, 0.0, 1.70639011434742E9, 0.0, 2024-01-27 16:15:14.347
46.0, -333.4195608496666, -335.0950360298157, -235.76329320669174, -81.14086943864822, 0.09600000455975533, -0.04800000227987766, 1.008000047877431, 0.0, 0.0, 0.0, 0.0, 0.0, 1.70639011434742E9, 0.0, 2024-01-27 16:15:14.347
47.0, -410.4914191365242, -322.8880025744438, -201.77508240938187, -151.51082700490952, 0.09600000455975533, -0.04800000227987766, 1.008000047877431, 0.0, 0.0, 0.0, 0.0, 0.0, 1.706390114361108E9, 0.0, 2024-01-27 16:15:14.361
47.0, -327.1963673233986, -332.46214646101, -225.23173493146896, -117.7619698047638, 0.09600000455975533, -0.04800000227987766, 1.008000047877431, 0.0, 0.0, 0.0, 0.0, 0.0, 1.706390114361108E9, 0.0, 2024-01-27 16:15:14.361
48.0, -309.9629083275795, -344.1904727220535, -246.29485148191452, -77.55056548118591, 0.09600000455975533, -0.04800000227987766, 1.008000047877431, 0.0, 0.0, 0.0, 0.0, 0.0, 1.7063901143770278E9, 0.0, 2024-01-27 16:15:14.377
48.0, -401.87468963861465, -327.1963673233986, -205.36538636684418, -136.19219678640366, 0.09600000455975533, -0.04800000227987766, 1.008000047877431, 0.0, 0.0, 0.0, 0.0, 0.0, 1.7063901143770278E9, 0.0, 2024-01-27 16:15:14.377
49.0, -354.243323802948, -321.4518809914589, -202.01443600654602, -136.19219678640366, 0.09600000455975533, -0.04800000227987766, 1.008000047877431, 0.0, 0.0, 0.0, 0.0, 0.0, 1.7063901143916435E9, 0.0, 2024-01-27 16:15:14.391
49.0, -289.1391453742981, -347.0627158880234, -257.54447054862976, -83.53440541028976, 0.09600000455975533, -0.04800000227987766, 1.008000047877431, 0.0, 0.0, 0.0, 0.0, 0.0, 1.7063901143916435E9, 0.0, 2024-01-27 16:15:14.391
50.0, -368.60453963279724, -332.70150005817413, -233.60911083221436, -112.97489786148071, 0.09600000455975533, -0.04800000227987766, 1.008000047877431, 0.0, 0.0, 0.0, 0.0, 0.0, 1.7063901143923388E9, 0.0, 2024-01-27 16:15:14.392
50.0, -384.8805842399597, -317.6222234368324, -201.77508240938187, -161.80303168296814, 0.09600000455975533, -0.04800000227987766, 1.008000047877431, 0.0, 0.0, 0.0, 0.0, 0.0, 1.7063901143923388E9, 0.0, 2024-01-27 16:15:14.392
51.0, -293.2081565260887, -335.3343896269798, -243.90131551027298, -101.72527879476547, 0.09600000455975533, -0.03200000151991844, 1.008000047877431, 0.0, 0.0, 0.0, 0.0, 0.0, 1.706390114406623E9, 0.0, 2024-01-27 16:15:14.406
51.0, -335.573743224144, -337.72792559862137, -246.29485148191452, -95.50208526849747, 0.09600000455975533, -0.03200000151991844, 1.008000047877431, 0.0, 0.0, 0.0, 0.0, 0.0, 1.706390114406623E9, 0.0, 2024-01-27 16:15:14.406
52.0, -406.9011151790619, -319.53705221414566, -197.70607125759125, -153.6650093793869, 0.09600000455975533, -0.03200000151991844, 1.008000047877431, 0.0, 0.0, 0.0, 0.0, 0.0, 1.7063901144073591E9, 0.0, 2024-01-27 16:15:14.407
52.0, -319.53705221414566, -325.28153854608536, -227.6252709031105, -117.7619698047638, 0.09600000455975533, -0.03200000151991844, 1.008000047877431, 0.0, 0.0, 0.0, 0.0, 0.0, 1.7063901144073591E9, 0.0, 2024-01-27 16:15:14.407
53.0, -312.5957978963852, -345.14788711071014, -251.5606306195259, -74.19961512088776, 0.09600000455975533, -0.03200000151991844, 1.008000047877431, 0.0, 0.0, 0.0, 0.0, 0.0, 1.7063901144210963E9, 0.0, 2024-01-27 16:15:14.421
53.0, -392.53989934921265, -320.4944666028023, -207.51956874132156, -133.08060002326965, 0.09600000455975533, -0.03200000151991844, 1.008000047877431, 0.0, 0.0, 0.0, 0.0, 0.0, 1.7063901144210963E9, 0.0, 2024-01-27 16:15:14.421
54.0, -357.8336277604103, -327.1963673233986, -200.33896082639694, -143.13345110416412, 0.09600000455975533, -0.03200000151991844, 1.008000047877431, 0.0, 0.0, 0.0, 0.0, 0.0, 1.7063901144368072E9, 0.0, 2024-01-27 16:15:14.436
54.0, -287.22431659698486, -346.3446550965309, -252.03933781385422, -78.98668706417084, 0.09600000455975533, -0.03200000151991844, 1.008000047877431, 0.0, 0.0, 0.0, 0.0, 0.0, 1.7063901144368072E9, 0.0, 2024-01-27 16:15:14.436
55.0, -368.8438932299614, -331.50473207235336, -227.38591730594635, -111.06006908416748, 0.09600000455975533, -0.03200000151991844, 1.008000047877431, 0.0, 0.0, 0.0, 0.0, 0.0, 1.7063901144374042E9, 0.0, 2024-01-27 16:15:14.437
55.0, -384.8805842399597, -319.53705221414566, -201.5357288122177, -154.62242376804352, 0.09600000455975533, -0.03200000151991844, 1.008000047877431, 0.0, 0.0, 0.0, 0.0, 0.0, 1.7063901144374042E9, 0.0, 2024-01-27 16:15:14.437
56.0, -298.23458206653595, -339.88210797309875, -239.5929507613182, -92.86919569969177, 0.09600000455975533, -0.03200000151991844, 1.008000047877431, 0.0, 0.0, 0.0, 0.0, 0.0, 1.7063901144509912E9, 0.0, 2024-01-27 16:15:14.450
56.0, -338.44598639011383, -337.4885720014572, -244.14066910743713, -89.51824533939362, 0.09600000455975533, -0.03200000151991844, 1.008000047877431, 0.0, 0.0, 0.0, 0.0, 0.0, 1.7063901144509912E9, 0.0, 2024-01-27 16:15:14.450
57.0, -409.77335834503174, -320.4944666028023, -204.40797197818756, -162.9997996687889, 0.09600000455975533, -0.03200000151991844, 1.008000047877431, 0.0, 0.0, 0.0, 0.0, 0.0, 1.7063901144667964E9, 0.0, 2024-01-27 16:15:14.466
57.0, -322.4092953801155, -332.46214646101, -229.30074608325958, -119.67679858207703, 0.09600000455975533, -0.03200000151991844, 1.008000047877431, 0.0, 0.0, 0.0, 0.0, 0.0, 1.7063901144667964E9, 0.0, 2024-01-27 16:15:14.466
58.0, -309.72355473041534, -347.0627158880234, -250.12450903654099, -80.42280864715576, 0.09600000455975533, -0.03200000151991844, 1.008000047877431, 0.0, 0.0, 0.0, 0.0, 0.0, 1.7063901144674828E9, 0.0, 2024-01-27 16:15:14.467
58.0, -400.6779216527939, -326.7176601290703, -208.23762953281403, -136.67090398073196, 0.09600000455975533, -0.03200000151991844, 1.008000047877431, 0.0, 0.0, 0.0, 0.0, 0.0, 1.7063901144674828E9, 0.0, 2024-01-27 16:15:14.467
59.0, -359.5091029405594, -327.1963673233986, -210.63116550445557, -141.45797592401505, 0.09600000455975533, -0.03200000151991844, 1.008000047877431, 0.0, 0.0, 0.0, 0.0, 0.0, 1.7063901144809575E9, 0.0, 2024-01-27 16:15:14.480
59.0, -294.8836317062378, -349.9349590539932, -262.570896089077, -83.29505181312561, 0.09600000455975533, -0.03200000151991844, 1.008000047877431, 0.0, 0.0, 0.0, 0.0, 0.0, 1.7063901144809575E9, 0.0, 2024-01-27 16:15:14.480
60.0, -372.912904381752, -335.81309682130814, -236.24200040102005, -111.77812987565994, 0.09600000455975533, -0.03200000151991844, 1.008000047877431, 0.0, 0.0, 0.0, 0.0, 0.0, 1.706390114496659E9, 0.0, 2024-01-27 16:15:14.496
60.0, -395.4121425151825, -327.43572092056274, -210.3918119072914, -161.32432448863983, 0.09600000455975533, -0.03200000151991844, 1.008000047877431, 0.0, 0.0, 0.0, 0.0, 0.0, 1.706390114496659E9, 0.0, 2024-01-27 16:15:14.496
61.0, -293.686863720417, -338.2066327929497, -249.16709464788437, -94.54467087984085, 0.09600000455975533, -0.03200000151991844, 1.008000047877431, 0.0, 0.0, 0.0, 0.0, 0.0, 1.7063901144973452E9, 0.0, 2024-01-27 16:15:14.497
61.0, -341.0788759589195, -343.9511191248894, -256.347702562809, -86.88535577058792, 0.09600000455975533, -0.03200000151991844, 1.008000047877431, 0.0, 0.0, 0.0, 0.0, 0.0, 1.7063901144973452E9, 0.0, 2024-01-27 16:15:14.497
62.0, -405.46499359607697, -314.0319194793701, -199.14219284057617, -148.87793743610382, 0.09600000455975533, -0.03200000151991844, 1.008000047877431, 0.0, 0.0, 0.0, 0.0, 0.0, 1.706390114527609E9, 0.0, 2024-01-27 16:15:14.527
62.0, -319.2976986169815, -326.238952934742, -224.27432054281235, -112.0174834728241, 0.09600000455975533, -0.03200000151991844, 1.008000047877431, 0.0, 0.0, 0.0, 0.0, 0.0, 1.706390114527609E9, 0.0, 2024-01-27 16:15:14.527
63.0, -299.6707036495209, -336.29180401563644, -244.8587298989296, -72.04543274641037, 0.09600000455975533, -0.03200000151991844, 1.008000047877431, 0.0, 0.0, 0.0, 0.0, 0.0, 1.7063901145282092E9, 0.0, 2024-01-27 16:15:14.528
63.0, -396.8482640981674, -322.4092953801155, -213.74276226758957, -137.38896477222443, 0.09600000455975533, -0.03200000151991844, 1.008000047877431, 0.0, 0.0, 0.0, 0.0, 0.0, 1.7063901145282092E9, 0.0, 2024-01-27 16:15:14.528
64.0, -347.5414230823517, -314.98933386802673, -202.73249679803848, -138.34637916088104, 0.09600000455975533, -0.03200000151991844, 1.008000047877431, 0.0, 0.0, 0.0, 0.0, 0.0, 1.7063901145288417E9, 0.0, 2024-01-27 16:15:14.528
64.0, -278.84694069623947, -333.4195608496666, -240.78971874713898, -67.25836080312729, 0.09600000455975533, -0.03200000151991844, 1.008000047877431, 0.0, 0.0, 0.0, 0.0, 0.0, 1.7063901145288417E9, 0.0, 2024-01-27 16:15:14.528
65.0, -365.2535892724991, -328.39313530921936, -225.94979572296143, -105.79428994655609, 0.09600000455975533, -0.03200000151991844, 1.008000047877431, 0.0, 0.0, 0.0, 0.0, 0.0, 1.706390114540916E9, 0.0, 2024-01-27 16:15:14.540
