%OpenBCI Raw EXG Data
%Number of channels = 4
%Sample Rate = 200 Hz
%Board = OpenBCI_GUI$BoardGanglionBLE
Sample Index, EXG Channel 0, EXG Channel 1, EXG Channel 2, EXG Channel 3, Accel Channel 0, Accel Channel 1, Accel Channel 2, Other, Other, Other, Other, Other, Timestamp, Other, Timestamp (Formatted)
47.0, -488.99939900636673, -707.0505260229111, -2055.329338848591, -239.35359716415405, 0.0, 0.0, 0.0, 0.0, 0.0, 0.0, 0.0, 0.0, 1.7075953827717085E9, 0.0, 2024-02-10 15:03:02.771
47.0, -399.4811536669731, -744.150333583355, -2127.6141251921654, -242.46519392728806, 0.0, 0.0, 0.0, 0.0, 0.0, 0.0, 0.0, 0.0, 1.7075953827717085E9, 0.0, 2024-02-10 15:03:02.771
0.0, -391.1037777662277, -648.6482483148575, -2075.1956874132156, -178.79713708162308, 0.0, 0.0, 0.9760000463575125, 0.0, 0.0, 0.0, 0.0, 0.0, 1.707595382807094E9, 0.0, 2024-02-10 15:03:02.807
0.0, -482.7762054800987, -751.0915879011154, -2087.1633672714233, -263.5283104777336, 0.0, 0.0, 0.9760000463575125, 0.0, 0.0, 0.0, 0.0, 0.0, 1.707595382807094E9, 0.0, 2024-02-10 15:03:02.807
1.0, -328.87184250354767, -704.8963436484337, -2142.9327554106712, -201.77508240938187, 0.0, -0.9760000463575125, 0.9760000463575125, 0.0, 0.0, 0.0, 0.0, 0.0, 1.7075953828216865E9, 0.0, 2024-02-10 15:03:02.821
1.0, -333.4195608496666, -624.2341814041138, -2085.009184896946, -144.56957268714905, 0.0, -0.9760000463575125, 0.9760000463575125, 0.0, 0.0, 0.0, 0.0, 0.0, 1.7075953828216865E9, 0.0, 2024-02-10 15:03:02.821
2.0, -478.7071943283081, -709.2047083973885, -2060.116410791874, -241.50777953863144, -0.9760000463575125, -0.9760000463575125, 0.9760000463575125, 0.0, 0.0, 0.0, 0.0, 0.0, 1.7075953828366013E9, 0.0, 2024-02-10 15:03:02.836
2.0, -384.4018770456314, -732.6613609194756, -2121.3909316658974, -227.38591730594635, -0.9760000463575125, -0.9760000463575125, 0.9760000463575125, 0.0, 0.0, 0.0, 0.0, 0.0, 1.7075953828366013E9, 0.0, 2024-02-10 15:03:02.836
3.0, -294.8836317062378, -633.0902644991875, -2108.9445446133614, -136.4315503835678, -0.9760000463575125, -0.9760000463575125, 0.9760000463575125, 0.0, 0.0, 0.0, 0.0, 0.0, 1.7075953828371077E9, 0.0, 2024-02-10 15:03:02.837
3.0, -437.5383756160736, -664.92429292202, -2056.765460431576, -207.2802151441574, -0.9760000463575125, -0.9760000463575125, 0.9760000463575125, 0.0, 0.0, 0.0, 0.0, 0.0, 1.7075953828371077E9, 0.0, 2024-02-10 15:03:02.837
4.0, -440.88932597637177, -751.0915879011154, -2107.2690694332123, -256.10834896564484, -0.9760000463575125, -0.9760000463575125, 0.9760000463575125, 0.0, 0.0, 0.0, 0.0, 0.0, 1.707595382850882E9, 0.0, 2024-02-10 15:03:02.850
4.0, -293.686863720417, -662.5307569503784, -2130.007661163807, -160.84561729431152, -0.9760000463575125, -0.9760000463575125, 0.9760000463575125, 0.0, 0.0, 0.0, 0.0, 0.0, 1.707595382850882E9, 0.0, 2024-02-10 15:03:02.850
5.0, -392.7792529463768, -644.1005299687386, -2072.323444247246, -180.7119658589363, -0.9760000463575125, -0.9760000463575125, 0.9760000463575125, 0.0, 0.0, 0.0, 0.0, 0.0, 1.7075953828665242E9, 0.0, 2024-02-10 15:03:02.866
5.0, -483.0155590772629, -746.7832231521606, -2091.7110856175423, -272.14503997564316, -0.9760000463575125, -0.9760000463575125, 0.9760000463575125, 0.0, 0.0, 0.0, 0.0, 0.0, 1.7075953828665242E9, 0.0, 2024-02-10 15:03:02.866
6.0, -341.796936750412, -708.0079404115677, -2149.8740097284317, -208.9556903243065, -0.9760000463575125, -0.9760000463575125, 0.9760000463575125, 0.0, 0.0, 0.0, 0.0, 0.0, 1.7075953828670585E9, 0.0, 2024-02-10 15:03:02.867
6.0, -341.0788759589195, -636.9199220538139, -2097.455571949482, -162.28173887729645, -0.9760000463575125, -0.9760000463575125, 0.9760000463575125, 0.0, 0.0, 0.0, 0.0, 0.0, 1.7075953828670585E9, 0.0, 2024-02-10 15:03:02.867
7.0, -488.0419846177101, -719.9756202697754, -2076.8711625933647, -255.15093457698822, -0.9760000463575125, -0.9760000463575125, 0.9760000463575125, 0.0, 0.0, 0.0, 0.0, 0.0, 1.7075953828805337E9, 0.0, 2024-02-10 15:03:02.880
7.0, -390.38571697473526, -742.9535655975342, -2137.4276226758957, -242.94390112161636, -0.9760000463575125, -0.9760000463575125, 0.9760000463575125, 0.0, 0.0, 0.0, 0.0, 0.0, 1.7075953828805337E9, 0.0, 2024-02-10 15:03:02.880
8.0, -301.82488602399826, -646.0153587460518, -2122.587699651718, -156.2978989481926, -0.9760000463575125, -0.9760000463575125, 0.9760000463575125, 0.0, 0.0, 0.0, 0.0, 0.0, 1.7075953828964849E9, 0.0, 2024-02-10 15:03:02.896
8.0, -444.9583371281624, -677.1313263773918, -2068.4937866926193, -217.33306622505188, -0.9760000463575125, -0.9760000463575125, 0.9760000463575125, 0.0, 0.0, 0.0, 0.0, 0.0, 1.7075953828964849E9, 0.0, 2024-02-10 15:03:02.896
9.0, -444.2402763366699, -755.160599052906, -2111.338080585003, -263.76766407489777, -0.9760000463575125, -0.9760000463575125, 0.9760000463575125, 0.0, 0.0, 0.0, 0.0, 0.0, 1.7075953828970287E9, 0.0, 2024-02-10 15:03:02.897
9.0, -297.0378140807152, -669.711364865303, -2133.119257926941, -162.0423852801323, -0.9760000463575125, -0.9760000463575125, 0.9760000463575125, 0.0, 0.0, 0.0, 0.0, 0.0, 1.7075953828970287E9, 0.0, 2024-02-10 15:03:02.897
10.0, -391.1037777662277, -643.1431155800819, -2070.6479690670967, -174.4887723326683, -0.9760000463575125, -0.9760000463575125, 0.6240000296384096, 0.0, 0.0, 0.0, 0.0, 0.0, 1.7075953829108787E9, 0.0, 2024-02-10 15:03:02.910
10.0, -481.10073029994965, -742.71421200037, -2081.4188809394836, -259.69865292310715, -0.9760000463575125, -0.9760000463575125, 0.6240000296384096, 0.0, 0.0, 0.0, 0.0, 0.0, 1.7075953829108787E9, 0.0, 2024-02-10 15:03:02.910
11.0, -333.4195608496666, -705.375050842762, -2135.5127938985825, -193.87641370296478, -0.9760000463575125, -0.6240000296384096, 0.6240000296384096, 0.0, 0.0, 0.0, 0.0, 0.0, 1.7075953829265125E9, 0.0, 2024-02-10 15:03:02.926
11.0, -334.3769752383232, -629.260606944561, -2093.3865607976913, -151.75018060207367, -0.9760000463575125, -0.6240000296384096, 0.6240000296384096, 0.0, 0.0, 0.0, 0.0, 0.0, 1.7075953829265125E9, 0.0, 2024-02-10 15:03:02.926
12.0, -481.8187910914421, -712.7950123548508, -2064.4247755408287, -252.75739860534668, -0.6240000296384096, -0.6240000296384096, 0.6240000296384096, 0.0, 0.0, 0.0, 0.0, 0.0, 1.7075953829272013E9, 0.0, 2024-02-10 15:03:02.927
12.0, -389.90700978040695, -733.6187753081322, -2127.135417997837, -236.72070759534836, -0.6240000296384096, -0.6240000296384096, 0.6240000296384096, 0.0, 0.0, 0.0, 0.0, 0.0, 1.7075953829272013E9, 0.0, 2024-02-10 15:03:02.927
13.0, -301.1068252325058, -632.6115573048592, -2109.662605404854, -146.72375506162643, -0.6240000296384096, -0.6240000296384096, 0.6240000296384096, 0.0, 0.0, 0.0, 0.0, 0.0, 1.7075953829405727E9, 0.0, 2024-02-10 15:03:02.940
13.0, -446.8731659054756, -674.9771440029144, -2067.5363723039627, -213.26405507326126, -0.6240000296384096, -0.6240000296384096, 0.6240000296384096, 0.0, 0.0, 0.0, 0.0, 0.0, 1.7075953829405727E9, 0.0, 2024-02-10 15:03:02.940
14.0, -443.52221554517746, -757.0754278302193, -2116.36450612545, -264.7250784635544, -0.6240000296384096, -0.6240000296384096, 0.6240000296384096, 0.0, 0.0, 0.0, 0.0, 0.0, 1.7075953829561343E9, 0.0, 2024-02-10 15:03:02.956
14.0, -297.5165212750435, -670.4294256567955, -2141.257280230522, -174.4887723326683, -0.6240000296384096, -0.6240000296384096, 0.6240000296384096, 0.0, 0.0, 0.0, 0.0, 0.0, 1.7075953829561343E9, 0.0, 2024-02-10 15:03:02.956
15.0, -387.5134738087654, -646.2547123432159, -2074.9563338160515, -182.14808744192123, -0.6240000296384096, -0.6240000296384096, 0.6240000296384096, 0.0, 0.0, 0.0, 0.0, 0.0, 1.7075953829712336E9, 0.0, 2024-02-10 15:03:02.971
15.0, -476.7923655509949, -743.9109799861908, -2093.3865607976913, -274.5385759472847, -0.6240000296384096, -0.6240000296384096, 0.6240000296384096, 0.0, 0.0, 0.0, 0.0, 0.0, 1.7075953829712336E9, 0.0, 2024-02-10 15:03:02.971
16.0, -329.8292568922043, -703.6995756626129, -2150.592070519924, -213.98211586475372, -0.6240000296384096, -0.6240000296384096, 0.6240000296384096, 0.0, 0.0, 0.0, 0.0, 0.0, 1.7075953829719253E9, 0.0, 2024-02-10 15:03:02.971
16.0, -337.24921840429306, -629.260606944561, -2101.2852295041084, -164.675274848938, -0.6240000296384096, -0.6240000296384096, 0.6240000296384096, 0.0, 0.0, 0.0, 0.0, 0.0, 1.7075953829719253E9, 0.0, 2024-02-10 15:03:02.971
17.0, -481.3400838971138, -709.2047083973885, -2069.9299082756042, -251.5606306195259, -0.6240000296384096, -0.6240000296384096, 0.6240000296384096, 0.0, 0.0, 0.0, 0.0, 0.0, 1.7075953829868104E9, 0.0, 2024-02-10 15:03:02.986
17.0, -387.75282740592957, -732.4220073223114, -2131.92248994112, -241.50777953863144, -0.6240000296384096, -0.6240000296384096, 0.6240000296384096, 0.0, 0.0, 0.0, 0.0, 0.0, 1.7075953829868104E9, 0.0, 2024-02-10 15:03:02.986
18.0, -295.8410460948944, -635.483800470829, -2113.9709701538086, -144.56957268714905, -0.6240000296384096, -0.6240000296384096, 0.6240000296384096, 0.0, 0.0, 0.0, 0.0, 0.0, 1.707595382987568E9, 0.0, 2024-02-10 15:03:02.987
18.0, -444.9583371281624, -668.5145968794823, -2057.9622284173965, -206.56215435266495, -0.6240000296384096, -0.6240000296384096, 0.6240000296384096, 0.0, 0.0, 0.0, 0.0, 0.0, 1.707595382987568E9, 0.0, 2024-02-10 15:03:02.987
19.0, -448.30928748846054, -749.1767591238022, -2104.1574726700783, -259.21994572877884, -0.6240000296384096, -0.6240000296384096, 0.6240000296384096, 0.0, 0.0, 0.0, 0.0, 0.0, 1.7075953830172334E9, 0.0, 2024-02-10 15:03:03.017
19.0, -302.7823004126549, -662.2914033532143, -2128.571539580822, -164.91462844610214, -0.6240000296384096, -0.6240000296384096, 0.6240000296384096, 0.0, 0.0, 0.0, 0.0, 0.0, 1.7075953830172334E9, 0.0, 2024-02-10 15:03:03.017
20.0, -386.5560594201088, -638.8347508311272, -2068.015079498291, -174.01006513834, -0.6240000296384096, -0.6240000296384096, 0.8160000387579203, 0.0, 0.0, 0.0, 0.0, 0.0, 1.7075953830177243E9, 0.0, 2024-02-10 15:03:03.017
20.0, -485.6484486460686, -745.1077479720116, -2087.881428062916, -269.99085760116577, -0.6240000296384096, -0.6240000296384096, 0.8160000387579203, 0.0, 0.0, 0.0, 0.0, 0.0, 1.7075953830177243E9, 0.0, 2024-02-10 15:03:03.017
21.0, -338.92469358444214, -705.375050842762, -2141.017926633358, -202.01443600654602, -0.6240000296384096, -0.8160000387579203, 0.8160000387579203, 0.0, 0.0, 0.0, 0.0, 0.0, 1.7075953830185285E9, 0.0, 2024-02-10 15:03:03.018
21.0, -341.796936750412, -633.3296180963516, -2095.0620359778404, -157.73402053117752, -0.6240000296384096, -0.8160000387579203, 0.8160000387579203, 0.0, 0.0, 0.0, 0.0, 0.0, 1.7075953830185285E9, 0.0, 2024-02-10 15:03:03.018
22.0, -487.32392382621765, -716.8640235066414, -2072.802151441574, -258.5018849372864, -0.8160000387579203, -0.8160000387579203, 0.8160000387579203, 0.0, 0.0, 0.0, 0.0, 0.0, 1.7075953830305212E9, 0.0, 2024-02-10 15:03:03.030
22.0, -400.6779216527939, -745.1077479720116, -2134.3160259127617, -246.05549788475037, -0.8160000387579203, -0.8160000387579203, 0.8160000387579203, 0.0, 0.0, 0.0, 0.0, 0.0, 1.7075953830305212E9, 0.0, 2024-02-10 15:03:03.030
23.0, -309.72355473041534, -646.0153587460518, -2120.912224471569, -152.94694858789444, -0.8160000387579203, -0.8160000387579203, 0.8160000387579203, 0.0, 0.0, 0.0, 0.0, 0.0, 1.7075953830463922E9, 0.0, 2024-02-10 15:03:03.046
23.0, -449.5060554742813, -681.4396911263466, -2074.9563338160515, -227.86462450027466, -0.8160000387579203, -0.8160000387579203, 0.8160000387579203, 0.0, 0.0, 0.0, 0.0, 0.0, 1.7075953830463922E9, 0.0, 2024-02-10 15:03:03.046
24.0, -448.30928748846054, -752.7670630812645, -2117.800627708435, -268.07602882385254, -0.8160000387579203, -0.8160000387579203, 0.8160000387579203, 0.0, 0.0, 0.0, 0.0, 0.0, 1.7075953830469942E9, 0.0, 2024-02-10 15:03:03.046
24.0, -299.4313500523567, -670.6687792539597, -2135.2734403014183, -170.18040758371353, -0.8160000387579203, -0.8160000387579203, 0.8160000387579203, 0.0, 0.0, 0.0, 0.0, 0.0, 1.7075953830469942E9, 0.0, 2024-02-10 15:03:03.046
25.0, -388.470888197422, -644.818590760231, -2073.5202122330666, -171.8558827638626, -0.8160000387579203, -0.8160000387579203, 0.8160000387579203, 0.0, 0.0, 0.0, 0.0, 0.0, 1.7075953830609016E9, 0.0, 2024-02-10 15:03:03.060
25.0, -478.94654792547226, -747.9799911379814, -2098.4129863381386, -273.3418079614639, -0.8160000387579203, -0.8160000387579203, 0.8160000387579203, 0.0, 0.0, 0.0, 0.0, 0.0, 1.7075953830609016E9, 0.0, 2024-02-10 15:03:03.060
26.0, -338.685339987278, -713.7524267435074, -2144.129523396492, -207.2802151441574, -0.8160000387579203, -0.8160000387579203, 0.8160000387579203, 0.0, 0.0, 0.0, 0.0, 0.0, 1.7075953830761852E9, 0.0, 2024-02-10 15:03:03.076
26.0, -333.8982680439949, -638.1166900396347, -2095.3013895750046, -151.75018060207367, -0.8160000387579203, -0.8160000387579203, 0.8160000387579203, 0.0, 0.0, 0.0, 0.0, 0.0, 1.7075953830761852E9, 0.0, 2024-02-10 15:03:03.076
27.0, -483.73361986875534, -719.4969130754471, -2069.69055467844, -251.79998421669006, -0.8160000387579203, -0.8160000387579203, 0.8160000387579203, 0.0, 0.0, 0.0, 0.0, 0.0, 1.707595383076893E9, 0.0, 2024-02-10 15:03:03.076
27.0, -391.8218385577202, -745.3471015691757, -2128.810893177986, -233.8484644293785, -0.8160000387579203, -0.8160000387579203, 0.8160000387579203, 0.0, 0.0, 0.0, 0.0, 0.0, 1.707595383076893E9, 0.0, 2024-02-10 15:03:03.076
28.0, -303.97906839847565, -646.0153587460518, -2115.1677381396294, -147.9205230474472, -0.8160000387579203, -0.8160000387579203, 0.8160000387579203, 0.0, 0.0, 0.0, 0.0, 0.0, 1.7075953830905616E9, 0.0, 2024-02-10 15:03:03.090
28.0, -451.89959144592285, -678.3280943632126, -2063.228007555008, -216.85435903072357, -0.8160000387579203, -0.8160000387579203, 0.8160000387579203, 0.0, 0.0, 0.0, 0.0, 0.0, 1.7075953830905616E9, 0.0, 2024-02-10 15:03:03.090
29.0, -453.3357130289078, -755.160599052906, -2112.5348485708237, -266.1612000465393, -0.8160000387579203, -0.8160000387579203, 0.8160000387579203, 0.0, 0.0, 0.0, 0.0, 0.0, 1.7075953831061723E9, 0.0, 2024-02-10 15:03:03.106
29.0, -308.2874331474304, -672.5836080312729, -2138.145683467388, -175.68554031848907, -0.8160000387579203, -0.8160000387579203, 0.8160000387579203, 0.0, 0.0, 0.0, 0.0, 0.0, 1.7075953831061723E9, 0.0, 2024-02-10 15:03:03.106
30.0, -391.8218385577202, -651.7598450779915, -2079.7434057593346, -183.344855427742, -0.8160000387579203, -0.8160000387579203, 0.8960000425577164, 0.0, 0.0, 0.0, 0.0, 0.0, 1.7075953831069262E9, 0.0, 2024-02-10 15:03:03.106
30.0, -488.7600454092026, -753.0064166784286, -2101.7639366984367, -279.3256478905678, -0.8160000387579203, -0.8160000387579203, 0.8960000425577164, 0.0, 0.0, 0.0, 0.0, 0.0, 1.7075953831069262E9, 0.0, 2024-02-10 15:03:03.106
31.0, -336.29180401563644, -713.7524267435074, -2148.437888145447, -212.30664068460464, -0.8160000387579203, -0.8960000425577164, 0.8960000425577164, 0.0, 0.0, 0.0, 0.0, 0.0, 1.7075953831205645E9, 0.0, 2024-02-10 15:03:03.120
31.0, -338.685339987278, -631.8934965133667, -2090.7536712288857, -159.4094957113266, -0.8160000387579203, -0.8960000425577164, 0.8960000425577164, 0.0, 0.0, 0.0, 0.0, 0.0, 1.7075953831205645E9, 0.0, 2024-02-10 15:03:03.120
32.0, -476.0743047595024, -708.0079404115677, -2060.355764389038, -242.94390112161636, -0.8960000425577164, -0.8960000425577164, 0.8960000425577164, 0.0, 0.0, 0.0, 0.0, 0.0, 1.70759538313616E9, 0.0, 2024-02-10 15:03:03.136
32.0, -390.38571697473526, -737.6877864599228, -2124.023821234703, -232.17298924922943, -0.8960000425577164, -0.8960000425577164, 0.8960000425577164, 0.0, 0.0, 0.0, 0.0, 0.0, 1.70759538313616E9, 0.0, 2024-02-10 15:03:03.136
33.0, -300.86747163534164, -632.6115573048592, -2108.705191016197, -143.61215829849243, -0.8960000425577164, -0.8960000425577164, 0.8960000425577164, 0.0, 0.0, 0.0, 0.0, 0.0, 1.707595383136909E9, 0.0, 2024-02-10 15:03:03.136
33.0, -437.5383756160736, -668.5145968794823, -2055.329338848591, -206.56215435266495, -0.8960000425577164, -0.8960000425577164, 0.8960000425577164, 0.0, 0.0, 0.0, 0.0, 0.0, 1.707595383136909E9, 0.0, 2024-02-10 15:03:03.136
34.0, -446.63381230831146, -756.596720635891, -2114.928384542465, -267.59732162952423, -0.8960000425577164, -0.8960000425577164, 0.8960000425577164, 0.0, 0.0, 0.0, 0.0, 0.0, 1.7075953831505277E9, 0.0, 2024-02-10 15:03:03.150
34.0, -301.1068252325058, -671.3868400454521, -2138.8637442588806, -179.7545514702797, -0.8960000425577164, -0.8960000425577164, 0.8960000425577164, 0.0, 0.0, 0.0, 0.0, 0.0, 1.7075953831505277E9, 0.0, 2024-02-10 15:03:03.150
35.0, -384.4018770456314, -645.7760051488876, -2082.8550025224686, -186.93515938520432, -0.8960000425577164, -0.8960000425577164, 0.8960000425577164, 0.0, 0.0, 0.0, 0.0, 0.0, 1.7075953831665573E9, 0.0, 2024-02-10 15:03:03.166
35.0, -482.53685188293457, -746.7832231521606, -2095.3013895750046, -275.9746975302696, -0.8960000425577164, -0.8960000425577164, 0.8960000425577164, 0.0, 0.0, 0.0, 0.0, 0.0, 1.7075953831665573E9, 0.0, 2024-02-10 15:03:03.166
36.0, -339.88210797309875, -714.709841132164, -2149.6346561312675, -213.98211586475372, -0.8960000425577164, -0.8960000425577164, 0.8960000425577164, 0.0, 0.0, 0.0, 0.0, 0.0, 1.7075953831670132E9, 0.0, 2024-02-10 15:03:03.167
36.0, -340.1214615702629, -640.9889332056046, -2102.242643892765, -164.91462844610214, -0.8960000425577164, -0.8960000425577164, 0.8960000425577164, 0.0, 0.0, 0.0, 0.0, 0.0, 1.7075953831670132E9, 0.0, 2024-02-10 15:03:03.167
37.0, -486.1271558403969, -717.1033771038055, -2076.3924553990364, -256.8264097571373, -0.8960000425577164, -0.8960000425577164, 0.8960000425577164, 0.0, 0.0, 0.0, 0.0, 0.0, 1.7075953831805117E9, 0.0, 2024-02-10 15:03:03.180
37.0, -398.76309287548065, -746.5438695549965, -2136.9489154815674, -250.12450903654099, -0.8960000425577164, -0.8960000425577164, 0.8960000425577164, 0.0, 0.0, 0.0, 0.0, 0.0, 1.7075953831805117E9, 0.0, 2024-02-10 15:03:03.180
38.0, -301.1068252325058, -642.6644083857536, -2124.263174831867, -161.32432448863983, -0.8960000425577164, -0.8960000425577164, 0.8960000425577164, 0.0, 0.0, 0.0, 0.0, 0.0, 1.7075953831964436E9, 0.0, 2024-02-10 15:03:03.196
38.0, -448.78799468278885, -679.5248623490334, -2073.5202122330666, -221.4020773768425, -0.8960000425577164, -0.8960000425577164, 0.8960000425577164, 0.0, 0.0, 0.0, 0.0, 0.0, 1.7075953831964436E9, 0.0, 2024-02-10 15:03:03.196
39.0, -446.63381230831146, -758.7509030103683, -2117.0825669169426, -272.14503997564316, -0.8960000425577164, -0.8960000425577164, 0.8960000425577164, 0.0, 0.0, 0.0, 0.0, 0.0, 1.7075953831970143E9, 0.0, 2024-02-10 15:03:03.197
39.0, -310.4416155219078, -679.046155154705, -2141.257280230522, -180.47261226177216, -0.8960000425577164, -0.8960000425577164, 0.8960000425577164, 0.0, 0.0, 0.0, 0.0, 0.0, 1.7075953831970143E9, 0.0, 2024-02-10 15:03:03.197
40.0, -385.5986450314522, -646.7334195375443, -2080.222112953663, -185.9777449965477, -0.8960000425577164, -0.8960000425577164, 0.9600000455975533, 0.0, 0.0, 0.0, 0.0, 0.0, 1.707595383210883E9, 0.0, 2024-02-10 15:03:03.210
40.0, -483.0155590772629, -743.4322727918625, -2099.131047129631, -283.3946590423584, -0.8960000425577164, -0.8960000425577164, 0.9600000455975533, 0.0, 0.0, 0.0, 0.0, 0.0, 1.707595383210883E9, 0.0, 2024-02-10 15:03:03.210
41.0, -340.6001687645912, -717.3427307009697, -2152.028192102909, -222.12013816833496, -0.8960000425577164, -0.9600000455975533, 0.9600000455975533, 0.0, 0.0, 0.0, 0.0, 0.0, 1.707595383226272E9, 0.0, 2024-02-10 15:03:03.226
41.0, -340.83952236175537, -635.2444468736649, -2096.9768647551537, -168.7442860007286, -0.8960000425577164, -0.9600000455975533, 0.9600000455975533, 0.0, 0.0, 0.0, 0.0, 0.0, 1.707595383226272E9, 0.0, 2024-02-10 15:03:03.226
42.0, -483.73361986875534, -716.6246699094772, -2067.0576651096344, -256.347702562809, -0.9600000455975533, -0.9600000455975533, 0.9600000455975533, 0.0, 0.0, 0.0, 0.0, 0.0, 1.7075953832270155E9, 0.0, 2024-02-10 15:03:03.227
42.0, -387.0347666144371, -732.4220073223114, -2128.571539580822, -240.55036514997482, -0.9600000455975533, -0.9600000455975533, 0.9600000455975533, 0.0, 0.0, 0.0, 0.0, 0.0, 1.7075953832270155E9, 0.0, 2024-02-10 15:03:03.227
43.0, -294.16557091474533, -631.1754357218742, -2106.3116550445557, -146.00569427013397, -0.9600000455975533, -0.9600000455975533, 0.9600000455975533, 0.0, 0.0, 0.0, 0.0, 0.0, 1.7075953832405133E9, 0.0, 2024-02-10 15:03:03.240
43.0, -432.2725964784622, -663.488171339035, -2050.3029133081436, -206.08344715833664, -0.9600000455975533, -0.9600000455975533, 0.9600000455975533, 0.0, 0.0, 0.0, 0.0, 0.0, 1.7075953832405133E9, 0.0, 2024-02-10 15:03:03.240
44.0, -431.3151820898056, -744.6290407776833, -2102.481997489929, -258.9805921316147, -0.9600000455975533, -0.9600000455975533, 0.9600000455975533, 0.0, 0.0, 0.0, 0.0, 0.0, 1.707595383256395E9, 0.0, 2024-02-10 15:03:03.256
44.0, -291.2933277487755, -662.5307569503784, -2130.9650755524635, -165.39333564043045, -0.9600000455975533, -0.9600000455975533, 0.9600000455975533, 0.0, 0.0, 0.0, 0.0, 0.0, 1.707595383256395E9, 0.0, 2024-02-10 15:03:03.256
45.0, -384.8805842399597, -639.0741044282913, -2068.015079498291, -174.01006513834, -0.9600000455975533, -0.9600000455975533, 0.9600000455975533, 0.0, 0.0, 0.0, 0.0, 0.0, 1.707595383257131E9, 0.0, 2024-02-10 15:03:03.257
45.0, -477.7497799396515, -739.1239080429077, -2087.4027208685875, -273.1024543642998, -0.9600000455975533, -0.9600000455975533, 0.9600000455975533, 0.0, 0.0, 0.0, 0.0, 0.0, 1.707595383257131E9, 0.0, 2024-02-10 15:03:03.257
46.0, -338.685339987278, -709.4440619945526, -2139.1030978560448, -213.0247014760971, -0.9600000455975533, -0.9600000455975533, 0.9600000455975533, 0.0, 0.0, 0.0, 0.0, 0.0, 1.70759538327046E9, 0.0, 2024-02-10 15:03:03.270
46.0, -333.65891444683075, -623.7554742097855, -2094.343975186348, -159.8882029056549, -0.9600000455975533, -0.9600000455975533, 0.9600000455975533, 0.0, 0.0, 0.0, 0.0, 0.0, 1.70759538327046E9, 0.0, 2024-02-10 15:03:03.270
47.0, -485.8878022432327, -715.6672555208206, -2068.254433095455, -257.7838241457939, -0.9600000455975533, -0.9600000455975533, 0.9600000455975533, 0.0, 0.0, 0.0, 0.0, 0.0, 1.7075953832864416E9, 0.0, 2024-02-10 15:03:03.286
47.0, -398.5237392783165, -746.5438695549965, -2138.8637442588806, -254.91158097982407, -0.9600000455975533, -0.9600000455975533, 0.9600000455975533, 0.0, 0.0, 0.0, 0.0, 0.0, 1.7075953832864416E9, 0.0, 2024-02-10 15:03:03.286
48.0, -309.4842011332512, -651.041784286499, -2122.587699651718, -165.6326892375946, -0.9600000455975533, -0.9600000455975533, 0.9600000455975533, 0.0, 0.0, 0.0, 0.0, 0.0, 1.7075953832868967E9, 0.0, 2024-02-10 15:03:03.286
48.0, -448.0699338912964, -678.0887407660484, -2073.2808586359024, -230.01880687475204, -0.9600000455975533, -0.9600000455975533, 0.9600000455975533, 0.0, 0.0, 0.0, 0.0, 0.0, 1.7075953832868967E9, 0.0, 2024-02-10 15:03:03.286
49.0, -452.138945043087, -764.2560357451439, -2114.449677348137, -273.1024543642998, -0.9600000455975533, -0.9600000455975533, 0.9600000455975533, 0.0, 0.0, 0.0, 0.0, 0.0, 1.7075953833008761E9, 0.0, 2024-02-10 15:03:03.300
49.0, -305.1758363842964, -677.1313263773918, -2142.693401813507, -175.20683312416077, -0.9600000455975533, -0.9600000455975533, 0.9600000455975533, 0.0, 0.0, 0.0, 0.0, 0.0, 1.7075953833008761E9, 0.0, 2024-02-10 15:03:03.300
50.0, -387.0347666144371, -646.2547123432159, -2079.2646985650063, -182.8661482334137, -0.9600000455975533, -0.9600000455975533, 0.9920000471174717, 0.0, 0.0, 0.0, 0.0, 0.0, 1.7075953833163097E9, 0.0, 2024-02-10 15:03:03.316
50.0, -479.42525511980057, -744.150333583355, -2086.684660077095, -270.9482719898224, -0.9600000455975533, -0.9600000455975533, 0.9920000471174717, 0.0, 0.0, 0.0, 0.0, 0.0, 1.7075953833163097E9, 0.0, 2024-02-10 15:03:03.316
51.0, -335.0950360298157, -712.5556587576866, -2144.6082305908203, -205.84409356117249, -0.9600000455975533, -0.9920000471174717, 0.9920000471174717, 0.0, 0.0, 0.0, 0.0, 0.0, 1.7075953833169968E9, 0.0, 2024-02-10 15:03:03.316
51.0, -329.350549697876, -632.8509109020233, -2093.3865607976913, -157.73402053117752, -0.9600000455975533, -0.9920000471174717, 0.9920000471174717, 0.0, 0.0, 0.0, 0.0, 0.0, 1.7075953833169968E9, 0.0, 2024-02-10 15:03:03.316
52.0, -478.94654792547226, -703.2208684682846, -2069.9299082756042, -253.47545939683914, -0.9920000471174717, -0.9920000471174717, 0.9920000471174717, 0.0, 0.0, 0.0, 0.0, 0.0, 1.7075953833305535E9, 0.0, 2024-02-10 15:03:03.330
52.0, -390.38571697473526, -730.7465321421623, -2128.571539580822, -245.57679069042206, -0.9920000471174717, -0.9920000471174717, 0.9920000471174717, 0.0, 0.0, 0.0, 0.0, 0.0, 1.7075953833305535E9, 0.0, 2024-02-10 15:03:03.330
53.0, -298.4739356637001, -637.3986292481422, -2113.4922629594803, -152.94694858789444, -0.9920000471174717, -0.9920000471174717, 0.9920000471174717, 0.0, 0.0, 0.0, 0.0, 0.0, 1.7075953833462193E9, 0.0, 2024-02-10 15:03:03.346
53.0, -434.66613245010376, -667.7965360879898, -2059.1589964032173, -213.74276226758957, -0.9920000471174717, -0.9920000471174717, 0.9920000471174717, 0.0, 0.0, 0.0, 0.0, 0.0, 1.7075953833462193E9, 0.0, 2024-02-10 15:03:03.346
54.0, -437.5383756160736, -745.3471015691757, -2104.3968262672424, -266.1612000465393, -0.9920000471174717, -0.9920000471174717, 0.9920000471174717, 0.0, 0.0, 0.0, 0.0, 0.0, 1.707595383346939E9, 0.0, 2024-02-10 15:03:03.346
54.0, -287.22431659698486, -658.701099395752, -2128.0928323864937, -169.22299319505692, -0.9920000471174717, -0.9920000471174717, 0.9920000471174717, 0.0, 0.0, 0.0, 0.0, 0.0, 1.707595383346939E9, 0.0, 2024-02-10 15:03:03.346
55.0, -379.6148051023483, -641.4676403999329, -2069.69055467844, -184.06291621923447, -0.9920000471174717, -0.9920000471174717, 0.9920000471174717, 0.0, 0.0, 0.0, 0.0, 0.0, 1.7075953833610036E9, 0.0, 2024-02-10 15:03:03.361
55.0, -478.94654792547226, -733.6187753081322, -2088.360135257244, -275.4959903359413, -0.9920000471174717, -0.9920000471174717, 0.9920000471174717, 0.0, 0.0, 0.0, 0.0, 0.0, 1.7075953833610036E9, 0.0, 2024-02-10 15:03:03.361
56.0, -335.573743224144, -700.8273324966431, -2145.326291382313, -206.8015079498291, -0.9920000471174717, -0.9920000471174717, 0.9920000471174717, 0.0, 0.0, 0.0, 0.0, 0.0, 1.707595383376726E9, 0.0, 2024-02-10 15:03:03.376
56.0, -333.8982680439949, -629.7393141388893, -2102.242643892765, -167.06881082057953, -0.9920000471174717, -0.9920000471174717, 0.9920000471174717, 0.0, 0.0, 0.0, 0.0, 0.0, 1.707595383376726E9, 0.0, 2024-02-10 15:03:03.376
57.0, -489.95681339502335, -716.3853163123131, -2075.674394607544, -262.570896089077, -0.9920000471174717, -0.9920000471174717, 0.9920000471174717, 0.0, 0.0, 0.0, 0.0, 0.0, 1.707595383377002E9, 0.0, 2024-02-10 15:03:03.377
57.0, -403.0714576244354, -750.1341735124588, -2141.9753410220146, -263.5283104777336, -0.9920000471174717, -0.9920000471174717, 0.9920000471174717, 0.0, 0.0, 0.0, 0.0, 0.0, 1.707595383377002E9, 0.0, 2024-02-10 15:03:03.377
58.0, -313.0745050907135, -650.8024306893349, -2133.358611524105, -173.77071154117584, -0.9920000471174717, -0.9920000471174717, 0.9920000471174717, 0.0, 0.0, 0.0, 0.0, 0.0, 1.707595383390558E9, 0.0, 2024-02-10 15:03:03.390
58.0, -444.4796299338341, -675.2164976000786, -2075.913748204708, -228.34333169460297, -0.9920000471174717, -0.9920000471174717, 0.9920000471174717, 0.0, 0.0, 0.0, 0.0, 0.0, 1.707595383390558E9, 0.0, 2024-02-10 15:03:03.390
59.0, -450.2241162657738, -758.9902566075325, -2122.8270532488823, -274.5385759472847, -0.9920000471174717, -0.9920000471174717, 0.9920000471174717, 0.0, 0.0, 0.0, 0.0, 0.0, 1.7075953834062116E9, 0.0, 2024-02-10 15:03:03.406
59.0, -302.30359321832657, -674.4984368085861, -2144.368876993656, -180.233258664608, -0.9920000471174717, -0.9920000471174717, 0.9920000471174717, 0.0, 0.0, 0.0, 0.0, 0.0, 1.7075953834062116E9, 0.0, 2024-02-10 15:03:03.406
60.0, -381.52963387966156, -640.7495796084404, -2078.785991370678, -180.95131945610046, -0.9920000471174717, -0.9920000471174717, 0.9920000471174717, 0.0, 0.0, 0.0, 0.0, 0.0, 1.7075953834068847E9, 0.0, 2024-02-10 15:03:03.406
60.0, -485.8878022432327, -745.5864551663399, -2096.9768647551537, -281.00112307071686, -0.9920000471174717, -0.9920000471174717, 0.9920000471174717, 0.0, 0.0, 0.0, 0.0, 0.0, 1.7075953834068847E9, 0.0, 2024-02-10 15:03:03.406
61.0, -331.7440856695175, -707.5292332172394, -2141.7359874248505, -210.15245831012726, -0.9920000471174717, -0.9920000471174717, 0.9920000471174717, 0.0, 0.0, 0.0, 0.0, 0.0, 1.7075953834205441E9, 0.0, 2024-02-10 15:03:03.420
61.0, -317.8615770339966, -618.2503414750099, -2090.2749640345573, -149.59599822759628, -0.9920000471174717, -0.9920000471174717, 0.9920000471174717, 0.0, 0.0, 0.0, 0.0, 0.0, 1.7075953834205441E9, 0.0, 2024-02-10 15:03:03.420
62.0, -471.76594001054764, -705.8537580370903, -2066.339604318142, -252.27869141101837, -0.9920000471174717, -0.9920000471174717, 0.9920000471174717, 0.0, 0.0, 0.0, 0.0, 0.0, 1.7075953834362493E9, 0.0, 2024-02-10 15:03:03.436
62.0, -379.3754515051842, -732.9007145166397, -2126.1780036091805, -245.09808349609375, -0.9920000471174717, -0.9920000471174717, 0.9920000471174717, 0.0, 0.0, 0.0, 0.0, 0.0, 1.7075953834362493E9, 0.0, 2024-02-10 15:03:03.436
63.0, -287.22431659698486, -639.7921652197838, -2119.23674929142, -158.21272772550583, -0.9920000471174717, -0.9920000471174717, 0.9920000471174717, 0.0, 0.0, 0.0, 0.0, 0.0, 1.7075953834370108E9, 0.0, 2024-02-10 15:03:03.437
63.0, -425.81004935503006, -660.1372209787369, -2059.87705719471, -221.16272377967834, -0.9920000471174717, -0.9920000471174717, 0.9920000471174717, 0.0, 0.0, 0.0, 0.0, 0.0, 1.7075953834370108E9, 0.0, 2024-02-10 15:03:03.437
64.0, -435.86290043592453, -747.0225767493248, -2112.5348485708237, -275.73534393310547, -0.9920000471174717, -0.9920000471174717, 0.9920000471174717, 0.0, 0.0, 0.0, 0.0, 0.0, 1.707595383467218E9, 0.0, 2024-02-10 15:03:03.467
64.0, -289.85720616579056, -664.92429292202, -2134.0766723155975, -178.55778348445892, -0.9920000471174717, -0.9920000471174717, 0.9920000471174717, 0.0, 0.0, 0.0, 0.0, 0.0, 1.707595383467218E9, 0.0, 2024-02-10 15:03:03.467
65.0, -374.1096723675728, -636.2018612623215, -2078.785991370678, -180.47261226177216, -0.9920000471174717, -0.9920000471174717, 0.9920000471174717, 0.0, 0.0, 0.0, 0.0, 0.0, 1.7075953834677482E9, 0.0, 2024-02-10 15:03:03.467
65.0, -471.28723281621933, -738.1664936542511, -2090.99302482605, -273.1024543642998, -0.9920000471174717, -0.9920000471174717, 0.9920000471174717, 0.0, 0.0, 0.0, 0.0, 0.0, 1.7075953834677482E9, 0.0, 2024-02-10 15:03:03.467
66.0, -331.98343926668167, -709.4440619945526, -2145.565644979477, -208.23762953281403, -0.9920000471174717, -0.9920000471174717, 0.9920000471174717, 0.0, 0.0, 0.0, 0.0, 0.0, 1.7075953834685285E9, 0.0, 2024-02-10 15:03:03.468
66.0, -323.6060633659363, -628.3031925559044, -2098.6523399353027, -163.23915326595306, -0.9920000471174717, -0.9920000471174717, 0.9920000471174717, 0.0, 0.0, 0.0, 0.0, 0.0, 1.7075953834685285E9, 0.0, 2024-02-10 15:03:03.468
67.0, -465.54274648427963, -703.2208684682846, -2071.8447370529175, -253.95416659116745, -0.9920000471174717, -0.9920000471174717, 0.9920000471174717, 0.0, 0.0, 0.0, 0.0, 0.0, 1.7075953834805129E9, 0.0, 2024-02-10 15:03:03.480
67.0, -389.1889489889145, -737.4484328627586, -2133.358611524105, -249.16709464788437, -0.9920000471174717, -0.9920000471174717, 0.9920000471174717, 0.0, 0.0, 0.0, 0.0, 0.0, 1.7075953834805129E9, 0.0, 2024-02-10 15:03:03.480
68.0, -296.798460483551, -645.2972979545593, -2125.699296414852, -160.84561729431152, -0.9920000471174717, -0.9920000471174717, 0.9920000471174717, 0.0, 0.0, 0.0, 0.0, 0.0, 1.7075953834962401E9, 0.0, 2024-02-10 15:03:03.496
68.0, -440.41061878204346, -674.9771440029144, -2072.0840906500816, -219.00854140520096, -0.9920000471174717, -0.9920000471174717, 0.9920000471174717, 0.0, 0.0, 0.0, 0.0, 0.0, 1.7075953834962401E9, 0.0, 2024-02-10 15:03:03.496
69.0, -442.56480115652084, -754.2031846642494, -2115.885798931122, -275.4959903359413, -0.9920000471174717, -0.9920000471174717, 0.9920000471174717, 0.0, 0.0, 0.0, 0.0, 0.0, 1.7075953834969091E9, 0.0, 2024-02-10 15:03:03.496
69.0, -297.0378140807152, -676.8919727802277, -2145.565644979477, -183.10550183057785, -0.9920000471174717, -0.9920000471174717, 0.9920000471174717, 0.0, 0.0, 0.0, 0.0, 0.0, 1.7075953834969091E9, 0.0, 2024-02-10 15:03:03.496
70.0, -374.34902596473694, -640.7495796084404, -2082.6156489253044, -183.10550183057785, -0.9920000471174717, -0.9920000471174717, 1.008000047877431, 0.0, 0.0, 0.0, 0.0, 0.0, 1.7075953835108826E9, 0.0, 2024-02-10 15:03:03.510
70.0, -468.4149896502495, -734.8155432939529, -2093.3865607976913, -276.2140511274338, -0.9920000471174717, -0.9920000471174717, 1.008000047877431, 0.0, 0.0, 0.0, 0.0, 0.0, 1.7075953835108826E9, 0.0, 2024-02-10 15:03:03.510
71.0, -324.80283135175705, -701.0666860938072, -2145.0869377851486, -205.36538636684418, -0.9920000471174717, -1.008000047877431, 1.008000047877431, 0.0, 0.0, 0.0, 0.0, 0.0, 1.7075953835262008E9, 0.0, 2024-02-10 15:03:03.526
71.0, -319.53705221414566, -624.9522421956062, -2099.370400726795, -152.70759499073029, -0.9920000471174717, -1.008000047877431, 1.008000047877431, 0.0, 0.0, 0.0, 0.0, 0.0, 1.7075953835262008E9, 0.0, 2024-02-10 15:03:03.526
72.0, -471.28723281621933, -706.8111724257469, -2067.0576651096344, -247.73097306489944, -1.008000047877431, -1.008000047877431, 1.008000047877431, 0.0, 0.0, 0.0, 0.0, 0.0, 1.707595383526922E9, 0.0, 2024-02-10 15:03:03.526
72.0, -379.3754515051842, -734.5761896967888, -2129.5289539694786, -247.25226587057114, -1.008000047877431, -1.008000047877431, 1.008000047877431, 0.0, 0.0, 0.0, 0.0, 0.0, 1.707595383526922E9, 0.0, 2024-02-10 15:03:03.526
73.0, -291.0539741516113, -635.0050932765007, -2121.8696388602257, -156.7766061425209, -1.008000047877431, -1.008000047877431, 1.008000047877431, 0.0, 0.0, 0.0, 0.0, 0.0, 1.7075953835573568E9, 0.0, 2024-02-10 15:03:03.557
73.0, -429.1609997153282, -660.8552817702293, -2062.2705931663513, -214.93953025341034, -1.008000047877431, -1.008000047877431, 1.008000047877431, 0.0, 0.0, 0.0, 0.0, 0.0, 1.7075953835573568E9, 0.0, 2024-02-10 15:03:03.557
74.0, -433.9480716586113, -744.8683943748474, -2113.7316165566444, -269.7515040040016, -1.008000047877431, -1.008000047877431, 1.008000047877431, 0.0, 0.0, 0.0, 0.0, 0.0, 1.7075953835577781E9, 0.0, 2024-02-10 15:03:03.557
74.0, -293.44751012325287, -669.2326576709747, -2145.804998576641, -178.31842988729477, -1.008000047877431, -1.008000047877431, 1.008000047877431, 0.0, 0.0, 0.0, 0.0, 0.0, 1.7075953835577781E9, 0.0, 2024-02-10 15:03:03.557
75.0, -370.7587220072746, -632.6115573048592, -2076.8711625933647, -179.51519787311554, -1.008000047877431, -1.008000047877431, 1.008000047877431, 0.0, 0.0, 0.0, 0.0, 0.0, 1.7075953835585132E9, 0.0, 2024-02-10 15:03:03.558
75.0, -472.72335439920425, -735.5336040854454, -2090.2749640345573, -275.73534393310547, -1.008000047877431, -1.008000047877431, 1.008000047877431, 0.0, 0.0, 0.0, 0.0, 0.0, 1.7075953835585132E9, 0.0, 2024-02-10 15:03:03.558
76.0, -333.4195608496666, -711.3588907718658, -2147.001766562462, -217.33306622505188, -1.008000047877431, -1.008000047877431, 1.008000047877431, 0.0, 0.0, 0.0, 0.0, 0.0, 1.7075953835706832E9, 0.0, 2024-02-10 15:03:03.570
76.0, -324.32412415742874, -628.5425461530685, -2103.918119072914, -166.82945722341537, -1.008000047877431, -1.008000047877431, 1.008000047877431, 0.0, 0.0, 0.0, 0.0, 0.0, 1.7075953835706832E9, 0.0, 2024-02-10 15:03:03.570
77.0, -469.13305044174194, -706.5718188285828, -2073.7595658302307, -256.347702562809, -1.008000047877431, -1.008000047877431, 1.008000047877431, 0.0, 0.0, 0.0, 0.0, 0.0, 1.707595383586214E9, 0.0, 2024-02-10 15:03:03.586
77.0, -390.6250705718994, -742.9535655975342, -2139.1030978560448, -251.0819234251976, -1.008000047877431, -1.008000047877431, 1.008000047877431, 0.0, 0.0, 0.0, 0.0, 0.0, 1.707595383586214E9, 0.0, 2024-02-10 15:03:03.586
78.0, -294.64427810907364, -646.7334195375443, -2125.699296414852, -157.01595973968506, -1.008000047877431, -1.008000047877431, 1.008000047877431, 0.0, 0.0, 0.0, 0.0, 0.0, 1.7075953835871544E9, 0.0, 2024-02-10 15:03:03.587
78.0, -434.66613245010376, -674.0197296142578, -2066.100250720978, -217.57241982221603, -1.008000047877431, -1.008000047877431, 1.008000047877431, 0.0, 0.0, 0.0, 0.0, 0.0, 1.7075953835871544E9, 0.0, 2024-02-10 15:03:03.587
79.0, -445.67639791965485, -756.596720635891, -2120.672870874405, -273.5811615586281, -1.008000047877431, -1.008000047877431, 1.008000047877431, 0.0, 0.0, 0.0, 0.0, 0.0, 1.7075953836005776E9, 0.0, 2024-02-10 15:03:03.600
79.0, -298.71328926086426, -676.1739119887352, -2147.001766562462, -185.4990378022194, -1.008000047877431, -1.008000047877431, 1.008000047877431, 0.0, 0.0, 0.0, 0.0, 0.0, 1.7075953836005776E9, 0.0, 2024-02-10 15:03:03.600
80.0, -375.5457939505577, -645.7760051488876, -2081.4188809394836, -180.7119658589363, -1.008000047877431, -1.008000047877431, 1.008000047877431, 0.0, 0.0, 0.0, 0.0, 0.0, 1.7075953836165776E9, 0.0, 2024-02-10 15:03:03.616
80.0, -470.09046483039856, -741.5174440145493, -2091.232378423214, -274.5385759472847, -1.008000047877431, -1.008000047877431, 1.008000047877431, 0.0, 0.0, 0.0, 0.0, 0.0, 1.7075953836165776E9, 0.0, 2024-02-10 15:03:03.616
81.0, -331.02602487802505, -709.4440619945526, -2149.3953025341034, -215.41823744773865, -1.008000047877431, -1.008000047877431, 1.008000047877431, 0.0, 0.0, 0.0, 0.0, 0.0, 1.707595383617169E9, 0.0, 2024-02-10 15:03:03.617
81.0, -323.6060633659363, -629.4999605417252, -2099.131047129631, -158.21272772550583, -1.008000047877431, -1.008000047877431, 1.008000047877431, 0.0, 0.0, 0.0, 0.0, 0.0, 1.707595383617169E9, 0.0, 2024-02-10 15:03:03.617
82.0, -473.20206159353256, -713.2737195491791, -2073.998919427395, -260.8954209089279, -1.008000047877431, -1.008000047877431, 1.008000047877431, 0.0, 0.0, 0.0, 0.0, 0.0, 1.7075953836304443E9, 0.0, 2024-02-10 15:03:03.630
82.0, -387.75282740592957, -736.491018474102, -2133.119257926941, -250.6032162308693, -1.008000047877431, -1.008000047877431, 1.008000047877431, 0.0, 0.0, 0.0, 0.0, 0.0, 1.7075953836304443E9, 0.0, 2024-02-10 15:03:03.630
83.0, -296.3197532892227, -646.4940659403801, -2130.007661163807, -164.675274848938, -1.008000047877431, -1.008000047877431, 1.008000047877431, 0.0, 0.0, 0.0, 0.0, 0.0, 1.7075953836466107E9, 0.0, 2024-02-10 15:03:03.646
83.0, -432.2725964784622, -668.9933040738106, -2073.7595658302307, -223.55625975131989, -1.008000047877431, -1.008000047877431, 1.008000047877431, 0.0, 0.0, 0.0, 0.0, 0.0, 1.7075953836466107E9, 0.0, 2024-02-10 15:03:03.646
84.0, -443.52221554517746, -751.0915879011154, -2120.912224471569, -281.7191838622093, -1.008000047877431, -1.008000047877431, 1.008000047877431, 0.0, 0.0, 0.0, 0.0, 0.0, 1.7075953836470256E9, 0.0, 2024-02-10 15:03:03.647
84.0, -298.9526428580284, -675.6952047944069, -2147.001766562462, -184.06291621923447, -1.008000047877431, -1.008000047877431, 1.008000047877431, 0.0, 0.0, 0.0, 0.0, 0.0, 1.7075953836470256E9, 0.0, 2024-02-10 15:03:03.647
85.0, -375.78514754772186, -647.2121267318726, -2082.8550025224686, -183.10550183057785, -1.008000047877431, -1.008000047877431, 1.008000047877431, 0.0, 0.0, 0.0, 0.0, 0.0, 1.7075953836609333E9, 0.0, 2024-02-10 15:03:03.660
85.0, -476.7923655509949, -746.0651623606682, -2094.583328783512, -278.128879904747, -1.008000047877431, -1.008000047877431, 1.008000047877431, 0.0, 0.0, 0.0, 0.0, 0.0, 1.7075953836609333E9, 0.0, 2024-02-10 15:03:03.660
86.0, -336.0524504184723, -714.2311339378357, -2154.1823744773865, -222.59884536266327, -1.008000047877431, -1.008000047877431, 1.008000047877431, 0.0, 0.0, 0.0, 0.0, 0.0, 1.7075953836762493E9, 0.0, 2024-02-10 15:03:03.676
86.0, -325.0421849489212, -624.7128885984421, -2097.216218352318, -157.01595973968506, -1.008000047877431, -1.008000047877431, 1.008000047877431, 0.0, 0.0, 0.0, 0.0, 0.0, 1.7075953836762493E9, 0.0, 2024-02-10 15:03:03.676
87.0, -472.72335439920425, -705.6144044399261, -2071.126676261425, -247.25226587057114, -1.008000047877431, -1.008000047877431, 1.008000047877431, 0.0, 0.0, 0.0, 0.0, 0.0, 1.7075953836769607E9, 0.0, 2024-02-10 15:03:03.676
87.0, -391.58248496055603, -737.6877864599228, -2136.230854690075, -246.05549788475037, -1.008000047877431, -1.008000047877431, 1.008000047877431, 0.0, 0.0, 0.0, 0.0, 0.0, 1.7075953836769607E9, 0.0, 2024-02-10 15:03:03.676
88.0, -296.08039969205856, -643.3824691772461, -2114.928384542465, -151.98953419923782, -1.008000047877431, -1.008000047877431, 1.008000047877431, 0.0, 0.0, 0.0, 0.0, 0.0, 1.707595383690494E9, 0.0, 2024-02-10 15:03:03.690
88.0, -430.8364748954773, -665.6423537135124, -2056.2867532372475, -203.92926478385925, -1.008000047877431, -1.008000047877431, 1.008000047877431, 0.0, 0.0, 0.0, 0.0, 0.0, 1.707595383690494E9, 0.0, 2024-02-10 15:03:03.690
89.0, -441.1286795735359, -751.8096486926079, -2112.774202167988, -266.1612000465393, -1.008000047877431, -1.008000047877431, 1.008000047877431, 0.0, 0.0, 0.0, 0.0, 0.0, 1.707595383706228E9, 0.0, 2024-02-10 15:03:03.706
89.0, -295.60169249773026, -670.1900720596313, -2133.8373187184334, -168.98363959789276, -1.008000047877431, -1.008000047877431, 1.008000047877431, 0.0, 0.0, 0.0, 0.0, 0.0, 1.707595383706228E9, 0.0, 2024-02-10 15:03:03.706
90.0, -374.34902596473694, -641.706993997097, -2075.674394607544, -174.72812592983246, -1.008000047877431, -1.008000047877431, 1.0240000486373901, 0.0, 0.0, 0.0, 0.0, 0.0, 1.7075953837069283E9, 0.0, 2024-02-10 15:03:03.706
90.0, -477.51042634248734, -745.1077479720116, -2089.0781960487366, -269.2727968096733, -1.008000047877431, -1.008000047877431, 1.0240000486373901, 0.0, 0.0, 0.0, 0.0, 0.0, 1.7075953837069283E9, 0.0, 2024-02-10 15:03:03.706
91.0, -333.65891444683075, -708.0079404115677, -2140.0605122447014, -207.99827593564987, -1.008000047877431, -1.0240000486373901, 1.0240000486373901, 0.0, 0.0, 0.0, 0.0, 0.0, 1.7075953837205791E9, 0.0, 2024-02-10 15:03:03.720
91.0, -324.0847705602646, -635.0050932765007, -2092.907853603363, -151.98953419923782, -1.008000047877431, -1.0240000486373901, 1.0240000486373901, 0.0, 0.0, 0.0, 0.0, 0.0, 1.7075953837205791E9, 0.0, 2024-02-10 15:03:03.720
92.0, -471.76594001054764, -708.486647605896, -2062.7493003606796, -241.02907234430313, -1.0240000486373901, -1.0240000486373901, 1.0240000486373901, 0.0, 0.0, 0.0, 0.0, 0.0, 1.707595383736424E9, 0.0, 2024-02-10 15:03:03.736
92.0, -385.11993783712387, -736.2516648769379, -2129.0502467751503, -243.90131551027298, -1.0240000486373901, -1.0240000486373901, 1.0240000486373901, 0.0, 0.0, 0.0, 0.0, 0.0, 1.707595383736424E9, 0.0, 2024-02-10 15:03:03.736
93.0, -291.7720349431038, -640.5102260112762, -2118.039981305599, -153.6650093793869, -1.0240000486373901, -1.0240000486373901, 1.0240000486373901, 0.0, 0.0, 0.0, 0.0, 0.0, 1.7075953837370267E9, 0.0, 2024-02-10 15:03:03.737
93.0, -424.85263496637344, -664.4455857276917, -2063.9460683465004, -206.56215435266495, -1.0240000486373901, -1.0240000486373901, 1.0240000486373901, 0.0, 0.0, 0.0, 0.0, 0.0, 1.7075953837370267E9, 0.0, 2024-02-10 15:03:03.737
94.0, -438.7351436018944, -750.6128807067871, -2118.2793349027634, -269.03344321250916, -1.0240000486373901, -1.0240000486373901, 1.0240000486373901, 0.0, 0.0, 0.0, 0.0, 0.0, 1.707595383750902E9, 0.0, 2024-02-10 15:03:03.750
94.0, -295.8410460948944, -672.5836080312729, -2145.565644979477, -177.36101549863815, -1.0240000486373901, -1.0240000486373901, 1.0240000486373901, 0.0, 0.0, 0.0, 0.0, 0.0, 1.707595383750902E9, 0.0, 2024-02-10 15:03:03.750
95.0, -377.46062272787094, -644.818590760231, -2084.769831299782, -181.66938024759293, -1.0240000486373901, -1.0240000486373901, 1.0240000486373901, 0.0, 0.0, 0.0, 0.0, 0.0, 1.707595383766579E9, 0.0, 2024-02-10 15:03:03.766
95.0, -480.3826695084572, -747.0225767493248, -2093.147207200527, -272.8631007671356, -1.0240000486373901, -1.0240000486373901, 1.0240000486373901, 0.0, 0.0, 0.0, 0.0, 0.0, 1.707595383766579E9, 0.0, 2024-02-10 15:03:03.766
96.0, -331.50473207235336, -710.4014763832092, -2146.7624129652977, -206.3228007555008, -1.0240000486373901, -1.0240000486373901, 1.0240000486373901, 0.0, 0.0, 0.0, 0.0, 0.0, 1.7075953837670536E9, 0.0, 2024-02-10 15:03:03.767
96.0, -321.9305881857872, -627.3457781672478, -2094.104621589184, -147.4418158531189, -1.0240000486373901, -1.0240000486373901, 1.0240000486373901, 0.0, 0.0, 0.0, 0.0, 0.0, 1.7075953837670536E9, 0.0, 2024-02-10 15:03:03.767
97.0, -472.72335439920425, -705.375050842762, -2066.100250720978, -243.90131551027298, -1.0240000486373901, -1.0240000486373901, 1.0240000486373901, 0.0, 0.0, 0.0, 0.0, 0.0, 1.707595383780933E9, 0.0, 2024-02-10 15:03:03.780
97.0, -380.8115730881691, -727.8742889761925, -2122.348346054554, -236.0026468038559, -1.0240000486373901, -1.0240000486373901, 1.0240000486373901, 0.0, 0.0, 0.0, 0.0, 0.0, 1.707595383780933E9, 0.0, 2024-02-10 15:03:03.780
98.0, -281.240476667881, -627.8244853615761, -2109.662605404854, -144.8089262843132, -1.0240000486373901, -1.0240000486373901, 1.0240000486373901, 0.0, 0.0, 0.0, 0.0, 0.0, 1.7075953837959087E9, 0.0, 2024-02-10 15:03:03.795
98.0, -418.15073424577713, -653.4353202581406, -2048.8667917251587, -195.79124248027802, -1.0240000486373901, -1.0240000486373901, 1.0240000486373901, 0.0, 0.0, 0.0, 0.0, 0.0, 1.7075953837959087E9, 0.0, 2024-02-10 15:03:03.795
0.0, -286.26690220832825, -661.3339889645576, -2128.0928323864937, -162.76044607162476, -1.0240000486373901, -1.0240000486373901, 1.008000047877431, 0.0, 0.0, 0.0, 0.0, 0.0, 1.7075953838115227E9, 0.0, 2024-02-10 15:03:03.811
0.0, -369.3226004242897, -632.372203707695, -2071.8447370529175, -171.3771755695343, -1.0240000486373901, -1.0240000486373901, 1.008000047877431, 0.0, 0.0, 0.0, 0.0, 0.0, 1.7075953838115227E9, 0.0, 2024-02-10 15:03:03.811
1.0, -467.696928858757, -727.8742889761925, -2081.1795273423195, -263.0496032834053, -1.0240000486373901, 0.0, 1.008000047877431, 0.0, 0.0, 0.0, 0.0, 0.0, 1.7075953838120413E9, 0.0, 2024-02-10 15:03:03.812
1.0, -327.6750745177269, -701.3060396909714, -2141.9753410220146, -206.56215435266495, -1.0240000486373901, 0.0, 1.008000047877431, 0.0, 0.0, 0.0, 0.0, 0.0, 1.7075953838120413E9, 0.0, 2024-02-10 15:03:03.812
2.0, -317.8615770339966, -621.8406454324722, -2097.9342791438103, -154.62242376804352, 0.04800000227987766, 0.0, 1.008000047877431, 0.0, 0.0, 0.0, 0.0, 0.0, 1.7075953838258736E9, 0.0, 2024-02-10 15:03:03.825
2.0, -468.1756360530853, -701.5453932881355, -2069.9299082756042, -244.61937630176544, 0.04800000227987766, 0.0, 1.008000047877431, 0.0, 0.0, 0.0, 0.0, 0.0, 1.7075953838258736E9, 0.0, 2024-02-10 15:03:03.825
3.0, -391.3431313633919, -738.6452008485794, -2140.778573036194, -250.12450903654099, 0.04800000227987766, 0.0, 1.008000047877431, 0.0, 0.0, 0.0, 0.0, 0.0, 1.707595383841602E9, 0.0, 2024-02-10 15:03:03.841
3.0, -300.1494108438492, -644.818590760231, -2124.7418820261955, -160.60626369714737, 0.04800000227987766, 0.0, 1.008000047877431, 0.0, 0.0, 0.0, 0.0, 0.0, 1.707595383841602E9, 0.0, 2024-02-10 15:03:03.841
4.0, -431.7938892841339, -664.6849393248558, -2070.6479690670967, -216.1362982392311, 0.04800000227987766, 0.0, 1.008000047877431, 0.0, 0.0, 0.0, 0.0, 0.0, 1.7075953838420572E9, 0.0, 2024-02-10 15:03:03.842
4.0, -442.56480115652084, -744.8683943748474, -2115.1677381396294, -272.62374716997147, 0.04800000227987766, 0.0, 1.008000047877431, 0.0, 0.0, 0.0, 0.0, 0.0, 1.7075953838420572E9, 0.0, 2024-02-10 15:03:03.842
5.0, -296.55910688638687, -667.0784752964973, -2143.6508162021637, -181.43002665042877, 0.04800000227987766, 0.0, 1.008000047877431, 0.0, 0.0, 0.0, 0.0, 0.0, 1.7075953838558648E9, 0.0, 2024-02-10 15:03:03.855
5.0, -372.912904381752, -638.3560436367989, -2088.12078166008, -180.95131945610046, 0.04800000227987766, 0.0, 1.008000047877431, 0.0, 0.0, 0.0, 0.0, 0.0, 1.7075953838558648E9, 0.0, 2024-02-10 15:03:03.855
6.0, -478.7071943283081, -744.6290407776833, -2096.9768647551537, -271.905686378479, 0.04800000227987766, 0.0, 1.008000047877431, 0.0, 0.0, 0.0, 0.0, 0.0, 1.7075953838713198E9, 0.0, 2024-02-10 15:03:03.871
6.0, -337.4885720014572, -713.0343659520149, -2151.549484908581, -207.51956874132156, 0.04800000227987766, 0.0, 1.008000047877431, 0.0, 0.0, 0.0, 0.0, 0.0, 1.7075953838713198E9, 0.0, 2024-02-10 15:03:03.871
7.0, -329.8292568922043, -631.8934965133667, -2094.583328783512, -158.45208132266998, 0.04800000227987766, 0.0, 1.008000047877431, 0.0, 0.0, 0.0, 0.0, 0.0, 1.7075953838721151E9, 0.0, 2024-02-10 15:03:03.872
7.0, -480.62202310562134, -702.0241004824638, -2073.0415050387383, -252.51804500818253, 0.04800000227987766, 0.0, 1.008000047877431, 0.0, 0.0, 0.0, 0.0, 0.0, 1.7075953838721151E9, 0.0, 2024-02-10 15:03:03.872
8.0, -389.90700978040695, -738.6452008485794, -2142.693401813507, -250.84256982803345, 0.04800000227987766, 0.0, 1.008000047877431, 0.0, 0.0, 0.0, 0.0, 0.0, 1.7075953838855343E9, 0.0, 2024-02-10 15:03:03.885
8.0, -300.38876444101334, -644.1005299687386, -2129.2896003723145, -158.21272772550583, 0.04800000227987766, 0.0, 1.008000047877431, 0.0, 0.0, 0.0, 0.0, 0.0, 1.7075953838855343E9, 0.0, 2024-02-10 15:03:03.885
9.0, -429.1609997153282, -663.7275249361992, -2062.7493003606796, -208.71633672714233, 0.04800000227987766, 0.0, 1.008000047877431, 0.0, 0.0, 0.0, 0.0, 0.0, 1.707595383901162E9, 0.0, 2024-02-10 15:03:03.901
9.0, -432.9906572699547, -740.3206760287285, -2105.8329478502274, -264.2463712692261, 0.04800000227987766, 0.0, 1.008000047877431, 0.0, 0.0, 0.0, 0.0, 0.0, 1.707595383901162E9, 0.0, 2024-02-10 15:03:03.901
10.0, -290.33591336011887, -664.6849393248558, -2136.9489154815674, -168.02622520923615, 0.04800000227987766, 0.0, 1.008000047877431, 0.0, 0.0, 0.0, 0.0, 0.0, 1.7075953839019485E9, 0.0, 2024-02-10 15:03:03.901
10.0, -368.3651860356331, -631.1754357218742, -2068.7331402897835, -167.06881082057953, 0.04800000227987766, 0.0, 1.008000047877431, 0.0, 0.0, 0.0, 0.0, 0.0, 1.7075953839019485E9, 0.0, 2024-02-10 15:03:03.901
11.0, -468.8936968445778, -730.267824947834, -2080.461466550827, -260.8954209089279, 0.04800000227987766, 0.0, 1.008000047877431, 0.0, 0.0, 0.0, 0.0, 0.0, 1.7075953839154916E9, 0.0, 2024-02-10 15:03:03.915
11.0, -332.70150005817413, -703.4602220654488, -2142.9327554106712, -208.9556903243065, 0.04800000227987766, 0.0, 1.008000047877431, 0.0, 0.0, 0.0, 0.0, 0.0, 1.7075953839154916E9, 0.0, 2024-02-10 15:03:03.915
12.0, -323.84541696310043, -622.7980598211288, -2094.8226823806763, -154.62242376804352, 0.04800000227987766, 0.0, 1.008000047877431, 0.0, 0.0, 0.0, 0.0, 0.0, 1.7075953839312012E9, 0.0, 2024-02-10 15:03:03.931
12.0, -473.68076878786087, -701.5453932881355, -2067.5363723039627, -246.53420507907867, 0.04800000227987766, 0.0, 1.008000047877431, 0.0, 0.0, 0.0, 0.0, 0.0, 1.7075953839312012E9, 0.0, 2024-02-10 15:03:03.931
13.0, -395.65149611234665, -736.9697256684303, -2129.2896003723145, -239.83230435848236, 0.04800000227987766, 0.0, 1.008000047877431, 0.0, 0.0, 0.0, 0.0, 0.0, 1.7075953839319944E9, 0.0, 2024-02-10 15:03:03.931
13.0, -295.3623389005661, -639.7921652197838, -2124.263174831867, -157.49466693401337, 0.04800000227987766, 0.0, 1.008000047877431, 0.0, 0.0, 0.0, 0.0, 0.0, 1.7075953839319944E9, 0.0, 2024-02-10 15:03:03.931
14.0, -434.66613245010376, -667.0784752964973, -2069.9299082756042, -214.46082305908203, 0.04800000227987766, 0.0, 1.008000047877431, 0.0, 0.0, 0.0, 0.0, 0.0, 1.707595383945598E9, 0.0, 2024-02-10 15:03:03.945
14.0, -438.0170828104019, -745.5864551663399, -2113.013555765152, -269.7515040040016, 0.04800000227987766, 0.0, 1.008000047877431, 0.0, 0.0, 0.0, 0.0, 0.0, 1.707595383945598E9, 0.0, 2024-02-10 15:03:03.945
15.0, -297.27716767787933, -670.9081328511238, -2142.693401813507, -173.29200434684753, 0.04800000227987766, 0.0, 1.008000047877431, 0.0, 0.0, 0.0, 0.0, 0.0, 1.7075953839614403E9, 0.0, 2024-02-10 15:03:03.961
15.0, -373.87031877040863, -639.3134580254555, -2081.4188809394836, -177.121661901474, 0.04800000227987766, 0.0, 1.008000047877431, 0.0, 0.0, 0.0, 0.0, 0.0, 1.7075953839614403E9, 0.0, 2024-02-10 15:03:03.961
16.0, -475.35624396800995, -733.1400681138039, -2088.360135257244, -272.62374716997147, 0.04800000227987766, 0.0, 1.008000047877431, 0.0, 0.0, 0.0, 0.0, 0.0, 1.7075953839619231E9, 0.0, 2024-02-10 15:03:03.961
16.0, -331.2653784751892, -704.6569900512695, -2142.2146946191788, -204.88667917251587, 0.04800000227987766, 0.0, 1.008000047877431, 0.0, 0.0, 0.0, 0.0, 0.0, 1.7075953839619231E9, 0.0, 2024-02-10 15:03:03.961
17.0, -321.21252739429474, -625.1915957927704, -2095.5407431721687, -147.4418158531189, 0.04800000227987766, 0.0, 1.008000047877431, 0.0, 0.0, 0.0, 0.0, 0.0, 1.7075953839755418E9, 0.0, 2024-02-10 15:03:03.975
17.0, -474.87753677368164, -704.4176364541054, -2063.467361152172, -242.7045475244522, 0.04800000227987766, 0.0, 1.008000047877431, 0.0, 0.0, 0.0, 0.0, 0.0, 1.7075953839755418E9, 0.0, 2024-02-10 15:03:03.975
18.0, -386.0773522257805, -733.6187753081322, -2124.023821234703, -237.67812198400497, 0.04800000227987766, 0.0, 1.008000047877431, 0.0, 0.0, 0.0, 0.0, 0.0, 1.707595383991303E9, 0.0, 2024-02-10 15:03:03.991
18.0, -297.5165212750435, -642.6644083857536, -2118.039981305599, -147.9205230474472, 0.04800000227987766, 0.0, 1.008000047877431, 0.0, 0.0, 0.0, 0.0, 0.0, 1.707595383991303E9, 0.0, 2024-02-10 15:03:03.991
19.0, -434.66613245010376, -664.92429292202, -2061.791885972023, -202.25378960371017, 0.04800000227987766, 0.0, 1.008000047877431, 0.0, 0.0, 0.0, 0.0, 0.0, 1.7075953839919171E9, 0.0, 2024-02-10 15:03:03.991
19.0, -448.5486410856247, -757.3147814273834, -2115.4070917367935, -268.794089615345, 0.04800000227987766, 0.0, 1.008000047877431, 0.0, 0.0, 0.0, 0.0, 0.0, 1.7075953839919171E9, 0.0, 2024-02-10 15:03:03.991
20.0, -301.5855324268341, -675.934558391571, -2145.804998576641, -179.03649067878723, 0.04800000227987766, 0.0, 1.008000047877431, 0.0, 0.0, 0.0, 0.0, 0.0, 1.707595384005525E9, 0.0, 2024-02-10 15:03:04.005
20.0, -378.89674431085587, -642.6644083857536, -2083.573063313961, -179.7545514702797, 0.04800000227987766, 0.0, 1.008000047877431, 0.0, 0.0, 0.0, 0.0, 0.0, 1.707595384005525E9, 0.0, 2024-02-10 15:03:04.005
21.0, -479.9039623141289, -739.602615237236, -2097.9342791438103, -275.25663673877716, 0.04800000227987766, 0.0, 1.008000047877431, 0.0, 0.0, 0.0, 0.0, 0.0, 1.7075953840212736E9, 0.0, 2024-02-10 15:03:04.021
21.0, -343.7117655277252, -715.9066091179848, -2155.139788866043, -217.57241982221603, 0.04800000227987766, 0.0, 1.008000047877431, 0.0, 0.0, 0.0, 0.0, 0.0, 1.7075953840212736E9, 0.0, 2024-02-10 15:03:04.021
22.0, -336.5311576128006, -640.2708724141121, -2107.9871302247047, -161.08497089147568, 0.04800000227987766, 0.0, 1.008000047877431, 0.0, 0.0, 0.0, 0.0, 0.0, 1.707595384021953E9, 0.0, 2024-02-10 15:03:04.021
22.0, -475.35624396800995, -711.1195371747017, -2072.802151441574, -249.88515543937683, 0.04800000227987766, 0.0, 1.008000047877431, 0.0, 0.0, 0.0, 0.0, 0.0, 1.707595384021953E9, 0.0, 2024-02-10 15:03:04.021
23.0, -391.8218385577202, -747.261930346489, -2129.5289539694786, -247.25226587057114, 0.04800000227987766, 0.0, 1.008000047877431, 0.0, 0.0, 0.0, 0.0, 0.0, 1.7075953840355117E9, 0.0, 2024-02-10 15:03:04.035
23.0, -292.7294493317604, -637.8773364424706, -2120.1941636800766, -151.51082700490952, 0.04800000227987766, 0.0, 1.008000047877431, 0.0, 0.0, 0.0, 0.0, 0.0, 1.7075953840355117E9, 0.0, 2024-02-10 15:03:04.035
24.0, -430.11841410398483, -664.4455857276917, -2062.031239569187, -207.2802151441574, 0.04800000227987766, 0.0, 1.008000047877431, 0.0, 0.0, 0.0, 0.0, 0.0, 1.7075953840512357E9, 0.0, 2024-02-10 15:03:04.051
24.0, -446.63381230831146, -747.5012839436531, -2102.9607046842575, -260.8954209089279, 0.04800000227987766, 0.0, 1.008000047877431, 0.0, 0.0, 0.0, 0.0, 0.0, 1.7075953840512357E9, 0.0, 2024-02-10 15:03:04.051
25.0, -294.64427810907364, -663.2488177418709, -2130.7257219552994, -165.1539820432663, 0.04800000227987766, 0.0, 1.008000047877431, 0.0, 0.0, 0.0, 0.0, 0.0, 1.7075953840519335E9, 0.0, 2024-02-10 15:03:04.051
25.0, -371.4767827987671, -636.6805684566498, -2066.8183115124702, -168.7442860007286, 0.04800000227987766, 0.0, 1.008000047877431, 0.0, 0.0, 0.0, 0.0, 0.0, 1.7075953840519335E9, 0.0, 2024-02-10 15:03:04.051
26.0, -480.3826695084572, -731.2252393364906, -2075.1956874132156, -262.0921888947487, 0.04800000227987766, 0.0, 1.008000047877431, 0.0, 0.0, 0.0, 0.0, 0.0, 1.7075953840655243E9, 0.0, 2024-02-10 15:03:04.065
26.0, -334.3769752383232, -702.0241004824638, -2132.6405507326126, -203.45055758953094, 0.04800000227987766, 0.0, 1.008000047877431, 0.0, 0.0, 0.0, 0.0, 0.0, 1.7075953840655243E9, 0.0, 2024-02-10 15:03:04.065
27.0, -319.7764058113098, -623.2767670154572, -2091.232378423214, -142.89409750699997, 0.04800000227987766, 0.0, 1.008000047877431, 0.0, 0.0, 0.0, 0.0, 0.0, 1.707595384081216E9, 0.0, 2024-02-10 15:03:04.081
27.0, -465.7821000814438, -693.4073709845543, -2053.6538636684418, -237.67812198400497, 0.04800000227987766, 0.0, 1.008000047877431, 0.0, 0.0, 0.0, 0.0, 0.0, 1.707595384081216E9, 0.0, 2024-02-10 15:03:04.081
28.0, -385.359291434288, -727.6349353790283, -2122.348346054554, -238.87488996982574, 0.04800000227987766, 0.0, 1.008000047877431, 0.0, 0.0, 0.0, 0.0, 0.0, 1.7075953840819097E9, 0.0, 2024-02-10 15:03:04.081
28.0, -293.44751012325287, -637.6379828453064, -2109.662605404854, -142.1760367155075, 0.04800000227987766, 0.0, 1.008000047877431, 0.0, 0.0, 0.0, 0.0, 0.0, 1.7075953840819097E9, 0.0, 2024-02-10 15:03:04.081
29.0, -431.7938892841339, -663.488171339035, -2059.3983500003815, -203.92926478385925, 0.04800000227987766, 0.0, 1.008000047877431, 0.0, 0.0, 0.0, 0.0, 0.0, 1.7075953841122468E9, 0.0, 2024-02-10 15:03:04.112
29.0, -442.56480115652084, -740.5600296258926, -2102.7213510870934, -261.13477450609207, 0.04800000227987766, 0.0, 1.008000047877431, 0.0, 0.0, 0.0, 0.0, 0.0, 1.7075953841122468E9, 0.0, 2024-02-10 15:03:04.112
30.0, -300.1494108438492, -667.7965360879898, -2135.2734403014183, -170.18040758371353, 0.04800000227987766, 0.0, 1.008000047877431, 0.0, 0.0, 0.0, 0.0, 0.0, 1.7075953841126611E9, 0.0, 2024-02-10 15:03:04.112
30.0, -367.8864788413048, -636.6805684566498, -2073.0415050387383, -161.80303168296814, 0.04800000227987766, 0.0, 1.008000047877431, 0.0, 0.0, 0.0, 0.0, 0.0, 1.7075953841126611E9, 0.0, 2024-02-10 15:03:04.112
31.0, -476.5530119538307, -730.9858857393265, -2081.4188809394836, -266.1612000465393, 0.04800000227987766, 0.0, 1.008000047877431, 0.0, 0.0, 0.0, 0.0, 0.0, 1.7075953841133766E9, 0.0, 2024-02-10 15:03:04.113
31.0, -341.796936750412, -707.0505260229111, -2137.4276226758957, -206.8015079498291, 0.04800000227987766, 0.0, 1.008000047877431, 0.0, 0.0, 0.0, 0.0, 0.0, 1.7075953841133766E9, 0.0, 2024-02-10 15:03:04.113
32.0, -329.8292568922043, -631.8934965133667, -2099.370400726795, -156.05854535102844, 0.04800000227987766, 0.0, 1.008000047877431, 0.0, 0.0, 0.0, 0.0, 0.0, 1.7075953841255872E9, 0.0, 2024-02-10 15:03:04.125
32.0, -483.4942662715912, -715.4279019236565, -2067.2970187067986, -249.64580184221268, 0.04800000227987766, 0.0, 1.008000047877431, 0.0, 0.0, 0.0, 0.0, 0.0, 1.7075953841255872E9, 0.0, 2024-02-10 15:03:04.125
33.0, -401.39598244428635, -743.1929191946983, -2131.2044291496277, -253.236105799675, 0.04800000227987766, 0.0, 1.008000047877431, 0.0, 0.0, 0.0, 0.0, 0.0, 1.7075953841419628E9, 0.0, 2024-02-10 15:03:04.141
33.0, -301.1068252325058, -649.1269555091858, -2124.263174831867, -152.70759499073029, 0.04800000227987766, 0.0, 1.008000047877431, 0.0, 0.0, 0.0, 0.0, 0.0, 1.7075953841419628E9, 0.0, 2024-02-10 15:03:04.141
34.0, -435.86290043592453, -667.0784752964973, -2064.4247755408287, -212.0672870874405, 0.04800000227987766, 0.0, 1.008000047877431, 0.0, 0.0, 0.0, 0.0, 0.0, 1.7075953841426044E9, 0.0, 2024-02-10 15:03:04.142
34.0, -451.42088425159454, -754.9212454557419, -2115.4070917367935, -268.07602882385254, 0.04800000227987766, 0.0, 1.008000047877431, 0.0, 0.0, 0.0, 0.0, 0.0, 1.7075953841426044E9, 0.0, 2024-02-10 15:03:04.142
35.0, -306.8513115644455, -678.0887407660484, -2133.597965121269, -169.70170038938522, 0.04800000227987766, 0.0, 1.008000047877431, 0.0, 0.0, 0.0, 0.0, 0.0, 1.7075953841555035E9, 0.0, 2024-02-10 15:03:04.155
35.0, -378.1786835193634, -641.2282868027687, -2073.2808586359024, -169.70170038938522, 0.04800000227987766, 0.0, 1.008000047877431, 0.0, 0.0, 0.0, 0.0, 0.0, 1.7075953841555035E9, 0.0, 2024-02-10 15:03:04.155
36.0, -486.36650943756104, -739.602615237236, -2087.6420744657516, -273.82051515579224, 0.04800000227987766, 0.0, 1.008000047877431, 0.0, 0.0, 0.0, 0.0, 0.0, 1.7075953841711988E9, 0.0, 2024-02-10 15:03:04.171
36.0, -338.92469358444214, -707.5292332172394, -2138.6243906617165, -207.75892233848572, 0.04800000227987766, 0.0, 1.008000047877431, 0.0, 0.0, 0.0, 0.0, 0.0, 1.7075953841711988E9, 0.0, 2024-02-10 15:03:04.171
37.0, -318.8189914226532, -619.2077558636665, -2099.370400726795, -152.22888779640198, 0.04800000227987766, 0.0, 1.008000047877431, 0.0, 0.0, 0.0, 0.0, 0.0, 1.7075953841719456E9, 0.0, 2024-02-10 15:03:04.171
37.0, -471.5265864133835, -696.7583213448524, -2066.339604318142, -246.77355867624283, 0.04800000227987766, 0.0, 1.008000047877431, 0.0, 0.0, 0.0, 0.0, 0.0, 1.7075953841719456E9, 0.0, 2024-02-10 15:03:04.171
38.0, -396.60891050100327, -732.9007145166397, -2125.459942817688, -241.7471331357956, 0.04800000227987766, 0.0, 1.008000047877431, 0.0, 0.0, 0.0, 0.0, 0.0, 1.7075953842021508E9, 0.0, 2024-02-10 15:03:04.202
38.0, -298.23458206653595, -630.6967285275459, -2113.9709701538086, -148.3992302417755, 0.04800000227987766, 0.0, 1.008000047877431, 0.0, 0.0, 0.0, 0.0, 0.0, 1.7075953842021508E9, 0.0, 2024-02-10 15:03:04.202
39.0, -428.2035853266716, -647.6908339262009, -2051.020974099636, -194.11576730012894, 0.04800000227987766, 0.0, 1.008000047877431, 0.0, 0.0, 0.0, 0.0, 0.0, 1.7075953842027256E9, 0.0, 2024-02-10 15:03:04.202
39.0, -443.04350835084915, -741.038736820221, -2096.258803963661, -258.5018849372864, 0.04800000227987766, 0.0, 1.008000047877431, 0.0, 0.0, 0.0, 0.0, 0.0, 1.7075953842027256E9, 0.0, 2024-02-10 15:03:04.202
40.0, -297.9952284693718, -664.92429292202, -2130.486368358135, -168.50493240356445, 0.04800000227987766, 0.0, 1.008000047877431, 0.0, 0.0, 0.0, 0.0, 0.0, 1.7075953842034352E9, 0.0, 2024-02-10 15:03:04.203
40.0, -376.5032083392143, -636.6805684566498, -2072.802151441574, -171.61652916669846, 0.04800000227987766, 0.0, 1.008000047877431, 0.0, 0.0, 0.0, 0.0, 0.0, 1.7075953842034352E9, 0.0, 2024-02-10 15:03:04.203
41.0, -478.7071943283081, -734.3368360996246, -2080.9401737451553, -269.03344321250916, 0.04800000227987766, 0.0, 1.008000047877431, 0.0, 0.0, 0.0, 0.0, 0.0, 1.7075953842158012E9, 0.0, 2024-02-10 15:03:04.215
41.0, -341.3182295560837, -707.5292332172394, -2141.4966338276863, -211.10987269878387, 0.04800000227987766, 0.0, 1.008000047877431, 0.0, 0.0, 0.0, 0.0, 0.0, 1.7075953842158012E9, 0.0, 2024-02-10 15:03:04.215
42.0, -334.61632883548737, -633.5689716935158, -2100.0884615182877, -157.49466693401337, 0.04800000227987766, 0.0, 1.008000047877431, 0.0, 0.0, 0.0, 0.0, 0.0, 1.7075953842312853E9, 0.0, 2024-02-10 15:03:04.231
42.0, -482.53685188293457, -702.9815148711205, -2075.674394607544, -251.32127702236176, 0.04800000227987766, 0.0, 1.008000047877431, 0.0, 0.0, 0.0, 0.0, 0.0, 1.7075953842312853E9, 0.0, 2024-02-10 15:03:04.231
43.0, -411.9275407195091, -743.1929191946983, -2143.1721090078354, -262.33154249191284, 0.04800000227987766, 0.0, 1.008000047877431, 0.0, 0.0, 0.0, 0.0, 0.0, 1.7075953842320044E9, 0.0, 2024-02-10 15:03:04.232
43.0, -311.3990299105644, -648.4088947176933, -2129.5289539694786, -170.18040758371353, 0.04800000227987766, 0.0, 1.008000047877431, 0.0, 0.0, 0.0, 0.0, 0.0, 1.7075953842320044E9, 0.0, 2024-02-10 15:03:04.232
44.0, -447.3518730998039, -678.8068015575409, -2075.913748204708, -227.1465637087822, 0.04800000227987766, 0.0, 1.008000047877431, 0.0, 0.0, 0.0, 0.0, 0.0, 1.7075953842457469E9, 0.0, 2024-02-10 15:03:04.245
44.0, -473.4414151906967, -772.8727652430534, -2123.784467637539, -289.1391453742981, 0.04800000227987766, 0.0, 1.008000047877431, 0.0, 0.0, 0.0, 0.0, 0.0, 1.7075953842457469E9, 0.0, 2024-02-10 15:03:04.245
45.0, -314.27127307653427, -687.4235310554504, -2152.2675457000732, -189.56804895401, 0.04800000227987766, 0.0, 1.008000047877431, 0.0, 0.0, 0.0, 0.0, 0.0, 1.7075953842616773E9, 0.0, 2024-02-10 15:03:04.261
45.0, -385.11993783712387, -645.5366515517235, -2087.1633672714233, -185.4990378022194, 0.04800000227987766, 0.0, 1.008000047877431, 0.0, 0.0, 0.0, 0.0, 0.0, 1.7075953842616773E9, 0.0, 2024-02-10 15:03:04.261
46.0, -482.2974982857704, -735.5336040854454, -2093.147207200527, -278.128879904747, 0.04800000227987766, 0.0, 1.008000047877431, 0.0, 0.0, 0.0, 0.0, 0.0, 1.7075953842620773E9, 0.0, 2024-02-10 15:03:04.262
46.0, -341.55758315324783, -708.486647605896, -2139.342451453209, -213.98211586475372, 0.04800000227987766, 0.0, 1.008000047877431, 0.0, 0.0, 0.0, 0.0, 0.0, 1.7075953842620773E9, 0.0, 2024-02-10 15:03:04.262
47.0, -321.69123458862305, -621.8406454324722, -2096.7375111579895, -153.90436297655106, 0.04800000227987766, 0.0, 1.008000047877431, 0.0, 0.0, 0.0, 0.0, 0.0, 1.7075953842760198E9, 0.0, 2024-02-10 15:03:04.276
47.0, -468.8936968445778, -689.817067027092, -2063.228007555008, -244.61937630176544, 0.04800000227987766, 0.0, 1.008000047877431, 0.0, 0.0, 0.0, 0.0, 0.0, 1.7075953842760198E9, 0.0, 2024-02-10 15:03:04.276
48.0, -392.3005457520485, -727.6349353790283, -2124.263174831867, -243.18325471878052, 0.04800000227987766, 0.0, 1.008000047877431, 0.0, 0.0, 0.0, 0.0, 0.0, 1.7075953842914064E9, 0.0, 2024-02-10 15:03:04.291
48.0, -286.9849629998207, -631.4147893190384, -2117.800627708435, -151.0321198105812, 0.04800000227987766, 0.0, 1.008000047877431, 0.0, 0.0, 0.0, 0.0, 0.0, 1.7075953842914064E9, 0.0, 2024-02-10 15:03:04.291
49.0, -419.10814863443375, -649.1269555091858, -2056.5261068344116, -202.01443600654602, 0.04800000227987766, 0.0, 1.008000047877431, 0.0, 0.0, 0.0, 0.0, 0.0, 1.7075953842919667E9, 0.0, 2024-02-10 15:03:04.291
49.0, -443.7615691423416, -744.3896871805191, -2108.705191016197, -265.92184644937515, 0.04800000227987766, 0.0, 1.008000047877431, 0.0, 0.0, 0.0, 0.0, 0.0, 1.7075953842919667E9, 0.0, 2024-02-10 15:03:04.291
50.0, -297.9952284693718, -672.5836080312729, -2137.4276226758957, -169.22299319505692, 0.04800000227987766, 0.0, 1.008000047877431, 0.0, 0.0, 0.0, 0.0, 0.0, 1.7075953843055654E9, 0.0, 2024-02-10 15:03:04.305
50.0, -374.1096723675728, -634.7657396793365, -2075.913748204708, -172.81329715251923, 0.04800000227987766, 0.0, 1.008000047877431, 0.0, 0.0, 0.0, 0.0, 0.0, 1.7075953843055654E9, 0.0, 2024-02-10 15:03:04.305
51.0, -475.5955975651741, -727.3955817818642, -2085.24853849411, -269.2727968096733, 0.04800000227987766, 0.0, 1.008000047877431, 0.0, 0.0, 0.0, 0.0, 0.0, 1.707595384321352E9, 0.0, 2024-02-10 15:03:04.321
51.0, -338.2066327929497, -706.5718188285828, -2143.4114626049995, -206.56215435266495, 0.04800000227987766, 0.0, 1.008000047877431, 0.0, 0.0, 0.0, 0.0, 0.0, 1.707595384321352E9, 0.0, 2024-02-10 15:03:04.321
52.0, -324.32412415742874, -621.1225846409798, -2097.216218352318, -145.2876334786415, 0.04800000227987766, 0.0, 1.008000047877431, 0.0, 0.0, 0.0, 0.0, 0.0, 1.7075953843219683E9, 0.0, 2024-02-10 15:03:04.321
52.0, -472.4840008020401, -692.6893101930618, -2069.451201081276, -242.94390112161636, 0.04800000227987766, 0.0, 1.008000047877431, 0.0, 0.0, 0.0, 0.0, 0.0, 1.7075953843219683E9, 0.0, 2024-02-10 15:03:04.321
53.0, -399.72050726413727, -737.4484328627586, -2129.0502467751503, -245.3374370932579, 0.04800000227987766, 0.0, 1.008000047877431, 0.0, 0.0, 0.0, 0.0, 0.0, 1.7075953843355565E9, 0.0, 2024-02-10 15:03:04.335
53.0, -297.9952284693718, -635.2444468736649, -2121.151578068733, -154.38307017087936, 0.04800000227987766, 0.0, 1.008000047877431, 0.0, 0.0, 0.0, 0.0, 0.0, 1.7075953843355565E9, 0.0, 2024-02-10 15:03:04.335
54.0, -428.6822925209999, -656.3075634241104, -2062.031239569187, -206.8015079498291, 0.04800000227987766, 0.0, 1.008000047877431, 0.0, 0.0, 0.0, 0.0, 0.0, 1.7075953843511581E9, 0.0, 2024-02-10 15:03:04.351
54.0, -446.15510511398315, -744.3896871805191, -2111.816787779331, -267.1186144351959, 0.04800000227987766, 0.0, 1.008000047877431, 0.0, 0.0, 0.0, 0.0, 0.0, 1.7075953843511581E9, 0.0, 2024-02-10 15:03:04.351
55.0, -291.2933277487755, -663.7275249361992, -2139.342451453209, -175.20683312416077, 0.04800000227987766, 0.0, 1.008000047877431, 0.0, 0.0, 0.0, 0.0, 0.0, 1.7075953843518753E9, 0.0, 2024-02-10 15:03:04.351
55.0, -359.5091029405594, -618.9684022665024, -2068.7331402897835, -166.82945722341537, 0.04800000227987766, 0.0, 1.008000047877431, 0.0, 0.0, 0.0, 0.0, 0.0, 1.7075953843518753E9, 0.0, 2024-02-10 15:03:04.351
56.0, -466.2608072757721, -722.6085098385811, -2076.3924553990364, -258.5018849372864, 0.04800000227987766, 0.0, 1.008000047877431, 0.0, 0.0, 0.0, 0.0, 0.0, 1.7075953843654923E9, 0.0, 2024-02-10 15:03:04.365
56.0, -327.6750745177269, -697.9550893306732, -2134.3160259127617, -203.2112039923668, 0.04800000227987766, 0.0, 1.008000047877431, 0.0, 0.0, 0.0, 0.0, 0.0, 1.7075953843654923E9, 0.0, 2024-02-10 15:03:04.365
57.0, -317.6222234368324, -615.3780983090401, -2088.8388424515724, -142.89409750699997, 0.04800000227987766, 0.0, 1.008000047877431, 0.0, 0.0, 0.0, 0.0, 0.0, 1.7075953843812003E9, 0.0, 2024-02-10 15:03:04.381
57.0, -468.65434324741364, -692.6893101930618, -2057.9622284173965, -235.28458601236343, 0.04800000227987766, 0.0, 1.008000047877431, 0.0, 0.0, 0.0, 0.0, 0.0, 1.7075953843812003E9, 0.0, 2024-02-10 15:03:04.381
58.0, -391.1037777662277, -730.7465321421623, -2113.252909362316, -233.3697572350502, 0.04800000227987766, 0.0, 1.008000047877431, 0.0, 0.0, 0.0, 0.0, 0.0, 1.7075953843819213E9, 0.0, 2024-02-10 15:03:04.381
58.0, -292.01138854026794, -635.2444468736649, -2115.4070917367935, -143.37280470132828, 0.04800000227987766, 0.0, 1.008000047877431, 0.0, 0.0, 0.0, 0.0, 0.0, 1.7075953843819213E9, 0.0, 2024-02-10 15:03:04.381
59.0, -426.0494029521942, -658.701099395752, -2059.3983500003815, -199.14219284057617, 0.04800000227987766, 0.0, 1.008000047877431, 0.0, 0.0, 0.0, 0.0, 0.0, 1.7075953843955276E9, 0.0, 2024-02-10 15:03:04.395
59.0, -441.6073867678642, -741.038736820221, -2102.7213510870934, -262.570896089077, 0.04800000227987766, 0.0, 1.008000047877431, 0.0, 0.0, 0.0, 0.0, 0.0, 1.7075953843955276E9, 0.0, 2024-02-10 15:03:04.395
60.0, -296.55910688638687, -665.1636465191841, -2135.2734403014183, -174.72812592983246, 0.04800000227987766, 0.0, 1.008000047877431, 0.0, 0.0, 0.0, 0.0, 0.0, 1.7075953844121103E9, 0.0, 2024-02-10 15:03:04.412
60.0, -362.86005330085754, -632.6115573048592, -2075.43504101038, -170.41976118087769, 0.04800000227987766, 0.0, 1.008000047877431, 0.0, 0.0, 0.0, 0.0, 0.0, 1.7075953844121103E9, 0.0, 2024-02-10 15:03:04.412
61.0, -473.920122385025, -730.267824947834, -2078.785991370678, -263.5283104777336, 0.04800000227987766, 0.0, 1.008000047877431, 0.0, 0.0, 0.0, 0.0, 0.0, 1.7075953844121685E9, 0.0, 2024-02-10 15:03:04.412
61.0, -329.58990329504013, -699.6305645108223, -2137.66697627306, -199.14219284057617, 0.04800000227987766, 0.0, 1.008000047877431, 0.0, 0.0, 0.0, 0.0, 0.0, 1.7075953844121685E9, 0.0, 2024-02-10 15:03:04.412
62.0, -315.46804106235504, -617.7716342806816, -2091.9504392147064, -140.02185434103012, 0.04800000227987766, 0.0, 1.008000047877431, 0.0, 0.0, 0.0, 0.0, 0.0, 1.7075953844259813E9, 0.0, 2024-02-10 15:03:04.425
62.0, -464.585332095623, -693.8860781788826, -2056.0473996400833, -232.65169644355774, 0.04800000227987766, 0.0, 1.008000047877431, 0.0, 0.0, 0.0, 0.0, 0.0, 1.7075953844259813E9, 0.0, 2024-02-10 15:03:04.425
63.0, -393.49731373786926, -730.7465321421623, -2121.6302852630615, -240.55036514997482, 0.04800000227987766, 0.0, 1.008000047877431, 0.0, 0.0, 0.0, 0.0, 0.0, 1.7075953844414952E9, 0.0, 2024-02-10 15:03:04.441
63.0, -296.798460483551, -638.595397233963, -2115.885798931122, -147.9205230474472, 0.04800000227987766, 0.0, 1.008000047877431, 0.0, 0.0, 0.0, 0.0, 0.0, 1.7075953844414952E9, 0.0, 2024-02-10 15:03:04.441
64.0, -431.7938892841339, -658.9404529929161, -2059.3983500003815, -201.5357288122177, 0.04800000227987766, 0.0, 1.008000047877431, 0.0, 0.0, 0.0, 0.0, 0.0, 1.707595384442057E9, 0.0, 2024-02-10 15:03:04.442
64.0, -441.8467403650284, -737.2090792655945, -2094.583328783512, -254.91158097982407, 0.04800000227987766, 0.0, 1.008000047877431, 0.0, 0.0, 0.0, 0.0, 0.0, 1.707595384442057E9, 0.0, 2024-02-10 15:03:04.442
65.0, -295.3623389005661, -672.3442544341087, -2126.896064400673, -162.28173887729645, 0.04800000227987766, 0.0, 1.008000047877431, 0.0, 0.0, 0.0, 0.0, 0.0, 1.707595384456025E9, 0.0, 2024-02-10 15:03:04.456
65.0, -370.5193684101105, -634.5263860821724, -2070.6479690670967, -163.23915326595306, 0.04800000227987766, 0.0, 1.008000047877431, 0.0, 0.0, 0.0, 0.0, 0.0, 1.707595384456025E9, 0.0, 2024-02-10 15:03:04.456
66.0, -475.83495116233826, -725.2413994073868, -2081.4188809394836, -261.3741281032562, 0.04800000227987766, 0.0, 1.008000047877431, 0.0, 0.0, 0.0, 0.0, 0.0, 1.7075953844713583E9, 0.0, 2024-02-10 15:03:04.471
66.0, -349.9349590539932, -715.4279019236565, -2147.001766562462, -215.6575910449028, 0.04800000227987766, 0.0, 1.008000047877431, 0.0, 0.0, 0.0, 0.0, 0.0, 1.7075953844713583E9, 0.0, 2024-02-10 15:03:04.471
67.0, -329.58990329504013, -632.6115573048592, -2103.918119072914, -162.0423852801323, 0.04800000227987766, 0.0, 1.008000047877431, 0.0, 0.0, 0.0, 0.0, 0.0, 1.707595384472098E9, 0.0, 2024-02-10 15:03:04.472
67.0, -467.2182216644287, -696.7583213448524, -2066.339604318142, -246.53420507907867, 0.04800000227987766, 0.0, 1.008000047877431, 0.0, 0.0, 0.0, 0.0, 0.0, 1.707595384472098E9, 0.0, 2024-02-10 15:03:04.472
68.0, -395.65149611234665, -744.150333583355, -2132.1618435382843, -248.4490338563919, 0.04800000227987766, 0.0, 1.008000047877431, 0.0, 0.0, 0.0, 0.0, 0.0, 1.707595384485906E9, 0.0, 2024-02-10 15:03:04.485
68.0, -293.9262173175812, -646.2547123432159, -2125.9386500120163, -157.97337412834167, 0.04800000227987766, 0.0, 1.008000047877431, 0.0, 0.0, 0.0, 0.0, 0.0, 1.707595384485906E9, 0.0, 2024-02-10 15:03:04.485
69.0, -426.0494029521942, -661.5733425617218, -2061.791885972023, -207.99827593564987, 0.04800000227987766, 0.0, 1.008000047877431, 0.0, 0.0, 0.0, 0.0, 0.0, 1.7075953845014892E9, 0.0, 2024-02-10 15:03:04.501
69.0, -445.915751516819, -744.3896871805191, -2102.003290295601, -268.3153824210167, 0.04800000227987766, 0.0, 1.008000047877431, 0.0, 0.0, 0.0, 0.0, 0.0, 1.7075953845014892E9, 0.0, 2024-02-10 15:03:04.501
70.0, -298.71328926086426, -667.5571824908257, -2135.034086704254, -175.44618672132492, 0.04800000227987766, 0.0, 1.008000047877431, 0.0, 0.0, 0.0, 0.0, 0.0, 1.707595384502143E9, 0.0, 2024-02-10 15:03:04.502
70.0, -366.45035725831985, -624.2341814041138, -2076.3924553990364, -167.786871612072, 0.04800000227987766, 0.0, 1.008000047877431, 0.0, 0.0, 0.0, 0.0, 0.0, 1.707595384502143E9, 0.0, 2024-02-10 15:03:04.502
71.0, -466.97886806726456, -722.1298026442528, -2073.998919427395, -259.459299325943, 0.04800000227987766, 0.0, 1.008000047877431, 0.0, 0.0, 0.0, 0.0, 0.0, 1.7075953845154972E9, 0.0, 2024-02-10 15:03:04.515
71.0, -330.7866712808609, -693.1680173873901, -2129.7683075666428, -201.0570216178894, 0.04800000227987766, 0.0, 1.008000047877431, 0.0, 0.0, 0.0, 0.0, 0.0, 1.7075953845154972E9, 0.0, 2024-02-10 15:03:04.515
72.0, -316.42545545101166, -619.925816655159, -2087.4027208685875, -143.61215829849243, 0.04800000227987766, 0.0, 1.008000047877431, 0.0, 0.0, 0.0, 0.0, 0.0, 1.707595384531401E9, 0.0, 2024-02-10 15:03:04.531
72.0, -468.1756360530853, -697.4763821363449, -2056.0473996400833, -232.8910500407219, 0.04800000227987766, 0.0, 1.008000047877431, 0.0, 0.0, 0.0, 0.0, 0.0, 1.707595384531401E9, 0.0, 2024-02-10 15:03:04.531
73.0, -389.1889489889145, -734.8155432939529, -2121.8696388602257, -237.19941478967667, 0.04800000227987766, 0.0, 1.008000047877431, 0.0, 0.0, 0.0, 0.0, 0.0, 1.7075953845319257E9, 0.0, 2024-02-10 15:03:04.531
73.0, -293.2081565260887, -635.2444468736649, -2120.1941636800766, -146.9631086587906, 0.04800000227987766, 0.0, 1.008000047877431, 0.0, 0.0, 0.0, 0.0, 0.0, 1.7075953845319257E9, 0.0, 2024-02-10 15:03:04.531
74.0, -429.1609997153282, -658.2223922014236, -2056.2867532372475, -199.14219284057617, 0.04800000227987766, 0.0, 1.008000047877431, 0.0, 0.0, 0.0, 0.0, 0.0, 1.7075953845459523E9, 0.0, 2024-02-10 15:03:04.545
74.0, -447.11251950263977, -740.0813224315643, -2103.67876547575, -260.65606731176376, 0.04800000227987766, 0.0, 1.008000047877431, 0.0, 0.0, 0.0, 0.0, 0.0, 1.7075953845459523E9, 0.0, 2024-02-10 15:03:04.545
75.0, -295.3623389005661, -662.7701105475426, -2131.2044291496277, -168.50493240356445, 0.04800000227987766, 0.0, 1.008000047877431, 0.0, 0.0, 0.0, 0.0, 0.0, 1.7075953845614693E9, 0.0, 2024-02-10 15:03:04.561
75.0, -369.08324682712555, -629.7393141388893, -2072.802151441574, -168.2655788064003, 0.04800000227987766, 0.0, 1.008000047877431, 0.0, 0.0, 0.0, 0.0, 0.0, 1.7075953845614693E9, 0.0, 2024-02-10 15:03:04.561
76.0, -473.68076878786087, -726.6775209903717, -2079.5040521621704, -264.2463712692261, 0.04800000227987766, 0.0, 1.008000047877431, 0.0, 0.0, 0.0, 0.0, 0.0, 1.7075953845620518E9, 0.0, 2024-02-10 15:03:04.562
76.0, -338.92469358444214, -709.9227691888809, -2135.034086704254, -208.23762953281403, 0.04800000227987766, 0.0, 1.008000047877431, 0.0, 0.0, 0.0, 0.0, 0.0, 1.7075953845620518E9, 0.0, 2024-02-10 15:03:04.562
77.0, -322.8880025744438, -623.9948278069496, -2094.104621589184, -151.51082700490952, 0.04800000227987766, 0.0, 1.008000047877431, 0.0, 0.0, 0.0, 0.0, 0.0, 1.707595384575467E9, 0.0, 2024-02-10 15:03:04.575
77.0, -469.8511112332344, -695.8009069561958, -2063.228007555008, -244.3800227046013, 0.04800000227987766, 0.0, 1.008000047877431, 0.0, 0.0, 0.0, 0.0, 0.0, 1.707595384575467E9, 0.0, 2024-02-10 15:03:04.575
78.0, -397.5663248896599, -729.7891177535057, -2123.3057604432106, -238.6355363726616, 0.04800000227987766, 0.0, 1.008000047877431, 0.0, 0.0, 0.0, 0.0, 0.0, 1.7075953845913422E9, 0.0, 2024-02-10 15:03:04.591
78.0, -290.575266957283, -635.2444468736649, -2115.4070917367935, -147.68116945028305, 0.04800000227987766, 0.0, 1.008000047877431, 0.0, 0.0, 0.0, 0.0, 0.0, 1.7075953845913422E9, 0.0, 2024-02-10 15:03:04.591
79.0, -428.6822925209999, -658.2223922014236, -2062.5099467635155, -205.12603276968002, 0.04800000227987766, 0.0, 1.008000047877431, 0.0, 0.0, 0.0, 0.0, 0.0, 1.7075953845920312E9, 0.0, 2024-02-10 15:03:04.592
79.0, -448.78799468278885, -749.8948199152946, -2110.3806661963463, -272.8631007671356, 0.04800000227987766, 0.0, 1.008000047877431, 0.0, 0.0, 0.0, 0.0, 0.0, 1.7075953845920312E9, 0.0, 2024-02-10 15:03:04.592
80.0, -305.6545435786247, -669.9507184624672, -2138.145683467388, -176.88230830430984, 0.04800000227987766, 0.0, 1.008000047877431, 0.0, 0.0, 0.0, 0.0, 0.0, 1.7075953846055324E9, 0.0, 2024-02-10 15:03:04.605
80.0, -373.15225797891617, -634.0476788878441, -2077.110516190529, -172.09523636102676, 0.04800000227987766, 0.0, 1.008000047877431, 0.0, 0.0, 0.0, 0.0, 0.0, 1.7075953846055324E9, 0.0, 2024-02-10 15:03:04.605
81.0, -476.0743047595024, -726.4381673932076, -2085.9665992856026, -265.682492852211, 0.04800000227987766, 0.0, 1.008000047877431, 0.0, 0.0, 0.0, 0.0, 0.0, 1.7075953846212265E9, 0.0, 2024-02-10 15:03:04.621
81.0, -339.1640471816063, -711.59824436903, -2146.0443521738052, -214.93953025341034, 0.04800000227987766, 0.0, 1.008000047877431, 0.0, 0.0, 0.0, 0.0, 0.0, 1.7075953846212265E9, 0.0, 2024-02-10 15:03:04.621
82.0, -325.0421849489212, -632.1328501105309, -2103.918119072914, -156.2978989481926, 0.04800000227987766, 0.0, 1.008000047877431, 0.0, 0.0, 0.0, 0.0, 0.0, 1.7075953846218936E9, 0.0, 2024-02-10 15:03:04.621
82.0, -476.0743047595024, -705.375050842762, -2071.366029858589, -247.73097306489944, 0.04800000227987766, 0.0, 1.008000047877431, 0.0, 0.0, 0.0, 0.0, 0.0, 1.7075953846218936E9, 0.0, 2024-02-10 15:03:04.621
83.0, -396.3695569038391, -741.5174440145493, -2135.9915010929108, -252.51804500818253, 0.04800000227987766, 0.0, 1.008000047877431, 0.0, 0.0, 0.0, 0.0, 0.0, 1.7075953846355274E9, 0.0, 2024-02-10 15:03:04.635
83.0, -293.2081565260887, -644.1005299687386, -2129.7683075666428, -156.05854535102844, 0.04800000227987766, 0.0, 1.008000047877431, 0.0, 0.0, 0.0, 0.0, 0.0, 1.7075953846355274E9, 0.0, 2024-02-10 15:03:04.635
84.0, -429.1609997153282, -662.0520497560501, -2069.69055467844, -209.4343975186348, 0.04800000227987766, 0.0, 1.008000047877431, 0.0, 0.0, 0.0, 0.0, 0.0, 1.7075953846513045E9, 0.0, 2024-02-10 15:03:04.651
84.0, -440.88932597637177, -737.6877864599228, -2112.5348485708237, -272.3843935728073, 0.04800000227987766, 0.0, 1.008000047877431, 0.0, 0.0, 0.0, 0.0, 0.0, 1.7075953846513045E9, 0.0, 2024-02-10 15:03:04.651
85.0, -292.96880292892456, -669.9507184624672, -2142.2146946191788, -175.92489391565323, 0.04800000227987766, 0.0, 1.008000047877431, 0.0, 0.0, 0.0, 0.0, 0.0, 1.7075953846519356E9, 0.0, 2024-02-10 15:03:04.651
85.0, -369.56195402145386, -636.9199220538139, -2078.3072841763496, -170.18040758371353, 0.04800000227987766, 0.0, 1.008000047877431, 0.0, 0.0, 0.0, 0.0, 0.0, 1.7075953846519356E9, 0.0, 2024-02-10 15:03:04.651
86.0, -477.98913353681564, -732.1826537251472, -2088.5994888544083, -271.66633278131485, 0.04800000227987766, 0.0, 1.008000047877431, 0.0, 0.0, 0.0, 0.0, 0.0, 1.7075953846657355E9, 0.0, 2024-02-10 15:03:04.665
86.0, -343.2330583333969, -719.4969130754471, -2141.9753410220146, -214.22146946191788, 0.04800000227987766, 0.0, 1.008000047877431, 0.0, 0.0, 0.0, 0.0, 0.0, 1.7075953846657355E9, 0.0, 2024-02-10 15:03:04.665
87.0, -315.94674825668335, -626.8670709729195, -2097.216218352318, -149.83535182476044, 0.04800000227987766, 0.0, 1.008000047877431, 0.0, 0.0, 0.0, 0.0, 0.0, 1.707595384681363E9, 0.0, 2024-02-10 15:03:04.681
87.0, -465.7821000814438, -698.1944429278374, -2063.228007555008, -245.57679069042206, 0.04800000227987766, 0.0, 1.008000047877431, 0.0, 0.0, 0.0, 0.0, 0.0, 1.707595384681363E9, 0.0, 2024-02-10 15:03:04.681
88.0, -395.65149611234665, -736.0123112797737, -2122.587699651718, -244.3800227046013, 0.04800000227987766, 0.0, 1.008000047877431, 0.0, 0.0, 0.0, 0.0, 0.0, 1.707595384681942E9, 0.0, 2024-02-10 15:03:04.681
88.0, -288.89979177713394, -637.1592756509781, -2120.1941636800766, -152.46824139356613, 0.04800000227987766, 0.0, 1.008000047877431, 0.0, 0.0, 0.0, 0.0, 0.0, 1.707595384681942E9, 0.0, 2024-02-10 15:03:04.681
89.0, -423.17715978622437, -652.9566130638123, -2057.4835212230682, -199.14219284057617, 0.04800000227987766, 0.0, 1.008000047877431, 0.0, 0.0, 0.0, 0.0, 0.0, 1.7075953846960678E9, 0.0, 2024-02-10 15:03:04.696
89.0, -445.4370443224907, -737.4484328627586, -2102.9607046842575, -261.6134817004204, 0.04800000227987766, 0.0, 1.008000047877431, 0.0, 0.0, 0.0, 0.0, 0.0, 1.7075953846960678E9, 0.0, 2024-02-10 15:03:04.696
90.0, -294.8836317062378, -670.6687792539597, -2135.2734403014183, -175.44618672132492, 0.04800000227987766, 0.0, 1.008000047877431, 0.0, 0.0, 0.0, 0.0, 0.0, 1.7075953847115812E9, 0.0, 2024-02-10 15:03:04.711
90.0, -362.86005330085754, -624.2341814041138, -2073.2808586359024, -171.13782197237015, 0.04800000227987766, 0.0, 1.008000047877431, 0.0, 0.0, 0.0, 0.0, 0.0, 1.7075953847115812E9, 0.0, 2024-02-10 15:03:04.711
91.0, -478.7071943283081, -730.9858857393265, -2079.025344967842, -263.5283104777336, 0.04800000227987766, 0.0, 1.008000047877431, 0.0, 0.0, 0.0, 0.0, 0.0, 1.7075953847121084E9, 0.0, 2024-02-10 15:03:04.712
91.0, -344.4298263192177, -708.0079404115677, -2137.66697627306, -213.0247014760971, 0.04800000227987766, 0.0, 1.008000047877431, 0.0, 0.0, 0.0, 0.0, 0.0, 1.7075953847121084E9, 0.0, 2024-02-10 15:03:04.712
92.0, -328.39313530921936, -622.7980598211288, -2102.242643892765, -156.2978989481926, 0.06400000303983688, 0.0, 1.008000047877431, 0.0, 0.0, 0.0, 0.0, 0.0, 1.7075953847258663E9, 0.0, 2024-02-10 15:03:04.725
92.0, -472.4840008020401, -704.1782828569412, -2074.238273024559, -251.0819234251976, 0.06400000303983688, 0.0, 1.008000047877431, 0.0, 0.0, 0.0, 0.0, 0.0, 1.7075953847258663E9, 0.0, 2024-02-10 15:03:04.725
93.0, -400.91727524995804, -739.3632616400719, -2126.1780036091805, -251.79998421669006, 0.06400000303983688, 0.0, 1.008000047877431, 0.0, 0.0, 0.0, 0.0, 0.0, 1.7075953847414782E9, 0.0, 2024-02-10 15:03:04.741
93.0, -292.96880292892456, -635.0050932765007, -2121.8696388602257, -153.6650093793869, 0.06400000303983688, 0.0, 1.008000047877431, 0.0, 0.0, 0.0, 0.0, 0.0, 1.7075953847414782E9, 0.0, 2024-02-10 15:03:04.741
94.0, -420.06556302309036, -658.701099395752, -2062.2705931663513, -205.84409356117249, 0.06400000303983688, 0.0, 1.008000047877431, 0.0, 0.0, 0.0, 0.0, 0.0, 1.7075953847422235E9, 0.0, 2024-02-10 15:03:04.742
94.0, -447.5912266969681, -744.150333583355, -2108.226483821869, -268.3153824210167, 0.06400000303983688, 0.0, 1.008000047877431, 0.0, 0.0, 0.0, 0.0, 0.0, 1.7075953847422235E9, 0.0, 2024-02-10 15:03:04.742
95.0, -302.5429468154907, -679.7642159461975, -2144.6082305908203, -175.20683312416077, 0.06400000303983688, 0.0, 1.008000047877431, 0.0, 0.0, 0.0, 0.0, 0.0, 1.7075953847558076E9, 0.0, 2024-02-10 15:03:04.755
95.0, -368.8438932299614, -637.6379828453064, -2076.3924553990364, -171.61652916669846, 0.06400000303983688, 0.0, 1.008000047877431, 0.0, 0.0, 0.0, 0.0, 0.0, 1.7075953847558076E9, 0.0, 2024-02-10 15:03:04.755
96.0, -483.4942662715912, -736.7303720712662, -2087.881428062916, -276.93211191892624, 0.06400000303983688, 0.0, 1.008000047877431, 0.0, 0.0, 0.0, 0.0, 0.0, 1.7075953847712045E9, 0.0, 2024-02-10 15:03:04.771
96.0, -348.73819106817245, -708.486647605896, -2144.8475841879845, -216.85435903072357, 0.06400000303983688, 0.0, 1.008000047877431, 0.0, 0.0, 0.0, 0.0, 0.0, 1.7075953847712045E9, 0.0, 2024-02-10 15:03:04.771
97.0, -323.6060633659363, -631.6541429162025, -2109.901959002018, -161.08497089147568, 0.06400000303983688, 0.0, 1.008000047877431, 0.0, 0.0, 0.0, 0.0, 0.0, 1.7075953847718973E9, 0.0, 2024-02-10 15:03:04.771
97.0, -477.7497799396515, -705.8537580370903, -2071.6053834557533, -248.92774105072021, 0.06400000303983688, 0.0, 1.008000047877431, 0.0, 0.0, 0.0, 0.0, 0.0, 1.7075953847718973E9, 0.0, 2024-02-10 15:03:04.771
98.0, -399.9598608613014, -738.8845544457436, -2126.4173572063446, -250.12450903654099, 0.06400000303983688, 0.0, 1.008000047877431, 0.0, 0.0, 0.0, 0.0, 0.0, 1.7075953847857208E9, 0.0, 2024-02-10 15:03:04.785
98.0, -291.0539741516113, -637.6379828453064, -2120.912224471569, -148.63858383893967, 0.06400000303983688, 0.0, 1.008000047877431, 0.0, 0.0, 0.0, 0.0, 0.0, 1.7075953847857208E9, 0.0, 2024-02-10 15:03:04.785
99.0, -424.6132813692093, -648.8876019120216, -2055.329338848591, -199.38154643774033, 0.06400000303983688, 0.0, 1.008000047877431, 0.0, 0.0, 0.0, 0.0, 0.0, 1.7075953848005333E9, 0.0, 2024-02-10 15:03:04.800
99.0, -444.71898353099823, -737.4484328627586, -2103.439411878586, -269.03344321250916, 0.06400000303983688, 0.0, 1.008000047877431, 0.0, 0.0, 0.0, 0.0, 0.0, 1.7075953848005333E9, 0.0, 2024-02-10 15:03:04.800
0.0, -369.801307618618, -634.5263860821724, -2079.2646985650063, -172.09523636102676, 0.06400000303983688, 0.0, 0.9920000471174717, 0.0, 0.0, 0.0, 0.0, 0.0, 1.7075953848164492E9, 0.0, 2024-02-10 15:03:04.816
0.0, -482.2974982857704, -734.8155432939529, -2094.343975186348, -277.88952630758286, 0.06400000303983688, 0.0, 0.9920000471174717, 0.0, 0.0, 0.0, 0.0, 0.0, 1.7075953848164492E9, 0.0, 2024-02-10 15:03:04.816
1.0, -349.9349590539932, -720.933034658432, -2148.677241742611, -218.05112701654434, 0.06400000303983688, 0.0, 0.9920000471174717, 0.0, 0.0, 0.0, 0.0, 0.0, 1.7075953848169842E9, 0.0, 2024-02-10 15:03:04.816
1.0, -323.12735617160797, -634.0476788878441, -2102.481997489929, -158.9307885169983, 0.06400000303983688, 0.0, 0.9920000471174717, 0.0, 0.0, 0.0, 0.0, 0.0, 1.7075953848169842E9, 0.0, 2024-02-10 15:03:04.816
2.0, -473.68076878786087, -706.3324652314186, -2073.0415050387383, -250.12450903654099, 0.04800000227987766, 0.0, 0.9920000471174717, 0.0, 0.0, 0.0, 0.0, 0.0, 1.707595384830679E9, 0.0, 2024-02-10 15:03:04.830
2.0, -407.3798223733902, -745.825808763504, -2131.2044291496277, -253.236105799675, 0.04800000227987766, 0.0, 0.9920000471174717, 0.0, 0.0, 0.0, 0.0, 0.0, 1.707595384830679E9, 0.0, 2024-02-10 15:03:04.830
3.0, -303.2610076069832, -644.818590760231, -2128.571539580822, -155.8191917538643, 0.04800000227987766, 0.0, 0.9920000471174717, 0.0, 0.0, 0.0, 0.0, 0.0, 1.707595384846486E9, 0.0, 2024-02-10 15:03:04.846
3.0, -435.86290043592453, -662.7701105475426, -2070.4086154699326, -208.47698312997818, 0.04800000227987766, 0.0, 0.9920000471174717, 0.0, 0.0, 0.0, 0.0, 0.0, 1.707595384846486E9, 0.0, 2024-02-10 15:03:04.846
4.0, -454.7718346118927, -750.1341735124588, -2108.465837419033, -268.794089615345, 0.04800000227987766, 0.0, 0.9920000471174717, 0.0, 0.0, 0.0, 0.0, 0.0, 1.7075953848469834E9, 0.0, 2024-02-10 15:03:04.846
4.0, -311.15967631340027, -680.7216303348541, -2139.581805050373, -177.6003690958023, 0.04800000227987766, 0.0, 0.9920000471174717, 0.0, 0.0, 0.0, 0.0, 0.0, 1.7075953848469834E9, 0.0, 2024-02-10 15:03:04.846
5.0, -376.7425619363785, -634.2870324850082, -2080.222112953663, -168.02622520923615, 0.04800000227987766, 0.0, 0.9920000471174717, 0.0, 0.0, 0.0, 0.0, 0.0, 1.7075953848605676E9, 0.0, 2024-02-10 15:03:04.860
5.0, -490.43552058935165, -730.9858857393265, -2084.0517705082893, -270.2302111983299, 0.04800000227987766, 0.0, 0.9920000471174717, 0.0, 0.0, 0.0, 0.0, 0.0, 1.7075953848605676E9, 0.0, 2024-02-10 15:03:04.860
6.0, -341.3182295560837, -711.1195371747017, -2133.8373187184334, -213.74276226758957, 0.04800000227987766, 0.0, 0.9920000471174717, 0.0, 0.0, 0.0, 0.0, 0.0, 1.7075953848764749E9, 0.0, 2024-02-10 15:03:04.876
6.0, -329.1111961007118, -625.6703029870987, -2099.131047129631, -149.59599822759628, 0.04800000227987766, 0.0, 0.9920000471174717, 0.0, 0.0, 0.0, 0.0, 0.0, 1.7075953848764749E9, 0.0, 2024-02-10 15:03:04.876
7.0, -465.7821000814438, -696.2796141505241, -2066.339604318142, -247.4916194677353, 0.04800000227987766, 0.0, 0.9920000471174717, 0.0, 0.0, 0.0, 0.0, 0.0, 1.7075953848769891E9, 0.0, 2024-02-10 15:03:04.876
7.0, -395.65149611234665, -733.379421710968, -2124.9812356233597, -250.36386263370514, 0.04800000227987766, 0.0, 0.9920000471174717, 0.0, 0.0, 0.0, 0.0, 0.0, 1.7075953848769891E9, 0.0, 2024-02-10 15:03:04.876
8.0, -293.44751012325287, -645.5366515517235, -2124.9812356233597, -157.49466693401337, 0.04800000227987766, 0.0, 0.9920000471174717, 0.0, 0.0, 0.0, 0.0, 0.0, 1.7075953848909163E9, 0.0, 2024-02-10 15:03:04.890
8.0, -428.6822925209999, -665.4030001163483, -2071.126676261425, -215.6575910449028, 0.04800000227987766, 0.0, 0.9920000471174717, 0.0, 0.0, 0.0, 0.0, 0.0, 1.7075953848909163E9, 0.0, 2024-02-10 15:03:04.890
9.0, -456.4473097920418, -752.5277094841003, -2117.561274111271, -281.7191838622093, 0.04800000227987766, 0.0, 0.9920000471174717, 0.0, 0.0, 0.0, 0.0, 0.0, 1.7075953849067469E9, 0.0, 2024-02-10 15:03:04.906
9.0, -315.7073946595192, -691.0138350129128, -2157.0546176433563, -194.3551208972931, 0.04800000227987766, 0.0, 0.9920000471174717, 0.0, 0.0, 0.0, 0.0, 0.0, 1.7075953849067469E9, 0.0, 2024-02-10 15:03:04.906
10.0, -378.89674431085587, -645.5366515517235, -2093.3865607976913, -189.32869535684586, 0.04800000227987766, 0.0, 0.9920000471174717, 0.0, 0.0, 0.0, 0.0, 0.0, 1.7075953849072304E9, 0.0, 2024-02-10 15:03:04.907
10.0, -488.99939900636673, -742.2355048060417, -2097.455571949482, -280.52241587638855, 0.04800000227987766, 0.0, 0.9920000471174717, 0.0, 0.0, 0.0, 0.0, 0.0, 1.7075953849072304E9, 0.0, 2024-02-10 15:03:04.907
11.0, -352.0891414284706, -718.3001450896263, -2148.677241742611, -225.47108852863312, 0.04800000227987766, 0.0, 0.9920000471174717, 0.0, 0.0, 0.0, 0.0, 0.0, 1.7075953849207723E9, 0.0, 2024-02-10 15:03:04.920
11.0, -330.54731768369675, -634.0476788878441, -2104.6361798644066, -162.0423852801323, 0.04800000227987766, 0.0, 0.9920000471174717, 0.0, 0.0, 0.0, 0.0, 0.0, 1.7075953849207723E9, 0.0, 2024-02-10 15:03:04.920
12.0, -475.5955975651741, -700.5879788994789, -2069.9299082756042, -250.84256982803345, 0.04800000227987766, 0.0, 0.9920000471174717, 0.0, 0.0, 0.0, 0.0, 0.0, 1.7075953849366E9, 0.0, 2024-02-10 15:03:04.936
12.0, -404.2682256102562, -736.491018474102, -2128.810893177986, -252.51804500818253, 0.04800000227987766, 0.0, 0.9920000471174717, 0.0, 0.0, 0.0, 0.0, 0.0, 1.7075953849366E9, 0.0, 2024-02-10 15:03:04.936
13.0, -297.5165212750435, -638.595397233963, -2122.587699651718, -158.9307885169983, 0.04800000227987766, 0.0, 0.9920000471174717, 0.0, 0.0, 0.0, 0.0, 0.0, 1.7075953849370377E9, 0.0, 2024-02-10 15:03:04.937
13.0, -424.85263496637344, -649.36630910635, -2057.9622284173965, -201.77508240938187, 0.04800000227987766, 0.0, 0.9920000471174717, 0.0, 0.0, 0.0, 0.0, 0.0, 1.7075953849370377E9, 0.0, 2024-02-10 15:03:04.937
14.0, -449.26670187711716, -739.602615237236, -2097.455571949482, -266.40055364370346, 0.04800000227987766, 0.0, 0.9920000471174717, 0.0, 0.0, 0.0, 0.0, 0.0, 1.707595384950988E9, 0.0, 2024-02-10 15:03:04.950
14.0, -305.8938971757889, -679.046155154705, -2133.597965121269, -171.61652916669846, 0.04800000227987766, 0.0, 0.9920000471174717, 0.0, 0.0, 0.0, 0.0, 0.0, 1.707595384950988E9, 0.0, 2024-02-10 15:03:04.950
15.0, -368.12583243846893, -637.3986292481422, -2079.2646985650063, -166.82945722341537, 0.04800000227987766, 0.0, 0.9920000471174717, 0.0, 0.0, 0.0, 0.0, 0.0, 1.7075953849663355E9, 0.0, 2024-02-10 15:03:04.966
15.0, -485.8878022432327, -733.8581289052963, -2084.2911241054535, -264.0070176720619, 0.04800000227987766, 0.0, 0.9920000471174717, 0.0, 0.0, 0.0, 0.0, 0.0, 1.7075953849663355E9, 0.0, 2024-02-10 15:03:04.966
16.0, -355.44009178876877, -718.7788522839546, -2147.48047375679, -219.48724859952927, 0.04800000227987766, 0.0, 0.9920000471174717, 0.0, 0.0, 0.0, 0.0, 0.0, 1.707595384966934E9, 0.0, 2024-02-10 15:03:04.966
16.0, -332.2227928638458, -635.483800470829, -2105.8329478502274, -158.45208132266998, 0.04800000227987766, 0.0, 0.9920000471174717, 0.0, 0.0, 0.0, 0.0, 0.0, 1.707595384966934E9, 0.0, 2024-02-10 15:03:04.966
17.0, -479.6646087169647, -710.6408299803734, -2080.222112953663, -254.6722273826599, 0.04800000227987766, 0.0, 0.9920000471174717, 0.0, 0.0, 0.0, 0.0, 0.0, 1.7075953849805088E9, 0.0, 2024-02-10 15:03:04.980
17.0, -414.5604302883148, -754.4425382614136, -2143.4114626049995, -262.81024968624115, 0.04800000227987766, 0.0, 0.9920000471174717, 0.0, 0.0, 0.0, 0.0, 0.0, 1.7075953849805088E9, 0.0, 2024-02-10 15:03:04.980
18.0, -307.56937235593796, -656.0682098269463, -2139.342451453209, -165.1539820432663, 0.04800000227987766, 0.0, 0.9920000471174717, 0.0, 0.0, 0.0, 0.0, 0.0, 1.70759538499655E9, 0.0, 2024-02-10 15:03:04.996
18.0, -442.56480115652084, -669.9507184624672, -2078.546637773514, -219.2478950023651, 0.04800000227987766, 0.0, 0.9920000471174717, 0.0, 0.0, 0.0, 0.0, 0.0, 1.70759538499655E9, 0.0, 2024-02-10 15:03:04.996
19.0, -460.5163209438324, -754.4425382614136, -2120.672870874405, -275.73534393310547, 0.04800000227987766, 0.0, 0.9920000471174717, 0.0, 0.0, 0.0, 0.0, 0.0, 1.7075953849969797E9, 0.0, 2024-02-10 15:03:04.996
19.0, -304.93648278713226, -674.7377904057503, -2146.2837057709694, -181.43002665042877, 0.04800000227987766, 0.0, 0.9920000471174717, 0.0, 0.0, 0.0, 0.0, 0.0, 1.7075953849969797E9, 0.0, 2024-02-10 15:03:04.996
20.0, -366.92906445264816, -632.1328501105309, -2079.025344967842, -171.8558827638626, 0.04800000227987766, 0.0, 0.9920000471174717, 0.0, 0.0, 0.0, 0.0, 0.0, 1.70759538501052E9, 0.0, 2024-02-10 15:03:05.010
20.0, -476.7923655509949, -729.3104105591774, -2081.658234536648, -269.51215040683746, 0.04800000227987766, 0.0, 0.9920000471174717, 0.0, 0.0, 0.0, 0.0, 0.0, 1.70759538501052E9, 0.0, 2024-02-10 15:03:05.010
21.0, -342.2756439447403, -709.9227691888809, -2142.9327554106712, -213.0247014760971, 0.04800000227987766, 0.0, 0.9920000471174717, 0.0, 0.0, 0.0, 0.0, 0.0, 1.707595385026592E9, 0.0, 2024-02-10 15:03:05.026
21.0, -317.1435162425041, -626.149010181427, -2097.9342791438103, -152.22888779640198, 0.04800000227987766, 0.0, 0.9920000471174717, 0.0, 0.0, 0.0, 0.0, 0.0, 1.707595385026592E9, 0.0, 2024-02-10 15:03:05.026
22.0, -465.0640392899513, -694.6041389703751, -2062.5099467635155, -240.07165795564651, 0.04800000227987766, 0.0, 0.9920000471174717, 0.0, 0.0, 0.0, 0.0, 0.0, 1.7075953850269976E9, 0.0, 2024-02-10 15:03:05.026
22.0, -399.0024464726448, -728.8317033648491, -2123.3057604432106, -242.46519392728806, 0.04800000227987766, 0.0, 0.9920000471174717, 0.0, 0.0, 0.0, 0.0, 0.0, 1.7075953850269976E9, 0.0, 2024-02-10 15:03:05.026
23.0, -286.74560940265656, -634.5263860821724, -2117.561274111271, -151.27147340774536, 0.04800000227987766, 0.0, 0.9920000471174717, 0.0, 0.0, 0.0, 0.0, 0.0, 1.7075953850405464E9, 0.0, 2024-02-10 15:03:05.040
23.0, -420.06556302309036, -655.1107954382896, -2064.664129137993, -197.70607125759125, 0.04800000227987766, 0.0, 0.9920000471174717, 0.0, 0.0, 0.0, 0.0, 0.0, 1.7075953850405464E9, 0.0, 2024-02-10 15:03:05.040
24.0, -448.78799468278885, -744.150333583355, -2107.029715836048, -268.3153824210167, 0.04800000227987766, 0.0, 0.9920000471174717, 0.0, 0.0, 0.0, 0.0, 0.0, 1.7075953850562525E9, 0.0, 2024-02-10 15:03:05.056
24.0, -302.5429468154907, -674.9771440029144, -2139.1030978560448, -174.24941873550415, 0.04800000227987766, 0.0, 0.9920000471174717, 0.0, 0.0, 0.0, 0.0, 0.0, 1.7075953850562525E9, 0.0, 2024-02-10 15:03:05.056
25.0, -367.1684180498123, -629.4999605417252, -2079.025344967842, -164.43592125177383, 0.04800000227987766, 0.0, 0.9920000471174717, 0.0, 0.0, 0.0, 0.0, 0.0, 1.70759538505692E9, 0.0, 2024-02-10 15:03:05.056
25.0, -486.84521663188934, -728.8317033648491, -2076.1531018018723, -257.54447054862976, 0.04800000227987766, 0.0, 0.9920000471174717, 0.0, 0.0, 0.0, 0.0, 0.0, 1.70759538505692E9, 0.0, 2024-02-10 15:03:05.056
26.0, -348.9775446653366, -710.1621227860451, -2146.2837057709694, -211.82793349027634, 0.04800000227987766, 0.0, 0.9920000471174717, 0.0, 0.0, 0.0, 0.0, 0.0, 1.707595385070562E9, 0.0, 2024-02-10 15:03:05.070
26.0, -330.3079640865326, -631.1754357218742, -2104.3968262672424, -145.52698707580566, 0.04800000227987766, 0.0, 0.9920000471174717, 0.0, 0.0, 0.0, 0.0, 0.0, 1.707595385070562E9, 0.0, 2024-02-10 15:03:05.070
27.0, -483.25491267442703, -704.8963436484337, -2079.9827593564987, -247.9703266620636, 0.04800000227987766, 0.0, 0.9920000471174717, 0.0, 0.0, 0.0, 0.0, 0.0, 1.7075953850862815E9, 0.0, 2024-02-10 15:03:05.086
27.0, -413.1243087053299, -746.0651623606682, -2131.683136343956, -256.347702562809, 0.04800000227987766, 0.0, 0.9920000471174717, 0.0, 0.0, 0.0, 0.0, 0.0, 1.7075953850862815E9, 0.0, 2024-02-10 15:03:05.086
28.0, -309.4842011332512, -647.930187523365, -2134.3160259127617, -161.80303168296814, 0.04800000227987766, 0.0, 0.9920000471174717, 0.0, 0.0, 0.0, 0.0, 0.0, 1.7075953850869207E9, 0.0, 2024-02-10 15:03:05.086
28.0, -437.0596684217453, -667.0784752964973, -2080.222112953663, -207.75892233848572, 0.04800000227987766, 0.0, 0.9920000471174717, 0.0, 0.0, 0.0, 0.0, 0.0, 1.7075953850869207E9, 0.0, 2024-02-10 15:03:05.086
29.0, -464.1066249012947, -752.7670630812645, -2115.4070917367935, -279.8043550848961, 0.04800000227987766, 0.0, 0.9920000471174717, 0.0, 0.0, 0.0, 0.0, 0.0, 1.7075953851009028E9, 0.0, 2024-02-10 15:03:05.100
29.0, -317.6222234368324, -686.9448238611221, -2149.6346561312675, -189.80740255117416, 0.04800000227987766, 0.0, 0.9920000471174717, 0.0, 0.0, 0.0, 0.0, 0.0, 1.7075953851009028E9, 0.0, 2024-02-10 15:03:05.100
30.0, -379.8541586995125, -645.0579443573952, -2093.3865607976913, -178.55778348445892, 0.04800000227987766, 0.0, 1.008000047877431, 0.0, 0.0, 0.0, 0.0, 0.0, 1.7075953851163971E9, 0.0, 2024-02-10 15:03:05.116
30.0, -489.7174597978592, -737.927140057087, -2094.343975186348, -278.128879904747, 0.04800000227987766, 0.0, 1.008000047877431, 0.0, 0.0, 0.0, 0.0, 0.0, 1.7075953851163971E9, 0.0, 2024-02-10 15:03:05.116
31.0, -351.84978783130646, -713.0343659520149, -2155.3791424632072, -226.6678565144539, 0.04800000227987766, 0.0, 1.008000047877431, 0.0, 0.0, 0.0, 0.0, 0.0, 1.7075953851169171E9, 0.0, 2024-02-10 15:03:05.116
31.0, -325.28153854608536, -629.9786677360535, -2107.5084230303764, -162.0423852801323, 0.04800000227987766, 0.0, 1.008000047877431, 0.0, 0.0, 0.0, 0.0, 0.0, 1.7075953851169171E9, 0.0, 2024-02-10 15:03:05.116
32.0, -472.9627079963684, -698.6731501221657, -2069.9299082756042, -248.92774105072021, 0.04800000227987766, 0.0, 1.008000047877431, 0.0, 0.0, 0.0, 0.0, 0.0, 1.7075953851309626E9, 0.0, 2024-02-10 15:03:05.130
32.0, -403.7895184159279, -740.0813224315643, -2131.443782746792, -254.1935201883316, 0.04800000227987766, 0.0, 1.008000047877431, 0.0, 0.0, 0.0, 0.0, 0.0, 1.7075953851309626E9, 0.0, 2024-02-10 15:03:05.130
33.0, -296.3197532892227, -641.9463475942612, -2129.2896003723145, -158.21272772550583, 0.04800000227987766, 0.0, 1.008000047877431, 0.0, 0.0, 0.0, 0.0, 0.0, 1.7075953851465707E9, 0.0, 2024-02-10 15:03:05.146
33.0, -436.82031482458115, -661.3339889645576, -2075.674394607544, -211.58857989311218, 0.04800000227987766, 0.0, 1.008000047877431, 0.0, 0.0, 0.0, 0.0, 0.0, 1.7075953851465707E9, 0.0, 2024-02-10 15:03:05.146
34.0, -459.0801993608475, -747.0225767493248, -2102.9607046842575, -268.3153824210167, 0.04800000227987766, 0.0, 1.008000047877431, 0.0, 0.0, 0.0, 0.0, 0.0, 1.7075953851471446E9, 0.0, 2024-02-10 15:03:05.147
34.0, -314.0319194793701, -676.4132655858994, -2142.454048216343, -182.3874410390854, 0.04800000227987766, 0.0, 1.008000047877431, 0.0, 0.0, 0.0, 0.0, 0.0, 1.7075953851471446E9, 0.0, 2024-02-10 15:03:05.147
35.0, -371.9554899930954, -634.0476788878441, -2081.4188809394836, -171.61652916669846, 0.04800000227987766, 0.0, 1.008000047877431, 0.0, 0.0, 0.0, 0.0, 0.0, 1.7075953851605852E9, 0.0, 2024-02-10 15:03:05.160
35.0, -488.0419846177101, -734.0974825024605, -2085.9665992856026, -269.03344321250916, 0.04800000227987766, 0.0, 1.008000047877431, 0.0, 0.0, 0.0, 0.0, 0.0, 1.7075953851605852E9, 0.0, 2024-02-10 15:03:05.160
36.0, -351.84978783130646, -716.3853163123131, -2142.2146946191788, -212.5459942817688, 0.04800000227987766, 0.0, 1.008000047877431, 0.0, 0.0, 0.0, 0.0, 0.0, 1.7075953851762407E9, 0.0, 2024-02-10 15:03:05.176
36.0, -324.80283135175705, -632.372203707695, -2104.8755334615707, -158.69143491983414, 0.04800000227987766, 0.0, 1.008000047877431, 0.0, 0.0, 0.0, 0.0, 0.0, 1.7075953851762407E9, 0.0, 2024-02-10 15:03:05.176
37.0, -475.83495116233826, -699.3912109136581, -2075.1956874132156, -245.57679069042206, 0.04800000227987766, 0.0, 1.008000047877431, 0.0, 0.0, 0.0, 0.0, 0.0, 1.7075953851769352E9, 0.0, 2024-02-10 15:03:05.176
37.0, -409.0552975535393, -744.8683943748474, -2131.92248994112, -255.39028817415237, 0.04800000227987766, 0.0, 1.008000047877431, 0.0, 0.0, 0.0, 0.0, 0.0, 1.7075953851769352E9, 0.0, 2024-02-10 15:03:05.176
38.0, -307.56937235593796, -643.3824691772461, -2130.486368358135, -160.84561729431152, 0.04800000227987766, 0.0, 1.008000047877431, 0.0, 0.0, 0.0, 0.0, 0.0, 1.7075953851905372E9, 0.0, 2024-02-10 15:03:05.190
38.0, -435.14483964443207, -664.92429292202, -2068.7331402897835, -210.63116550445557, 0.04800000227987766, 0.0, 1.008000047877431, 0.0, 0.0, 0.0, 0.0, 0.0, 1.7075953851905372E9, 0.0, 2024-02-10 15:03:05.190
39.0, -465.7821000814438, -755.6393062472343, -2110.141312599182, -279.8043550848961, 0.04800000227987766, 0.0, 1.008000047877431, 0.0, 0.0, 0.0, 0.0, 0.0, 1.707595385221388E9, 0.0, 2024-02-10 15:03:05.221
39.0, -316.6648090481758, -683.1151663064957, -2149.1559489369392, -189.80740255117416, 0.04800000227987766, 0.0, 1.008000047877431, 0.0, 0.0, 0.0, 0.0, 0.0, 1.707595385221388E9, 0.0, 2024-02-10 15:03:05.221
40.0, -374.34902596473694, -641.706993997097, -2091.232378423214, -179.27584427595139, 0.04800000227987766, 0.0, 0.9920000471174717, 0.0, 0.0, 0.0, 0.0, 0.0, 1.707595385237629E9, 0.0, 2024-02-10 15:03:05.237
40.0, -489.95681339502335, -738.6452008485794, -2094.343975186348, -278.6075870990753, 0.04800000227987766, 0.0, 0.9920000471174717, 0.0, 0.0, 0.0, 0.0, 0.0, 1.707595385237629E9, 0.0, 2024-02-10 15:03:05.237
41.0, -346.58400869369507, -712.3163051605225, -2140.778573036194, -218.52983421087265, 0.04800000227987766, 0.0, 0.9920000471174717, 0.0, 0.0, 0.0, 0.0, 0.0, 1.7075953852383249E9, 0.0, 2024-02-10 15:03:05.238
41.0, -321.69123458862305, -626.149010181427, -2104.3968262672424, -152.46824139356613, 0.04800000227987766, 0.0, 0.9920000471174717, 0.0, 0.0, 0.0, 0.0, 0.0, 1.7075953852383249E9, 0.0, 2024-02-10 15:03:05.238
42.0, -470.3298184275627, -696.7583213448524, -2068.254433095455, -239.5929507613182, 0.04800000227987766, 0.0, 0.9920000471174717, 0.0, 0.0, 0.0, 0.0, 0.0, 1.7075953852390485E9, 0.0, 2024-02-10 15:03:05.239
42.0, -403.55016481876373, -736.0123112797737, -2126.6567108035088, -247.9703266620636, 0.04800000227987766, 0.0, 0.9920000471174717, 0.0, 0.0, 0.0, 0.0, 0.0, 1.7075953852390485E9, 0.0, 2024-02-10 15:03:05.239
43.0, -297.9952284693718, -646.2547123432159, -2126.1780036091805, -154.62242376804352, 0.04800000227987766, 0.0, 0.9920000471174717, 0.0, 0.0, 0.0, 0.0, 0.0, 1.7075953852398136E9, 0.0, 2024-02-10 15:03:05.239
43.0, -430.8364748954773, -659.1798065900803, -2064.903482735157, -200.0996072292328, 0.04800000227987766, 0.0, 0.9920000471174717, 0.0, 0.0, 0.0, 0.0, 0.0, 1.7075953852398136E9, 0.0, 2024-02-10 15:03:05.239
44.0, -455.48989540338516, -746.7832231521606, -2104.3968262672424, -266.6399072408676, 0.04800000227987766, 0.0, 0.9920000471174717, 0.0, 0.0, 0.0, 0.0, 0.0, 1.707595385250906E9, 0.0, 2024-02-10 15:03:05.250
44.0, -307.3300187587738, -680.2429231405258, -2139.8211586475372, -181.19067305326462, 0.04800000227987766, 0.0, 0.9920000471174717, 0.0, 0.0, 0.0, 0.0, 0.0, 1.707595385250906E9, 0.0, 2024-02-10 15:03:05.250
45.0, -367.40777164697647, -635.2444468736649, -2084.0517705082893, -173.05265074968338, 0.04800000227987766, 0.0, 0.9920000471174717, 0.0, 0.0, 0.0, 0.0, 0.0, 1.707595385266188E9, 0.0, 2024-02-10 15:03:05.266
45.0, -484.4516806602478, -736.0123112797737, -2084.2911241054535, -269.51215040683746, 0.04800000227987766, 0.0, 0.9920000471174717, 0.0, 0.0, 0.0, 0.0, 0.0, 1.707595385266188E9, 0.0, 2024-02-10 15:03:05.266
46.0, -354.243323802948, -721.1723882555962, -2149.1559489369392, -224.75302773714066, 0.04800000227987766, 0.0, 0.9920000471174717, 0.0, 0.0, 0.0, 0.0, 0.0, 1.7075953852669277E9, 0.0, 2024-02-10 15:03:05.266
46.0, -332.2227928638458, -635.9625076651573, -2111.0987269878387, -158.9307885169983, 0.04800000227987766, 0.0, 0.9920000471174717, 0.0, 0.0, 0.0, 0.0, 0.0, 1.7075953852669277E9, 0.0, 2024-02-10 15:03:05.266
47.0, -480.3826695084572, -705.1356972455978, -2078.546637773514, -249.64580184221268, 0.04800000227987766, 0.0, 0.9920000471174717, 0.0, 0.0, 0.0, 0.0, 0.0, 1.7075953852807865E9, 0.0, 2024-02-10 15:03:05.280
47.0, -411.4488335251808, -744.150333583355, -2138.145683467388, -260.17736011743546, 0.04800000227987766, 0.0, 0.9920000471174717, 0.0, 0.0, 0.0, 0.0, 0.0, 1.7075953852807865E9, 0.0, 2024-02-10 15:03:05.280
48.0, -305.8938971757889, -653.4353202581406, -2134.555379509926, -166.59010362625122, 0.04800000227987766, 0.0, 0.9920000471174717, 0.0, 0.0, 0.0, 0.0, 0.0, 1.707595385296322E9, 0.0, 2024-02-10 15:03:05.296
48.0, -433.9480716586113, -662.2914033532143, -2072.0840906500816, -209.67375111579895, 0.04800000227987766, 0.0, 0.9920000471174717, 0.0, 0.0, 0.0, 0.0, 0.0, 1.707595385296322E9, 0.0, 2024-02-10 15:03:05.296
49.0, -466.2608072757721, -751.5702950954437, -2107.9871302247047, -275.017283141613, 0.04800000227987766, 0.0, 0.9920000471174717, 0.0, 0.0, 0.0, 0.0, 0.0, 1.7075953852968795E9, 0.0, 2024-02-10 15:03:05.296
49.0, -309.4842011332512, -676.4132655858994, -2142.454048216343, -178.55778348445892, 0.04800000227987766, 0.0, 0.9920000471174717, 0.0, 0.0, 0.0, 0.0, 0.0, 1.7075953852968795E9, 0.0, 2024-02-10 15:03:05.296
50.0, -374.34902596473694, -637.8773364424706, -2088.12078166008, -175.68554031848907, 0.04800000227987766, 0.0, 1.008000047877431, 0.0, 0.0, 0.0, 0.0, 0.0, 1.7075953853109553E9, 0.0, 2024-02-10 15:03:05.310
50.0, -483.4942662715912, -729.3104105591774, -2078.546637773514, -267.59732162952423, 0.04800000227987766, 0.0, 1.008000047877431, 0.0, 0.0, 0.0, 0.0, 0.0, 1.7075953853109553E9, 0.0, 2024-02-10 15:03:05.310
51.0, -354.7220309972763, -721.4117418527603, -2145.326291382313, -220.20530939102173, 0.04800000227987766, 0.0, 1.008000047877431, 0.0, 0.0, 0.0, 0.0, 0.0, 1.7075953853263888E9, 0.0, 2024-02-10 15:03:05.326
51.0, -321.21252739429474, -638.3560436367989, -2102.7213510870934, -162.28173887729645, 0.04800000227987766, 0.0, 1.008000047877431, 0.0, 0.0, 0.0, 0.0, 0.0, 1.7075953853263888E9, 0.0, 2024-02-10 15:03:05.326
52.0, -467.9362824559212, -707.0505260229111, -2074.477626621723, -246.77355867624283, 0.04800000227987766, 0.0, 1.008000047877431, 0.0, 0.0, 0.0, 0.0, 0.0, 1.7075953853271332E9, 0.0, 2024-02-10 15:03:05.327
52.0, -409.5340047478676, -747.7406375408173, -2123.5451140403748, -257.06576335430145, 0.04800000227987766, 0.0, 1.008000047877431, 0.0, 0.0, 0.0, 0.0, 0.0, 1.7075953853271332E9, 0.0, 2024-02-10 15:03:05.327
53.0, -297.9952284693718, -649.6056627035141, -2122.348346054554, -157.01595973968506, 0.04800000227987766, 0.0, 1.008000047877431, 0.0, 0.0, 0.0, 0.0, 0.0, 1.7075953853406675E9, 0.0, 2024-02-10 15:03:05.340
53.0, -429.8790605068207, -667.0784752964973, -2068.015079498291, -207.99827593564987, 0.04800000227987766, 0.0, 1.008000047877431, 0.0, 0.0, 0.0, 0.0, 0.0, 1.7075953853406675E9, 0.0, 2024-02-10 15:03:05.340
54.0, -451.42088425159454, -754.9212454557419, -2108.9445446133614, -276.2140511274338, 0.04800000227987766, 0.0, 1.008000047877431, 0.0, 0.0, 0.0, 0.0, 0.0, 1.7075953853561983E9, 0.0, 2024-02-10 15:03:05.356
54.0, -304.6971291899681, -686.4661166667938, -2147.9591809511185, -183.58420902490616, 0.04800000227987766, 0.0, 1.008000047877431, 0.0, 0.0, 0.0, 0.0, 0.0, 1.7075953853561983E9, 0.0, 2024-02-10 15:03:05.356
55.0, -365.2535892724991, -639.3134580254555, -2085.7272456884384, -176.40360110998154, 0.04800000227987766, 0.0, 1.008000047877431, 0.0, 0.0, 0.0, 0.0, 0.0, 1.707595385356882E9, 0.0, 2024-02-10 15:03:05.356
55.0, -485.4090950489044, -745.3471015691757, -2091.7110856175423, -280.04370868206024, 0.04800000227987766, 0.0, 1.008000047877431, 0.0, 0.0, 0.0, 0.0, 0.0, 1.707595385356882E9, 0.0, 2024-02-10 15:03:05.356
56.0, -351.84978783130646, -727.6349353790283, -2152.9856064915657, -233.3697572350502, 0.04800000227987766, 0.0, 1.008000047877431, 0.0, 0.0, 0.0, 0.0, 0.0, 1.707595385371028E9, 0.0, 2024-02-10 15:03:05.371
56.0, -329.58990329504013, -642.6644083857536, -2112.774202167988, -166.35075002908707, 0.04800000227987766, 0.0, 1.008000047877431, 0.0, 0.0, 0.0, 0.0, 0.0, 1.707595385371028E9, 0.0, 2024-02-10 15:03:05.371
57.0, -483.0155590772629, -713.5130731463432, -2080.700820147991, -258.5018849372864, 0.04800000227987766, 0.0, 1.008000047877431, 0.0, 0.0, 0.0, 0.0, 0.0, 1.707595385386305E9, 0.0, 2024-02-10 15:03:05.386
57.0, -419.3475022315979, -759.4689638018608, -2141.9753410220146, -272.62374716997147, 0.04800000227987766, 0.0, 1.008000047877431, 0.0, 0.0, 0.0, 0.0, 0.0, 1.707595385386305E9, 0.0, 2024-02-10 15:03:05.386
58.0, -312.35644429922104, -663.7275249361992, -2138.6243906617165, -174.4887723326683, 0.04800000227987766, 0.0, 1.008000047877431, 0.0, 0.0, 0.0, 0.0, 0.0, 1.707595385387045E9, 0.0, 2024-02-10 15:03:05.387
58.0, -431.55453568696976, -668.2752432823181, -2075.1956874132156, -219.48724859952927, 0.04800000227987766, 0.0, 1.008000047877431, 0.0, 0.0, 0.0, 0.0, 0.0, 1.707595385387045E9, 0.0, 2024-02-10 15:03:05.387
59.0, -457.4047241806984, -754.9212454557419, -2118.2793349027634, -285.0701342225075, 0.04800000227987766, 0.0, 1.008000047877431, 0.0, 0.0, 0.0, 0.0, 0.0, 1.7075953854005027E9, 0.0, 2024-02-10 15:03:05.400
59.0, -306.13325077295303, -680.9609839320183, -2149.1559489369392, -188.37128096818924, 0.04800000227987766, 0.0, 1.008000047877431, 0.0, 0.0, 0.0, 0.0, 0.0, 1.7075953854005027E9, 0.0, 2024-02-10 15:03:05.400
60.0, -375.5457939505577, -643.1431155800819, -2093.6259143948555, -181.66938024759293, 0.04800000227987766, 0.0, 1.008000047877431, 0.0, 0.0, 0.0, 0.0, 0.0, 1.707595385416262E9, 0.0, 2024-02-10 15:03:05.416
60.0, -484.69103425741196, -735.2942504882812, -2092.907853603363, -281.00112307071686, 0.04800000227987766, 0.0, 1.008000047877431, 0.0, 0.0, 0.0, 0.0, 0.0, 1.707595385416262E9, 0.0, 2024-02-10 15:03:05.416
61.0, -349.69560545682907, -711.59824436903, -2151.549484908581, -230.2581604719162, 0.04800000227987766, 0.0, 1.008000047877431, 0.0, 0.0, 0.0, 0.0, 0.0, 1.7075953854169297E9, 0.0, 2024-02-10 15:03:05.416
61.0, -324.0847705602646, -636.6805684566498, -2110.8593733906746, -161.08497089147568, 0.04800000227987766, 0.0, 1.008000047877431, 0.0, 0.0, 0.0, 0.0, 0.0, 1.7075953854169297E9, 0.0, 2024-02-10 15:03:05.416
62.0, -474.87753677368164, -701.3060396909714, -2076.8711625933647, -248.20968025922775, 0.04800000227987766, 0.0, 1.008000047877431, 0.0, 0.0, 0.0, 0.0, 0.0, 1.7075953854305272E9, 0.0, 2024-02-10 15:03:05.430
62.0, -409.5340047478676, -746.3045159578323, -2130.7257219552994, -258.02317774295807, 0.04800000227987766, 0.0, 1.008000047877431, 0.0, 0.0, 0.0, 0.0, 0.0, 1.7075953854305272E9, 0.0, 2024-02-10 15:03:05.430
63.0, -300.38876444101334, -648.8876019120216, -2130.486368358135, -157.2553133368492, 0.04800000227987766, 0.0, 1.008000047877431, 0.0, 0.0, 0.0, 0.0, 0.0, 1.7075953854467423E9, 0.0, 2024-02-10 15:03:05.446
63.0, -426.28875654935837, -663.488171339035, -2064.664129137993, -204.1686183810234, 0.04800000227987766, 0.0, 1.008000047877431, 0.0, 0.0, 0.0, 0.0, 0.0, 1.7075953854467423E9, 0.0, 2024-02-10 15:03:05.446
64.0, -457.8834313750267, -748.6980519294739, -2105.114887058735, -271.66633278131485, 0.04800000227987766, 0.0, 1.008000047877431, 0.0, 0.0, 0.0, 0.0, 0.0, 1.707595385447094E9, 0.0, 2024-02-10 15:03:05.447
64.0, -309.72355473041534, -682.3971055150032, -2149.3953025341034, -192.2009385228157, 0.04800000227987766, 0.0, 1.008000047877431, 0.0, 0.0, 0.0, 0.0, 0.0, 1.707595385447094E9, 0.0, 2024-02-10 15:03:05.447
65.0, -372.4341971874237, -639.5528116226196, -2086.924013674259, -184.06291621923447, 0.04800000227987766, 0.0, 1.008000047877431, 0.0, 0.0, 0.0, 0.0, 0.0, 1.7075953854604928E9, 0.0, 2024-02-10 15:03:05.460
65.0, -485.8878022432327, -741.2780904173851, -2087.6420744657516, -273.82051515579224, 0.04800000227987766, 0.0, 1.008000047877431, 0.0, 0.0, 0.0, 0.0, 0.0, 1.7075953854604928E9, 0.0, 2024-02-10 15:03:05.460
66.0, -364.29617488384247, -727.6349353790283, -2146.2837057709694, -229.30074608325958, 0.04800000227987766, 0.0, 1.008000047877431, 0.0, 0.0, 0.0, 0.0, 0.0, 1.7075953854762316E9, 0.0, 2024-02-10 15:03:05.476
66.0, -326.238952934742, -635.2444468736649, -2109.901959002018, -162.9997996687889, 0.04800000227987766, 0.0, 1.008000047877431, 0.0, 0.0, 0.0, 0.0, 0.0, 1.7075953854762316E9, 0.0, 2024-02-10 15:03:05.476
67.0, -474.39882957935333, -704.8963436484337, -2080.9401737451553, -255.62964177131653, 0.04800000227987766, 0.0, 1.008000047877431, 0.0, 0.0, 0.0, 0.0, 0.0, 1.707595385476963E9, 0.0, 2024-02-10 15:03:05.476
67.0, -405.7043471932411, -736.2516648769379, -2130.9650755524635, -256.58705615997314, 0.04800000227987766, 0.0, 1.008000047877431, 0.0, 0.0, 0.0, 0.0, 0.0, 1.707595385476963E9, 0.0, 2024-02-10 15:03:05.476
68.0, -299.19199645519257, -651.2811378836632, -2136.9489154815674, -167.54751801490784, 0.04800000227987766, 0.0, 1.008000047877431, 0.0, 0.0, 0.0, 0.0, 0.0, 1.707595385490759E9, 0.0, 2024-02-10 15:03:05.490
68.0, -425.0919885635376, -667.0784752964973, -2077.8285769820213, -212.30664068460464, 0.04800000227987766, 0.0, 1.008000047877431, 0.0, 0.0, 0.0, 0.0, 0.0, 1.707595385490759E9, 0.0, 2024-02-10 15:03:05.490
69.0, -463.38856410980225, -760.6657317876816, -2119.476102888584, -284.8307806253433, 0.04800000227987766, 0.0, 1.008000047877431, 0.0, 0.0, 0.0, 0.0, 0.0, 1.707595385506604E9, 0.0, 2024-02-10 15:03:05.506
69.0, -315.46804106235504, -690.7744814157486, -2155.139788866043, -199.62090003490448, 0.04800000227987766, 0.0, 1.008000047877431, 0.0, 0.0, 0.0, 0.0, 0.0, 1.707595385506604E9, 0.0, 2024-02-10 15:03:05.506
70.0, -370.5193684101105, -644.5792371630669, -2092.668500006199, -181.43002665042877, 0.04800000227987766, 0.0, 1.008000047877431, 0.0, 0.0, 0.0, 0.0, 0.0, 1.707595385507089E9, 0.0, 2024-02-10 15:03:05.507
70.0, -481.3400838971138, -737.2090792655945, -2091.232378423214, -278.6075870990753, 0.04800000227987766, 0.0, 1.008000047877431, 0.0, 0.0, 0.0, 0.0, 0.0, 1.707595385507089E9, 0.0, 2024-02-10 15:03:05.507
71.0, -348.9775446653366, -713.2737195491791, -2145.565644979477, -223.79561334848404, 0.04800000227987766, 0.0, 1.008000047877431, 0.0, 0.0, 0.0, 0.0, 0.0, 1.7075953855206392E9, 0.0, 2024-02-10 15:03:05.520
71.0, -317.1435162425041, -621.6012918353081, -2098.4129863381386, -151.27147340774536, 0.04800000227987766, 0.0, 1.008000047877431, 0.0, 0.0, 0.0, 0.0, 0.0, 1.7075953855206392E9, 0.0, 2024-02-10 15:03:05.520
72.0, -460.75567454099655, -681.9183983206749, -2063.7067147493362, -240.31101155281067, 0.04800000227987766, 0.0, 1.008000047877431, 0.0, 0.0, 0.0, 0.0, 0.0, 1.7075953855362437E9, 0.0, 2024-02-10 15:03:05.536
72.0, -399.9598608613014, -733.1400681138039, -2124.023821234703, -252.03933781385422, 0.04800000227987766, 0.0, 1.008000047877431, 0.0, 0.0, 0.0, 0.0, 0.0, 1.7075953855362437E9, 0.0, 2024-02-10 15:03:05.536
73.0, -285.30948781967163, -637.3986292481422, -2118.997395694256, -145.76634067296982, 0.04800000227987766, 0.0, 1.008000047877431, 0.0, 0.0, 0.0, 0.0, 0.0, 1.70759538553696E9, 0.0, 2024-02-10 15:03:05.536
73.0, -412.6456015110016, -647.6908339262009, -2057.9622284173965, -193.87641370296478, 0.04800000227987766, 0.0, 1.008000047877431, 0.0, 0.0, 0.0, 0.0, 0.0, 1.70759538553696E9, 0.0, 2024-02-10 15:03:05.536
74.0, -444.00092273950577, -734.5761896967888, -2093.8652679920197, -258.2625313401222, 0.04800000227987766, 0.0, 1.008000047877431, 0.0, 0.0, 0.0, 0.0, 0.0, 1.707595385550517E9, 0.0, 2024-02-10 15:03:05.550
74.0, -296.55910688638687, -665.1636465191841, -2128.810893177986, -165.39333564043045, 0.04800000227987766, 0.0, 1.008000047877431, 0.0, 0.0, 0.0, 0.0, 0.0, 1.707595385550517E9, 0.0, 2024-02-10 15:03:05.550
75.0, -347.30206948518753, -617.0535734891891, -2068.254433095455, -152.22888779640198, 0.04800000227987766, 0.0, 1.008000047877431, 0.0, 0.0, 0.0, 0.0, 0.0, 1.7075953855662243E9, 0.0, 2024-02-10 15:03:05.566
75.0, -469.13305044174194, -717.5820842981339, -2069.9299082756042, -252.51804500818253, 0.04800000227987766, 0.0, 1.008000047877431, 0.0, 0.0, 0.0, 0.0, 0.0, 1.7075953855662243E9, 0.0, 2024-02-10 15:03:05.566
76.0, -341.55758315324783, -706.8111724257469, -2136.7095618844032, -213.0247014760971, 0.04800000227987766, 0.0, 1.008000047877431, 0.0, 0.0, 0.0, 0.0, 0.0, 1.7075953855669506E9, 0.0, 2024-02-10 15:03:05.566
76.0, -310.9203227162361, -625.9096565842628, -2096.019450366497, -146.72375506162643, 0.04800000227987766, 0.0, 1.008000047877431, 0.0, 0.0, 0.0, 0.0, 0.0, 1.7075953855669506E9, 0.0, 2024-02-10 15:03:05.566
77.0, -463.38856410980225, -694.3647853732109, -2069.9299082756042, -241.7471331357956, 0.04800000227987766, 0.0, 1.008000047877431, 0.0, 0.0, 0.0, 0.0, 0.0, 1.7075953855805168E9, 0.0, 2024-02-10 15:03:05.580
77.0, -412.88495510816574, -744.8683943748474, -2132.1618435382843, -260.8954209089279, 0.04800000227987766, 0.0, 1.008000047877431, 0.0, 0.0, 0.0, 0.0, 0.0, 1.7075953855805168E9, 0.0, 2024-02-10 15:03:05.580
78.0, -304.6971291899681, -654.6320882439613, -2139.1030978560448, -166.1113964319229, 0.04800000227987766, 0.0, 1.008000047877431, 0.0, 0.0, 0.0, 0.0, 0.0, 1.7075953855965075E9, 0.0, 2024-02-10 15:03:05.596
