%OpenBCI Raw EXG Data
%Number of channels = 4
%Sample Rate = 200 Hz
%Board = OpenBCI_GUI$BoardGanglionBLE
Sample Index, EXG Channel 0, EXG Channel 1, EXG Channel 2, EXG Channel 3, Accel Channel 0, Accel Channel 1, Accel Channel 2, Other, Other, Other, Other, Other, Timestamp, Other, Timestamp (Formatted)
0.0, -293.2081565260887, -632.8509109020233, -2072.802151441574, -223.55625975131989, 0.0, 0.0, 1.008000047877431, 0.0, 0.0, 0.0, 0.0, 0.0, 1.7075956067608538E9, 0.0, 2024-02-10 15:06:46.760
0.0, -290.8146205544472, -590.485324203968, -2005.3044370412827, -218.05112701654434, 0.0, 0.0, 1.008000047877431, 0.0, 0.0, 0.0, 0.0, 0.0, 1.7075956067608538E9, 0.0, 2024-02-10 15:06:46.760
1.0, -307.09066516160965, -611.7877943515778, -2006.0224978327751, -234.08781802654266, 0.0, -1.008000047877431, 1.008000047877431, 0.0, 0.0, 0.0, 0.0, 0.0, 1.707595606775364E9, 0.0, 2024-02-10 15:06:46.775
1.0, -289.85720616579056, -636.2018612623215, -2070.887322664261, -235.76329320669174, 0.0, -1.008000047877431, 1.008000047877431, 0.0, 0.0, 0.0, 0.0, 0.0, 1.707595606775364E9, 0.0, 2024-02-10 15:06:46.775
2.0, -281.9585374593735, -603.4104184508324, -2031.8726863265038, -210.63116550445557, -1.008000047877431, -1.008000047877431, 1.008000047877431, 0.0, 0.0, 0.0, 0.0, 0.0, 1.70759560678993E9, 0.0, 2024-02-10 15:06:46.789
2.0, -304.2184219956398, -598.144639313221, -1986.8742100596428, -220.68401658535004, -1.008000047877431, -1.008000047877431, 1.008000047877431, 0.0, 0.0, 0.0, 0.0, 0.0, 1.70759560678993E9, 0.0, 2024-02-10 15:06:46.789
3.0, -289.6178525686264, -628.7818997502327, -2061.3131787776947, -237.67812198400497, -1.008000047877431, -1.008000047877431, 1.008000047877431, 0.0, 0.0, 0.0, 0.0, 0.0, 1.7075956067906656E9, 0.0, 2024-02-10 15:06:46.790
3.0, -277.88952630758286, -614.8993911147118, -2058.680289208889, -217.33306622505188, -1.008000047877431, -1.008000047877431, 1.008000047877431, 0.0, 0.0, 0.0, 0.0, 0.0, 1.7075956067906656E9, 0.0, 2024-02-10 15:06:46.790
4.0, -296.798460483551, -589.7672634124756, -1983.5232596993446, -208.71633672714233, -1.008000047877431, -1.008000047877431, 1.008000047877431, 0.0, 0.0, 0.0, 0.0, 0.0, 1.70759560680432E9, 0.0, 2024-02-10 15:06:46.804
4.0, -303.50036120414734, -629.260606944561, -2029.000443160534, -237.43876838684082, -1.008000047877431, -1.008000047877431, 1.008000047877431, 0.0, 0.0, 0.0, 0.0, 0.0, 1.70759560680432E9, 0.0, 2024-02-10 15:06:46.804
5.0, -283.3946590423584, -626.6277173757553, -2068.254433095455, -224.0349669456482, -1.008000047877431, -1.008000047877431, 1.008000047877431, 0.0, 0.0, 0.0, 0.0, 0.0, 1.7075956068203332E9, 0.0, 2024-02-10 15:06:46.820
5.0, -285.30948781967163, -589.0492026209831, -2006.7405586242676, -210.87051910161972, -1.008000047877431, -1.008000047877431, 1.008000047877431, 0.0, 0.0, 0.0, 0.0, 0.0, 1.7075956068203332E9, 0.0, 2024-02-10 15:06:46.820
6.0, -298.23458206653595, -605.0858936309814, -1998.6025363206863, -223.07755255699158, -1.008000047877431, -1.008000047877431, 1.008000047877431, 0.0, 0.0, 0.0, 0.0, 0.0, 1.70759560682088E9, 0.0, 2024-02-10 15:06:46.820
6.0, -282.4372446537018, -625.1915957927704, -2058.680289208889, -221.8807845711708, -1.008000047877431, -1.008000047877431, 1.008000047877431, 0.0, 0.0, 0.0, 0.0, 0.0, 1.70759560682088E9, 0.0, 2024-02-10 15:06:46.820
7.0, -273.82051515579224, -590.7246778011322, -2023.7346640229225, -199.14219284057617, -1.008000047877431, -1.008000047877431, 1.008000047877431, 0.0, 0.0, 0.0, 0.0, 0.0, 1.7075956068344631E9, 0.0, 2024-02-10 15:06:46.834
7.0, -296.55910688638687, -584.7408378720284, -1982.565845310688, -214.22146946191788, -1.008000047877431, -1.008000047877431, 1.008000047877431, 0.0, 0.0, 0.0, 0.0, 0.0, 1.7075956068344631E9, 0.0, 2024-02-10 15:06:46.834
8.0, -290.33591336011887, -623.7554742097855, -2049.584852516651, -229.54009968042374, -1.008000047877431, -1.008000047877431, 1.008000047877431, 0.0, 0.0, 0.0, 0.0, 0.0, 1.7075956068504045E9, 0.0, 2024-02-10 15:06:46.850
8.0, -275.017283141613, -605.3252472281456, -2047.4306701421738, -212.30664068460464, -1.008000047877431, -1.008000047877431, 1.008000047877431, 0.0, 0.0, 0.0, 0.0, 0.0, 1.7075956068504045E9, 0.0, 2024-02-10 15:06:46.850
9.0, -298.23458206653595, -585.2195450663567, -1988.3103316426277, -213.0247014760971, -1.008000047877431, -1.008000047877431, 1.008000047877431, 0.0, 0.0, 0.0, 0.0, 0.0, 1.7075956068505757E9, 0.0, 2024-02-10 15:06:46.850
9.0, -298.23458206653595, -617.0535734891891, -2018.229531288147, -222.35949176549911, -1.008000047877431, -1.008000047877431, 1.008000047877431, 0.0, 0.0, 0.0, 0.0, 0.0, 1.7075956068505757E9, 0.0, 2024-02-10 15:06:46.850
10.0, -286.26690220832825, -629.7393141388893, -2062.988653957844, -212.30664068460464, -1.008000047877431, -1.008000047877431, 1.008000047877431, 0.0, 0.0, 0.0, 0.0, 0.0, 1.7075956068644893E9, 0.0, 2024-02-10 15:06:46.864
10.0, -293.44751012325287, -588.3311418294907, -2008.6553874015808, -206.8015079498291, -1.008000047877431, -1.008000047877431, 1.008000047877431, 0.0, 0.0, 0.0, 0.0, 0.0, 1.7075956068644893E9, 0.0, 2024-02-10 15:06:46.864
11.0, -308.5267867445946, -618.9684022665024, -2013.2031057476997, -231.69428205490112, -1.008000047877431, -1.008000047877431, 1.008000047877431, 0.0, 0.0, 0.0, 0.0, 0.0, 1.7075956068803937E9, 0.0, 2024-02-10 15:06:46.880
11.0, -288.42108458280563, -634.5263860821724, -2070.1692618727684, -230.01880687475204, -1.008000047877431, -1.008000047877431, 1.008000047877431, 0.0, 0.0, 0.0, 0.0, 0.0, 1.7075956068803937E9, 0.0, 2024-02-10 15:06:46.880
12.0, -285.30948781967163, -605.3252472281456, -2032.8301007151604, -210.63116550445557, -1.008000047877431, -1.008000047877431, 1.008000047877431, 0.0, 0.0, 0.0, 0.0, 0.0, 1.707595606880596E9, 0.0, 2024-02-10 15:06:46.880
12.0, -291.53268134593964, -585.2195450663567, -1989.5070996284485, -218.52983421087265, -1.008000047877431, -1.008000047877431, 1.008000047877431, 0.0, 0.0, 0.0, 0.0, 0.0, 1.707595606880596E9, 0.0, 2024-02-10 15:06:46.880
13.0, -292.7294493317604, -639.5528116226196, -2054.8506316542625, -236.9600611925125, -1.008000047877431, -1.008000047877431, 1.008000047877431, 0.0, 0.0, 0.0, 0.0, 0.0, 1.7075956068945153E9, 0.0, 2024-02-10 15:06:46.894
13.0, -278.36823350191116, -608.9155511856079, -2055.0899852514267, -218.2904806137085, -1.008000047877431, -1.008000047877431, 1.008000047877431, 0.0, 0.0, 0.0, 0.0, 0.0, 1.7075956068945153E9, 0.0, 2024-02-10 15:06:46.894
14.0, -287.22431659698486, -578.2782907485962, -1988.789038836956, -210.63116550445557, -1.008000047877431, -1.008000047877431, 1.008000047877431, 0.0, 0.0, 0.0, 0.0, 0.0, 1.7075956069099932E9, 0.0, 2024-02-10 15:06:46.909
14.0, -295.60169249773026, -615.1387447118759, -2030.9152719378471, -225.71044212579727, -1.008000047877431, -1.008000047877431, 1.008000047877431, 0.0, 0.0, 0.0, 0.0, 0.0, 1.7075956069099932E9, 0.0, 2024-02-10 15:06:46.909
15.0, -276.93211191892624, -628.0638389587402, -2066.578957915306, -219.72660219669342, -1.008000047877431, -1.008000047877431, 1.008000047877431, 0.0, 0.0, 0.0, 0.0, 0.0, 1.7075956069105523E9, 0.0, 2024-02-10 15:06:46.910
15.0, -282.4372446537018, -587.373727440834, -1999.799304306507, -203.2112039923668, -1.008000047877431, -1.008000047877431, 1.008000047877431, 0.0, 0.0, 0.0, 0.0, 0.0, 1.7075956069105523E9, 0.0, 2024-02-10 15:06:46.910
16.0, -298.71328926086426, -610.591026365757, -2000.9960722923279, -222.12013816833496, -1.008000047877431, -1.008000047877431, 1.008000047877431, 0.0, 0.0, 0.0, 0.0, 0.0, 1.7075956069240985E9, 0.0, 2024-02-10 15:06:46.924
16.0, -281.00112307071686, -630.6967285275459, -2060.355764389038, -222.83819895982742, -1.008000047877431, -1.008000047877431, 1.008000047877431, 0.0, 0.0, 0.0, 0.0, 0.0, 1.7075956069240985E9, 0.0, 2024-02-10 15:06:46.924
17.0, -264.7250784635544, -588.809849023819, -2016.793409705162, -193.63706010580063, -1.008000047877431, -1.008000047877431, 1.008000047877431, 0.0, 0.0, 0.0, 0.0, 0.0, 1.707595606939973E9, 0.0, 2024-02-10 15:06:46.939
17.0, -291.0539741516113, -588.5704954266548, -1980.890370130539, -211.34922629594803, -1.008000047877431, -1.008000047877431, 1.008000047877431, 0.0, 0.0, 0.0, 0.0, 0.0, 1.707595606939973E9, 0.0, 2024-02-10 15:06:46.939
18.0, -284.8307806253433, -620.8832310438156, -2040.9681230187416, -224.5136741399765, -1.008000047877431, -1.008000047877431, 1.008000047877431, 0.0, 0.0, 0.0, 0.0, 0.0, 1.7075956069405644E9, 0.0, 2024-02-10 15:06:46.940
18.0, -275.017283141613, -606.7613688111305, -2042.6435981988907, -207.99827593564987, -1.008000047877431, -1.008000047877431, 1.008000047877431, 0.0, 0.0, 0.0, 0.0, 0.0, 1.7075956069405644E9, 0.0, 2024-02-10 15:06:46.940
19.0, -285.0701342225075, -579.2357051372528, -1979.454248547554, -208.9556903243065, -1.008000047877431, -1.008000047877431, 1.008000047877431, 0.0, 0.0, 0.0, 0.0, 0.0, 1.7075956069545045E9, 0.0, 2024-02-10 15:06:46.954
19.0, -287.463670194149, -613.702623128891, -2017.2721168994904, -228.58268529176712, -1.008000047877431, -1.008000047877431, 1.008000047877431, 0.0, 0.0, 0.0, 0.0, 0.0, 1.7075956069545045E9, 0.0, 2024-02-10 15:06:46.954
20.0, -284.352073431015, -626.6277173757553, -2057.00481402874, -221.4020773768425, -1.008000047877431, -1.008000047877431, 0.7520000357180834, 0.0, 0.0, 0.0, 0.0, 0.0, 1.7075956069699695E9, 0.0, 2024-02-10 15:06:46.969
20.0, -283.63401263952255, -581.3898875117302, -1997.6451219320297, -213.0247014760971, -1.008000047877431, -1.008000047877431, 0.7520000357180834, 0.0, 0.0, 0.0, 0.0, 0.0, 1.7075956069699695E9, 0.0, 2024-02-10 15:06:46.969
21.0, -303.02165400981903, -606.0433080196381, -2004.347022652626, -230.01880687475204, -1.008000047877431, -0.7520000357180834, 0.7520000357180834, 0.0, 0.0, 0.0, 0.0, 0.0, 1.7075956069705489E9, 0.0, 2024-02-10 15:06:46.970
21.0, -301.1068252325058, -658.701099395752, -2087.881428062916, -258.74123853445053, -1.008000047877431, -0.7520000357180834, 0.7520000357180834, 0.0, 0.0, 0.0, 0.0, 0.0, 1.7075956069705489E9, 0.0, 2024-02-10 15:06:46.970
22.0, -278.84694069623947, -600.7775288820267, -2036.4204046726227, -226.90721011161804, -0.7520000357180834, -0.7520000357180834, 0.7520000357180834, 0.0, 0.0, 0.0, 0.0, 0.0, 1.7075956069844124E9, 0.0, 2024-02-10 15:06:46.984
22.0, -282.67659825086594, -587.6130810379982, -1994.2941715717316, -233.13040363788605, -0.7520000357180834, -0.7520000357180834, 0.7520000357180834, 0.0, 0.0, 0.0, 0.0, 0.0, 1.7075956069844124E9, 0.0, 2024-02-10 15:06:46.984
23.0, -272.3843935728073, -615.6174519062042, -2051.4996812939644, -245.3374370932579, -0.7520000357180834, -0.7520000357180834, 0.7520000357180834, 0.0, 0.0, 0.0, 0.0, 0.0, 1.707595606999968E9, 0.0, 2024-02-10 15:06:46.999
23.0, -257.7838241457939, -601.7349432706833, -2053.6538636684418, -238.87488996982574, -0.7520000357180834, -0.7520000357180834, 0.7520000357180834, 0.0, 0.0, 0.0, 0.0, 0.0, 1.707595606999968E9, 0.0, 2024-02-10 15:06:46.999
24.0, -258.5018849372864, -574.2092795968056, -1988.3103316426277, -228.34333169460297, -0.7520000357180834, -0.7520000357180834, 0.7520000357180834, 0.0, 0.0, 0.0, 0.0, 0.0, 1.707595607000634E9, 0.0, 2024-02-10 15:06:47.000
24.0, -267.3579680323601, -612.5058551430702, -2020.6230672597885, -244.61937630176544, -0.7520000357180834, -0.7520000357180834, 0.7520000357180834, 0.0, 0.0, 0.0, 0.0, 0.0, 1.707595607000634E9, 0.0, 2024-02-10 15:06:47.000
25.0, -243.18325471878052, -603.6497720479965, -2062.2705931663513, -233.13040363788605, -0.7520000357180834, -0.7520000357180834, 0.7520000357180834, 0.0, 0.0, 0.0, 0.0, 0.0, 1.7075956070141234E9, 0.0, 2024-02-10 15:06:47.014
25.0, -236.0026468038559, -558.6512957811356, -1993.576110780239, -207.99827593564987, -0.7520000357180834, -0.7520000357180834, 0.7520000357180834, 0.0, 0.0, 0.0, 0.0, 0.0, 1.7075956070141234E9, 0.0, 2024-02-10 15:06:47.014
26.0, -262.570896089077, -589.5279098153114, -1986.8742100596428, -229.54009968042374, -0.7520000357180834, -0.7520000357180834, 0.7520000357180834, 0.0, 0.0, 0.0, 0.0, 0.0, 1.707595607029828E9, 0.0, 2024-02-10 15:06:47.029
26.0, -247.25226587057114, -617.7716342806816, -2055.568692445755, -240.55036514997482, -0.7520000357180834, -0.7520000357180834, 0.7520000357180834, 0.0, 0.0, 0.0, 0.0, 0.0, 1.707595607029828E9, 0.0, 2024-02-10 15:06:47.029
27.0, -257.3051169514656, -591.921445786953, -2020.1443600654602, -221.4020773768425, -0.7520000357180834, -0.7520000357180834, 0.7520000357180834, 0.0, 0.0, 0.0, 0.0, 0.0, 1.707595607030542E9, 0.0, 2024-02-10 15:06:47.030
27.0, -266.40055364370346, -576.363461971283, -1988.5496852397919, -231.21557486057281, -0.7520000357180834, -0.7520000357180834, 0.7520000357180834, 0.0, 0.0, 0.0, 0.0, 0.0, 1.707595607030542E9, 0.0, 2024-02-10 15:06:47.030
28.0, -267.59732162952423, -625.9096565842628, -2050.781620502472, -247.25226587057114, -0.7520000357180834, -0.7520000357180834, 0.7520000357180834, 0.0, 0.0, 0.0, 0.0, 0.0, 1.7075956070445387E9, 0.0, 2024-02-10 15:06:47.044
28.0, -257.06576335430145, -605.8039544224739, -2047.670023739338, -226.90721011161804, -0.7520000357180834, -0.7520000357180834, 0.7520000357180834, 0.0, 0.0, 0.0, 0.0, 0.0, 1.7075956070445387E9, 0.0, 2024-02-10 15:06:47.044
29.0, -266.1612000465393, -576.363461971283, -1994.5335251688957, -231.69428205490112, -0.7520000357180834, -0.7520000357180834, 0.7520000357180834, 0.0, 0.0, 0.0, 0.0, 0.0, 1.7075956070602124E9, 0.0, 2024-02-10 15:06:47.060
29.0, -279.3256478905678, -618.0109878778458, -2031.6333327293396, -242.46519392728806, -0.7520000357180834, -0.7520000357180834, 0.7520000357180834, 0.0, 0.0, 0.0, 0.0, 0.0, 1.7075956070602124E9, 0.0, 2024-02-10 15:06:47.060
30.0, -258.74123853445053, -623.9948278069496, -2070.6479690670967, -238.15682917833328, -0.7520000357180834, -0.7520000357180834, 0.8800000417977571, 0.0, 0.0, 0.0, 0.0, 0.0, 1.7075956070608969E9, 0.0, 2024-02-10 15:06:47.060
30.0, -265.2037856578827, -585.9376058578491, -2009.8521553874016, -224.9923813343048, -0.7520000357180834, -0.7520000357180834, 0.8800000417977571, 0.0, 0.0, 0.0, 0.0, 0.0, 1.7075956070608969E9, 0.0, 2024-02-10 15:06:47.060
31.0, -282.67659825086594, -607.7187831997871, -2010.0915089845657, -245.09808349609375, -0.7520000357180834, -0.8800000417977571, 0.8800000417977571, 0.0, 0.0, 0.0, 0.0, 0.0, 1.7075956070743406E9, 0.0, 2024-02-10 15:06:47.074
31.0, -269.2727968096733, -633.8083252906799, -2075.913748204708, -253.47545939683914, -0.7520000357180834, -0.8800000417977571, 0.8800000417977571, 0.0, 0.0, 0.0, 0.0, 0.0, 1.7075956070743406E9, 0.0, 2024-02-10 15:06:47.074
32.0, -264.2463712692261, -598.8627001047134, -2035.223636686802, -232.8910500407219, -0.8800000417977571, -0.8800000417977571, 0.8800000417977571, 0.0, 0.0, 0.0, 0.0, 0.0, 1.707595607089798E9, 0.0, 2024-02-10 15:06:47.089
32.0, -277.6501727104187, -590.0066170096397, -1997.1664147377014, -238.6355363726616, -0.8800000417977571, -0.8800000417977571, 0.8800000417977571, 0.0, 0.0, 0.0, 0.0, 0.0, 1.707595607089798E9, 0.0, 2024-02-10 15:06:47.089
33.0, -281.9585374593735, -635.9625076651573, -2065.8608971238136, -259.459299325943, -0.8800000417977571, -0.8800000417977571, 0.8800000417977571, 0.0, 0.0, 0.0, 0.0, 0.0, 1.707595607090481E9, 0.0, 2024-02-10 15:06:47.090
33.0, -264.2463712692261, -616.3355126976967, -2062.5099467635155, -233.60911083221436, -0.8800000417977571, -0.8800000417977571, 0.8800000417977571, 0.0, 0.0, 0.0, 0.0, 0.0, 1.707595607090481E9, 0.0, 2024-02-10 15:06:47.090
34.0, -277.41081911325455, -590.2459706068039, -2002.910901069641, -231.93363565206528, -0.8800000417977571, -0.8800000417977571, 0.8800000417977571, 0.0, 0.0, 0.0, 0.0, 0.0, 1.7075956071043456E9, 0.0, 2024-02-10 15:06:47.104
34.0, -290.575266957283, -633.0902644991875, -2036.899111866951, -252.03933781385422, -0.8800000417977571, -0.8800000417977571, 0.8800000417977571, 0.0, 0.0, 0.0, 0.0, 0.0, 1.7075956071043456E9, 0.0, 2024-02-10 15:06:47.104
35.0, -266.1612000465393, -632.8509109020233, -2073.998919427395, -240.07165795564651, -0.8800000417977571, -0.8800000417977571, 0.8800000417977571, 0.0, 0.0, 0.0, 0.0, 0.0, 1.7075956071202707E9, 0.0, 2024-02-10 15:06:47.120
35.0, -264.7250784635544, -586.8950202465057, -2019.4262992739677, -231.69428205490112, -0.8800000417977571, -0.8800000417977571, 0.8800000417977571, 0.0, 0.0, 0.0, 0.0, 0.0, 1.7075956071202707E9, 0.0, 2024-02-10 15:06:47.120
36.0, -287.70302379131317, -619.925816655159, -2020.1443600654602, -248.68838745355606, -0.8800000417977571, -0.8800000417977571, 0.8800000417977571, 0.0, 0.0, 0.0, 0.0, 0.0, 1.7075956071207092E9, 0.0, 2024-02-10 15:06:47.120
36.0, -277.88952630758286, -635.0050932765007, -2074.7169802188873, -246.53420507907867, -0.8800000417977571, -0.8800000417977571, 0.8800000417977571, 0.0, 0.0, 0.0, 0.0, 0.0, 1.7075956071207092E9, 0.0, 2024-02-10 15:06:47.120
37.0, -273.1024543642998, -609.1549047827721, -2037.6171726584435, -231.45492845773697, -0.8800000417977571, -0.8800000417977571, 0.8800000417977571, 0.0, 0.0, 0.0, 0.0, 0.0, 1.7075956071343727E9, 0.0, 2024-02-10 15:06:47.134
37.0, -285.0701342225075, -596.708517730236, -1997.1664147377014, -233.60911083221436, -0.8800000417977571, -0.8800000417977571, 0.8800000417977571, 0.0, 0.0, 0.0, 0.0, 0.0, 1.7075956071343727E9, 0.0, 2024-02-10 15:06:47.134
38.0, -288.6604381799698, -635.0050932765007, -2056.5261068344116, -238.6355363726616, -0.8800000417977571, -0.8800000417977571, 0.8800000417977571, 0.0, 0.0, 0.0, 0.0, 0.0, 1.7075956071502256E9, 0.0, 2024-02-10 15:06:47.150
38.0, -275.73534393310547, -624.7128885984421, -2056.2867532372475, -224.75302773714066, -0.8800000417977571, -0.8800000417977571, 0.8800000417977571, 0.0, 0.0, 0.0, 0.0, 0.0, 1.7075956071502256E9, 0.0, 2024-02-10 15:06:47.150
39.0, -282.9159518480301, -597.6659321188927, -1999.559950709343, -226.42850291728973, -0.8800000417977571, -0.8800000417977571, 0.8800000417977571, 0.0, 0.0, 0.0, 0.0, 0.0, 1.7075956071506991E9, 0.0, 2024-02-10 15:06:47.150
39.0, -292.49009573459625, -628.7818997502327, -2042.4042446017265, -252.03933781385422, -0.8800000417977571, -0.8800000417977571, 0.8800000417977571, 0.0, 0.0, 0.0, 0.0, 0.0, 1.7075956071506991E9, 0.0, 2024-02-10 15:06:47.150
40.0, -279.0862942934036, -637.8773364424706, -2069.69055467844, -232.8910500407219, -0.8800000417977571, -0.8800000417977571, 0.944000044837594, 0.0, 0.0, 0.0, 0.0, 0.0, 1.707595607164147E9, 0.0, 2024-02-10 15:06:47.164
40.0, -288.89979177713394, -598.8627001047134, -2022.0591888427734, -228.58268529176712, -0.8800000417977571, -0.8800000417977571, 0.944000044837594, 0.0, 0.0, 0.0, 0.0, 0.0, 1.707595607164147E9, 0.0, 2024-02-10 15:06:47.164
41.0, -309.24484753608704, -628.7818997502327, -2027.8036751747131, -254.1935201883316, -0.8800000417977571, -0.944000044837594, 0.944000044837594, 0.0, 0.0, 0.0, 0.0, 0.0, 1.7075956071798484E9, 0.0, 2024-02-10 15:06:47.179
41.0, -293.2081565260887, -648.6482483148575, -2084.5304777026176, -252.27869141101837, -0.8800000417977571, -0.944000044837594, 0.944000044837594, 0.0, 0.0, 0.0, 0.0, 0.0, 1.7075956071798484E9, 0.0, 2024-02-10 15:06:47.179
42.0, -275.9746975302696, -611.5484407544136, -2049.345498919487, -230.49751406908035, -0.944000044837594, -0.944000044837594, 0.944000044837594, 0.0, 0.0, 0.0, 0.0, 0.0, 1.70759560718054E9, 0.0, 2024-02-10 15:06:47.180
42.0, -302.7823004126549, -606.7613688111305, -2009.8521553874016, -242.2258403301239, -0.944000044837594, -0.944000044837594, 0.944000044837594, 0.0, 0.0, 0.0, 0.0, 0.0, 1.70759560718054E9, 0.0, 2024-02-10 15:06:47.180
43.0, -291.0539741516113, -648.1695411205292, -2065.6215435266495, -251.0819234251976, -0.944000044837594, -0.944000044837594, 0.944000044837594, 0.0, 0.0, 0.0, 0.0, 0.0, 1.7075956071941125E9, 0.0, 2024-02-10 15:06:47.194
43.0, -278.84694069623947, -624.9522421956062, -2061.3131787776947, -231.21557486057281, -0.944000044837594, -0.944000044837594, 0.944000044837594, 0.0, 0.0, 0.0, 0.0, 0.0, 1.7075956071941125E9, 0.0, 2024-02-10 15:06:47.194
44.0, -291.2933277487755, -600.2988216876984, -2006.5012050271034, -230.7368676662445, -0.944000044837594, -0.944000044837594, 0.944000044837594, 0.0, 0.0, 0.0, 0.0, 0.0, 1.707595607209856E9, 0.0, 2024-02-10 15:06:47.209
44.0, -292.01138854026794, -628.3031925559044, -2039.5320014357567, -250.12450903654099, -0.944000044837594, -0.944000044837594, 0.944000044837594, 0.0, 0.0, 0.0, 0.0, 0.0, 1.707595607209856E9, 0.0, 2024-02-10 15:06:47.209
45.0, -278.84694069623947, -635.483800470829, -2078.546637773514, -240.31101155281067, -0.944000044837594, -0.944000044837594, 0.944000044837594, 0.0, 0.0, 0.0, 0.0, 0.0, 1.7075956072105536E9, 0.0, 2024-02-10 15:06:47.210
45.0, -279.8043550848961, -597.4265785217285, -2017.0327633023262, -230.2581604719162, -0.944000044837594, -0.944000044837594, 0.944000044837594, 0.0, 0.0, 0.0, 0.0, 0.0, 1.7075956072105536E9, 0.0, 2024-02-10 15:06:47.210
46.0, -295.3623389005661, -616.814219892025, -2021.5804816484451, -247.4916194677353, -0.944000044837594, -0.944000044837594, 0.944000044837594, 0.0, 0.0, 0.0, 0.0, 0.0, 1.7075956072407193E9, 0.0, 2024-02-10 15:06:47.240
46.0, -286.0275486111641, -638.3560436367989, -2080.461466550827, -250.12450903654099, -0.944000044837594, -0.944000044837594, 0.944000044837594, 0.0, 0.0, 0.0, 0.0, 0.0, 1.7075956072407193E9, 0.0, 2024-02-10 15:06:47.240
47.0, -285.30948781967163, -617.7716342806816, -2039.2926478385925, -225.94979572296143, -0.944000044837594, -0.944000044837594, 0.944000044837594, 0.0, 0.0, 0.0, 0.0, 0.0, 1.7075956072412932E9, 0.0, 2024-02-10 15:06:47.241
47.0, -301.82488602399826, -613.2239159345627, -2009.6128017902374, -243.90131551027298, -0.944000044837594, -0.944000044837594, 0.944000044837594, 0.0, 0.0, 0.0, 0.0, 0.0, 1.7075956072412932E9, 0.0, 2024-02-10 15:06:47.241
48.0, -294.4049245119095, -643.6218227744102, -2071.8447370529175, -253.236105799675, -0.944000044837594, -0.944000044837594, 0.944000044837594, 0.0, 0.0, 0.0, 0.0, 0.0, 1.7075956072419648E9, 0.0, 2024-02-10 15:06:47.241
48.0, -284.8307806253433, -629.0212533473969, -2068.015079498291, -233.13040363788605, -0.944000044837594, -0.944000044837594, 0.944000044837594, 0.0, 0.0, 0.0, 0.0, 0.0, 1.7075956072419648E9, 0.0, 2024-02-10 15:06:47.241
49.0, -294.4049245119095, -601.9742968678474, -2005.0650834441185, -234.08781802654266, -0.944000044837594, -0.944000044837594, 0.944000044837594, 0.0, 0.0, 0.0, 0.0, 0.0, 1.7075956072545931E9, 0.0, 2024-02-10 15:06:47.254
49.0, -288.1817309856415, -624.2341814041138, -2035.7023438811302, -243.18325471878052, -0.944000044837594, -0.944000044837594, 0.944000044837594, 0.0, 0.0, 0.0, 0.0, 0.0, 1.7075956072545931E9, 0.0, 2024-02-10 15:06:47.254
50.0, -284.59142702817917, -639.5528116226196, -2082.3762953281403, -238.87488996982574, -0.944000044837594, -0.944000044837594, 0.9760000463575125, 0.0, 0.0, 0.0, 0.0, 0.0, 1.707595607270312E9, 0.0, 2024-02-10 15:06:47.270
50.0, -284.8307806253433, -594.0756281614304, -2015.8359953165054, -224.0349669456482, -0.944000044837594, -0.944000044837594, 0.9760000463575125, 0.0, 0.0, 0.0, 0.0, 0.0, 1.707595607270312E9, 0.0, 2024-02-10 15:06:47.270
51.0, -293.2081565260887, -612.2665015459061, -2015.3572881221771, -240.78971874713898, -0.944000044837594, -0.9760000463575125, 0.9760000463575125, 0.0, 0.0, 0.0, 0.0, 0.0, 1.7075956072706714E9, 0.0, 2024-02-10 15:06:47.270
51.0, -287.22431659698486, -635.0050932765007, -2073.5202122330666, -241.50777953863144, -0.944000044837594, -0.9760000463575125, 0.9760000463575125, 0.0, 0.0, 0.0, 0.0, 0.0, 1.7075956072706714E9, 0.0, 2024-02-10 15:06:47.270
52.0, -275.9746975302696, -598.6233465075493, -2033.3088079094887, -222.35949176549911, -0.9760000463575125, -0.9760000463575125, 0.9760000463575125, 0.0, 0.0, 0.0, 0.0, 0.0, 1.7075956072841957E9, 0.0, 2024-02-10 15:06:47.284
52.0, -287.9423773884773, -598.144639313221, -1995.4909395575523, -222.35949176549911, -0.9760000463575125, -0.9760000463575125, 0.9760000463575125, 0.0, 0.0, 0.0, 0.0, 0.0, 1.7075956072841957E9, 0.0, 2024-02-10 15:06:47.284
53.0, -286.26690220832825, -634.2870324850082, -2058.919642806053, -241.50777953863144, -0.9760000463575125, -0.9760000463575125, 0.9760000463575125, 0.0, 0.0, 0.0, 0.0, 0.0, 1.7075956072998033E9, 0.0, 2024-02-10 15:06:47.299
53.0, -277.6501727104187, -618.7290486693382, -2055.0899852514267, -219.48724859952927, -0.9760000463575125, -0.9760000463575125, 0.9760000463575125, 0.0, 0.0, 0.0, 0.0, 0.0, 1.7075956072998033E9, 0.0, 2024-02-10 15:06:47.299
54.0, -290.8146205544472, -590.485324203968, -1990.464514017105, -221.4020773768425, -0.9760000463575125, -0.9760000463575125, 0.9760000463575125, 0.0, 0.0, 0.0, 0.0, 0.0, 1.7075956073005335E9, 0.0, 2024-02-10 15:06:47.300
54.0, -286.26690220832825, -614.6600375175476, -2023.2559568285942, -230.49751406908035, -0.9760000463575125, -0.9760000463575125, 0.9760000463575125, 0.0, 0.0, 0.0, 0.0, 0.0, 1.7075956073005335E9, 0.0, 2024-02-10 15:06:47.300
55.0, -279.0862942934036, -629.7393141388893, -2072.0840906500816, -229.30074608325958, -0.9760000463575125, -0.9760000463575125, 0.9760000463575125, 0.0, 0.0, 0.0, 0.0, 0.0, 1.7075956073141425E9, 0.0, 2024-02-10 15:06:47.314
55.0, -277.88952630758286, -588.0917882323265, -2008.4160338044167, -211.82793349027634, -0.9760000463575125, -0.9760000463575125, 0.9760000463575125, 0.0, 0.0, 0.0, 0.0, 0.0, 1.7075956073141425E9, 0.0, 2024-02-10 15:06:47.314
56.0, -293.44751012325287, -604.6071864366531, -2016.3147025108337, -236.24200040102005, -0.9760000463575125, -0.9760000463575125, 0.9760000463575125, 0.0, 0.0, 0.0, 0.0, 0.0, 1.7075956073298197E9, 0.0, 2024-02-10 15:06:47.329
56.0, -286.9849629998207, -636.4412148594856, -2073.7595658302307, -236.4813539981842, -0.9760000463575125, -0.9760000463575125, 0.9760000463575125, 0.0, 0.0, 0.0, 0.0, 0.0, 1.7075956073298197E9, 0.0, 2024-02-10 15:06:47.329
57.0, -282.9159518480301, -604.1284792423248, -2036.6597582697868, -225.23173493146896, -0.9760000463575125, -0.9760000463575125, 0.9760000463575125, 0.0, 0.0, 0.0, 0.0, 0.0, 1.707595607330577E9, 0.0, 2024-02-10 15:06:47.330
57.0, -303.2610076069832, -606.7613688111305, -2001.4747794866562, -231.45492845773697, -0.9760000463575125, -0.9760000463575125, 0.9760000463575125, 0.0, 0.0, 0.0, 0.0, 0.0, 1.707595607330577E9, 0.0, 2024-02-10 15:06:47.330
58.0, -302.0642396211624, -642.6644083857536, -2063.467361152172, -250.6032162308693, -0.9760000463575125, -0.9760000463575125, 0.9760000463575125, 0.0, 0.0, 0.0, 0.0, 0.0, 1.7075956073444953E9, 0.0, 2024-02-10 15:06:47.344
58.0, -286.9849629998207, -621.6012918353081, -2065.142836332321, -234.32717162370682, -0.9760000463575125, -0.9760000463575125, 0.9760000463575125, 0.0, 0.0, 0.0, 0.0, 0.0, 1.7075956073444953E9, 0.0, 2024-02-10 15:06:47.344
59.0, -292.01138854026794, -593.8362745642662, -2009.8521553874016, -231.21557486057281, -0.9760000463575125, -0.9760000463575125, 0.9760000463575125, 0.0, 0.0, 0.0, 0.0, 0.0, 1.7075956073600976E9, 0.0, 2024-02-10 15:06:47.360
59.0, -300.38876444101334, -634.2870324850082, -2042.1648910045624, -251.32127702236176, -0.9760000463575125, -0.9760000463575125, 0.9760000463575125, 0.0, 0.0, 0.0, 0.0, 0.0, 1.7075956073600976E9, 0.0, 2024-02-10 15:06:47.360
60.0, -283.8733662366867, -640.7495796084404, -2081.1795273423195, -236.72070759534836, -0.9760000463575125, -0.9760000463575125, 0.9920000471174717, 0.0, 0.0, 0.0, 0.0, 0.0, 1.7075956073605368E9, 0.0, 2024-02-10 15:06:47.360
60.0, -288.89979177713394, -605.5646008253098, -2019.1869456768036, -224.27432054281235, -0.9760000463575125, -0.9760000463575125, 0.9920000471174717, 0.0, 0.0, 0.0, 0.0, 0.0, 1.7075956073605368E9, 0.0, 2024-02-10 15:06:47.360
61.0, -296.798460483551, -614.1813303232193, -2017.9901776909828, -241.50777953863144, -0.9760000463575125, -0.9920000471174717, 0.9920000471174717, 0.0, 0.0, 0.0, 0.0, 0.0, 1.707595607374154E9, 0.0, 2024-02-10 15:06:47.374
61.0, -287.22431659698486, -643.3824691772461, -2081.658234536648, -245.3374370932579, -0.9760000463575125, -0.9920000471174717, 0.9920000471174717, 0.0, 0.0, 0.0, 0.0, 0.0, 1.707595607374154E9, 0.0, 2024-02-10 15:06:47.374
62.0, -279.3256478905678, -606.7613688111305, -2036.899111866951, -225.23173493146896, -0.9920000471174717, -0.9920000471174717, 0.9920000471174717, 0.0, 0.0, 0.0, 0.0, 0.0, 1.7075956073904014E9, 0.0, 2024-02-10 15:06:47.390
62.0, -293.2081565260887, -597.9052857160568, -2004.347022652626, -237.43876838684082, -0.9920000471174717, -0.9920000471174717, 0.9920000471174717, 0.0, 0.0, 0.0, 0.0, 0.0, 1.7075956073904014E9, 0.0, 2024-02-10 15:06:47.390
63.0, -289.6178525686264, -637.6379828453064, -2060.355764389038, -244.3800227046013, -0.9920000471174717, -0.9920000471174717, 0.9920000471174717, 0.0, 0.0, 0.0, 0.0, 0.0, 1.7075956073911965E9, 0.0, 2024-02-10 15:06:47.391
63.0, -274.77792954444885, -620.4045238494873, -2058.2015820145607, -225.23173493146896, -0.9920000471174717, -0.9920000471174717, 0.9920000471174717, 0.0, 0.0, 0.0, 0.0, 0.0, 1.7075956073911965E9, 0.0, 2024-02-10 15:06:47.391
64.0, -289.1391453742981, -594.3149817585945, -2002.4321938753128, -223.07755255699158, -0.9920000471174717, -0.9920000471174717, 0.9920000471174717, 0.0, 0.0, 0.0, 0.0, 0.0, 1.7075956074046388E9, 0.0, 2024-02-10 15:06:47.404
64.0, -297.27716767787933, -628.3031925559044, -2031.1546255350113, -236.4813539981842, -0.9920000471174717, -0.9920000471174717, 0.9920000471174717, 0.0, 0.0, 0.0, 0.0, 0.0, 1.7075956074046388E9, 0.0, 2024-02-10 15:06:47.404
65.0, -286.5062558054924, -634.2870324850082, -2074.7169802188873, -233.8484644293785, -0.9920000471174717, -0.9920000471174717, 0.9920000471174717, 0.0, 0.0, 0.0, 0.0, 0.0, 1.7075956074202504E9, 0.0, 2024-02-10 15:06:47.420
65.0, -287.463670194149, -596.4691641330719, -2010.33086258173, -218.2904806137085, -0.9920000471174717, -0.9920000471174717, 0.9920000471174717, 0.0, 0.0, 0.0, 0.0, 0.0, 1.7075956074202504E9, 0.0, 2024-02-10 15:06:47.420
66.0, -294.16557091474533, -607.9581367969513, -2011.2882769703865, -235.28458601236343, -0.9920000471174717, -0.9920000471174717, 0.9920000471174717, 0.0, 0.0, 0.0, 0.0, 0.0, 1.7075956074207573E9, 0.0, 2024-02-10 15:06:47.420
66.0, -289.1391453742981, -635.7231540679932, -2075.43504101038, -239.1142435669899, -0.9920000471174717, -0.9920000471174717, 0.9920000471174717, 0.0, 0.0, 0.0, 0.0, 0.0, 1.7075956074207573E9, 0.0, 2024-02-10 15:06:47.420
67.0, -277.1714655160904, -602.4530040621758, -2035.462990283966, -214.70017665624619, -0.9920000471174717, -0.9920000471174717, 0.9920000471174717, 0.0, 0.0, 0.0, 0.0, 0.0, 1.707595607434415E9, 0.0, 2024-02-10 15:06:47.434
67.0, -289.37849897146225, -598.3839929103851, -1998.6025363206863, -224.9923813343048, -0.9920000471174717, -0.9920000471174717, 0.9920000471174717, 0.0, 0.0, 0.0, 0.0, 0.0, 1.707595607434415E9, 0.0, 2024-02-10 15:06:47.434
68.0, -295.12298530340195, -639.7921652197838, -2061.791885972023, -242.46519392728806, -0.9920000471174717, -0.9920000471174717, 0.9920000471174717, 0.0, 0.0, 0.0, 0.0, 0.0, 1.7075956074500914E9, 0.0, 2024-02-10 15:06:47.450
68.0, -282.9159518480301, -626.6277173757553, -2063.467361152172, -228.82203888893127, -0.9920000471174717, -0.9920000471174717, 0.9920000471174717, 0.0, 0.0, 0.0, 0.0, 0.0, 1.7075956074500914E9, 0.0, 2024-02-10 15:06:47.450
69.0, -285.78819501399994, -594.5543353557587, -1997.4057683348656, -218.52983421087265, -0.9920000471174717, -0.9920000471174717, 0.9920000471174717, 0.0, 0.0, 0.0, 0.0, 0.0, 1.7075956074506493E9, 0.0, 2024-02-10 15:06:47.450
69.0, -297.27716767787933, -628.7818997502327, -2039.7713550329208, -240.78971874713898, -0.9920000471174717, -0.9920000471174717, 0.9920000471174717, 0.0, 0.0, 0.0, 0.0, 0.0, 1.7075956074506493E9, 0.0, 2024-02-10 15:06:47.450
70.0, -284.8307806253433, -636.4412148594856, -2082.3762953281403, -236.4813539981842, -0.9920000471174717, -0.9920000471174717, 0.9920000471174717, 0.0, 0.0, 0.0, 0.0, 0.0, 1.7075956074641795E9, 0.0, 2024-02-10 15:06:47.464
70.0, -289.37849897146225, -596.9478713274002, -2018.229531288147, -221.64143097400665, -0.9920000471174717, -0.9920000471174717, 0.9920000471174717, 0.0, 0.0, 0.0, 0.0, 0.0, 1.7075956074641795E9, 0.0, 2024-02-10 15:06:47.464
71.0, -310.20226192474365, -619.2077558636665, -2021.8198352456093, -246.05549788475037, -0.9920000471174717, -0.9920000471174717, 0.9920000471174717, 0.0, 0.0, 0.0, 0.0, 0.0, 1.707595607479939E9, 0.0, 2024-02-10 15:06:47.479
71.0, -293.686863720417, -645.7760051488876, -2073.5202122330666, -240.78971874713898, -0.9920000471174717, -0.9920000471174717, 0.9920000471174717, 0.0, 0.0, 0.0, 0.0, 0.0, 1.707595607479939E9, 0.0, 2024-02-10 15:06:47.479
72.0, -283.15530544519424, -602.9317112565041, -2043.122305393219, -224.75302773714066, -0.9920000471174717, -0.9920000471174717, 0.9920000471174717, 0.0, 0.0, 0.0, 0.0, 0.0, 1.7075956074805837E9, 0.0, 2024-02-10 15:06:47.480
72.0, -298.4739356637001, -601.4955896735191, -2001.7141330838203, -234.56652522087097, -0.9920000471174717, -0.9920000471174717, 0.9920000471174717, 0.0, 0.0, 0.0, 0.0, 0.0, 1.7075956074805837E9, 0.0, 2024-02-10 15:06:47.480
73.0, -299.4313500523567, -641.4676403999329, -2057.9622284173965, -244.8587298989296, -0.9920000471174717, -0.9920000471174717, 0.9920000471174717, 0.0, 0.0, 0.0, 0.0, 0.0, 1.7075956074941795E9, 0.0, 2024-02-10 15:06:47.494
73.0, -285.78819501399994, -617.7716342806816, -2057.4835212230682, -224.27432054281235, -0.9920000471174717, -0.9920000471174717, 0.9920000471174717, 0.0, 0.0, 0.0, 0.0, 0.0, 1.7075956074941795E9, 0.0, 2024-02-10 15:06:47.494
74.0, -309.0054939389229, -603.4104184508324, -1993.576110780239, -222.83819895982742, -0.9920000471174717, -0.9920000471174717, 0.9920000471174717, 0.0, 0.0, 0.0, 0.0, 0.0, 1.707595607509854E9, 0.0, 2024-02-10 15:06:47.509
74.0, -308.7661403417587, -631.1754357218742, -2036.1810510754585, -241.50777953863144, -0.9920000471174717, -0.9920000471174717, 0.9920000471174717, 0.0, 0.0, 0.0, 0.0, 0.0, 1.707595607509854E9, 0.0, 2024-02-10 15:06:47.509
75.0, -289.37849897146225, -634.0476788878441, -2070.4086154699326, -224.27432054281235, -0.9920000471174717, -0.9920000471174717, 0.9920000471174717, 0.0, 0.0, 0.0, 0.0, 0.0, 1.7075956075105448E9, 0.0, 2024-02-10 15:06:47.510
75.0, -289.37849897146225, -597.6659321188927, -2015.3572881221771, -220.9233701825142, -0.9920000471174717, -0.9920000471174717, 0.9920000471174717, 0.0, 0.0, 0.0, 0.0, 0.0, 1.7075956075105448E9, 0.0, 2024-02-10 15:06:47.510
76.0, -297.5165212750435, -608.4368439912796, -2009.1340945959091, -234.08781802654266, -0.9920000471174717, -0.9920000471174717, 0.9920000471174717, 0.0, 0.0, 0.0, 0.0, 0.0, 1.7075956075241542E9, 0.0, 2024-02-10 15:06:47.524
76.0, -297.9952284693718, -642.4250547885895, -2076.1531018018723, -243.66196191310883, -0.9920000471174717, -0.9920000471174717, 0.9920000471174717, 0.0, 0.0, 0.0, 0.0, 0.0, 1.7075956075241542E9, 0.0, 2024-02-10 15:06:47.524
77.0, -294.4049245119095, -612.2665015459061, -2042.6435981988907, -221.4020773768425, -0.9920000471174717, -0.9920000471174717, 0.9920000471174717, 0.0, 0.0, 0.0, 0.0, 0.0, 1.7075956075398428E9, 0.0, 2024-02-10 15:06:47.539
77.0, -311.6383835077286, -611.3090871572495, -2004.347022652626, -237.67812198400497, -0.9920000471174717, -0.9920000471174717, 0.9920000471174717, 0.0, 0.0, 0.0, 0.0, 0.0, 1.7075956075398428E9, 0.0, 2024-02-10 15:06:47.539
78.0, -303.50036120414734, -650.0843698978424, -2062.031239569187, -244.61937630176544, -0.9920000471174717, -0.9920000471174717, 0.9920000471174717, 0.0, 0.0, 0.0, 0.0, 0.0, 1.7075956075405505E9, 0.0, 2024-02-10 15:06:47.540
78.0, -290.8146205544472, -631.1754357218742, -2063.9460683465004, -229.30074608325958, -0.9920000471174717, -0.9920000471174717, 0.9920000471174717, 0.0, 0.0, 0.0, 0.0, 0.0, 1.7075956075405505E9, 0.0, 2024-02-10 15:06:47.540
79.0, -295.12298530340195, -598.3839929103851, -2006.5012050271034, -227.6252709031105, -0.9920000471174717, -0.9920000471174717, 0.9920000471174717, 0.0, 0.0, 0.0, 0.0, 0.0, 1.7075956075545151E9, 0.0, 2024-02-10 15:06:47.554
79.0, -306.13325077295303, -635.483800470829, -2041.9255374073982, -245.3374370932579, -0.9920000471174717, -0.9920000471174717, 0.9920000471174717, 0.0, 0.0, 0.0, 0.0, 0.0, 1.7075956075545151E9, 0.0, 2024-02-10 15:06:47.554
80.0, -289.6178525686264, -642.4250547885895, -2087.1633672714233, -241.7471331357956, -0.9920000471174717, -0.9920000471174717, 1.008000047877431, 0.0, 0.0, 0.0, 0.0, 0.0, 1.7075956075699265E9, 0.0, 2024-02-10 15:06:47.569
80.0, -292.96880292892456, -603.4104184508324, -2018.9475920796394, -225.23173493146896, -0.9920000471174717, -0.9920000471174717, 1.008000047877431, 0.0, 0.0, 0.0, 0.0, 0.0, 1.7075956075699265E9, 0.0, 2024-02-10 15:06:47.569
81.0, -310.68096911907196, -619.6864630579948, -2015.3572881221771, -239.1142435669899, -0.9920000471174717, -1.008000047877431, 1.008000047877431, 0.0, 0.0, 0.0, 0.0, 0.0, 1.7075956075705855E9, 0.0, 2024-02-10 15:06:47.570
81.0, -289.85720616579056, -646.7334195375443, -2080.461466550827, -242.7045475244522, -0.9920000471174717, -1.008000047877431, 1.008000047877431, 0.0, 0.0, 0.0, 0.0, 0.0, 1.7075956075705855E9, 0.0, 2024-02-10 15:06:47.570
82.0, -287.22431659698486, -607.479429602623, -2042.4042446017265, -225.47108852863312, -1.008000047877431, -1.008000047877431, 1.008000047877431, 0.0, 0.0, 0.0, 0.0, 0.0, 1.7075956075841513E9, 0.0, 2024-02-10 15:06:47.584
82.0, -298.4739356637001, -607.0007224082947, -1998.6025363206863, -228.82203888893127, -1.008000047877431, -1.008000047877431, 1.008000047877431, 0.0, 0.0, 0.0, 0.0, 0.0, 1.7075956075841513E9, 0.0, 2024-02-10 15:06:47.584
83.0, -304.6971291899681, -636.9199220538139, -2067.775725901127, -249.88515543937683, -1.008000047877431, -1.008000047877431, 1.008000047877431, 0.0, 0.0, 0.0, 0.0, 0.0, 1.7075956075998023E9, 0.0, 2024-02-10 15:06:47.599
83.0, -284.11271983385086, -615.8568055033684, -2056.0473996400833, -225.23173493146896, -1.008000047877431, -1.008000047877431, 1.008000047877431, 0.0, 0.0, 0.0, 0.0, 0.0, 1.7075956075998023E9, 0.0, 2024-02-10 15:06:47.599
84.0, -292.2507421374321, -593.596920967102, -1999.3205971121788, -225.94979572296143, -1.008000047877431, -1.008000047877431, 1.008000047877431, 0.0, 0.0, 0.0, 0.0, 0.0, 1.70759560760057E9, 0.0, 2024-02-10 15:06:47.600
84.0, -303.50036120414734, -633.8083252906799, -2035.7023438811302, -242.2258403301239, -1.008000047877431, -1.008000047877431, 1.008000047877431, 0.0, 0.0, 0.0, 0.0, 0.0, 1.70759560760057E9, 0.0, 2024-02-10 15:06:47.600
85.0, -282.1978910565376, -628.3031925559044, -2078.546637773514, -237.91747558116913, -1.008000047877431, -1.008000047877431, 1.008000047877431, 0.0, 0.0, 0.0, 0.0, 0.0, 1.7075956076141047E9, 0.0, 2024-02-10 15:06:47.614
85.0, -285.30948781967163, -599.1020537018776, -2010.33086258173, -215.1788838505745, -1.008000047877431, -1.008000047877431, 1.008000047877431, 0.0, 0.0, 0.0, 0.0, 0.0, 1.7075956076141047E9, 0.0, 2024-02-10 15:06:47.614
86.0, -296.08039969205856, -607.0007224082947, -2009.3734481930733, -231.45492845773697, -1.008000047877431, -1.008000047877431, 1.008000047877431, 0.0, 0.0, 0.0, 0.0, 0.0, 1.7075956076297603E9, 0.0, 2024-02-10 15:06:47.629
86.0, -282.9159518480301, -639.0741044282913, -2065.8608971238136, -233.8484644293785, -1.008000047877431, -1.008000047877431, 1.008000047877431, 0.0, 0.0, 0.0, 0.0, 0.0, 1.7075956076297603E9, 0.0, 2024-02-10 15:06:47.629
87.0, -285.5488414168358, -605.0858936309814, -2029.7185039520264, -217.8117734193802, -1.008000047877431, -1.008000047877431, 1.008000047877431, 0.0, 0.0, 0.0, 0.0, 0.0, 1.7075956076304758E9, 0.0, 2024-02-10 15:06:47.630
87.0, -296.55910688638687, -593.8362745642662, -1992.1399891972542, -224.75302773714066, -1.008000047877431, -1.008000047877431, 1.008000047877431, 0.0, 0.0, 0.0, 0.0, 0.0, 1.7075956076304758E9, 0.0, 2024-02-10 15:06:47.630
88.0, -296.08039969205856, -639.0741044282913, -2056.2867532372475, -239.83230435848236, -1.008000047877431, -1.008000047877431, 1.008000047877431, 0.0, 0.0, 0.0, 0.0, 0.0, 1.707595607644405E9, 0.0, 2024-02-10 15:06:47.644
88.0, -281.00112307071686, -617.2929270863533, -2054.13257086277, -224.0349669456482, -1.008000047877431, -1.008000047877431, 1.008000047877431, 0.0, 0.0, 0.0, 0.0, 0.0, 1.707595607644405E9, 0.0, 2024-02-10 15:06:47.644
89.0, -292.7294493317604, -586.8950202465057, -1988.0709780454636, -215.6575910449028, -1.008000047877431, -1.008000047877431, 1.008000047877431, 0.0, 0.0, 0.0, 0.0, 0.0, 1.7075956076602516E9, 0.0, 2024-02-10 15:06:47.660
89.0, -292.49009573459625, -614.6600375175476, -2033.3088079094887, -244.3800227046013, -1.008000047877431, -1.008000047877431, 1.008000047877431, 0.0, 0.0, 0.0, 0.0, 0.0, 1.7075956076602516E9, 0.0, 2024-02-10 15:06:47.660
90.0, -281.47983026504517, -634.7657396793365, -2072.0840906500816, -236.0026468038559, -1.008000047877431, -1.008000047877431, 1.008000047877431, 0.0, 0.0, 0.0, 0.0, 0.0, 1.7075956076606553E9, 0.0, 2024-02-10 15:06:47.660
90.0, -284.352073431015, -590.7246778011322, -2012.4850449562073, -220.44466298818588, -1.008000047877431, -1.008000047877431, 1.008000047877431, 0.0, 0.0, 0.0, 0.0, 0.0, 1.7075956076606553E9, 0.0, 2024-02-10 15:06:47.660
91.0, -294.8836317062378, -609.3942583799362, -2014.1605201363564, -239.83230435848236, -1.008000047877431, -1.008000047877431, 1.008000047877431, 0.0, 0.0, 0.0, 0.0, 0.0, 1.7075956076905744E9, 0.0, 2024-02-10 15:06:47.690
91.0, -279.0862942934036, -628.3031925559044, -2067.5363723039627, -234.08781802654266, -1.008000047877431, -1.008000047877431, 1.008000047877431, 0.0, 0.0, 0.0, 0.0, 0.0, 1.7075956076905744E9, 0.0, 2024-02-10 15:06:47.690
92.0, -272.8631007671356, -601.9742968678474, -2029.239796757698, -209.67375111579895, -1.008000047877431, -1.008000047877431, 1.008000047877431, 0.0, 0.0, 0.0, 0.0, 0.0, 1.7075956076914823E9, 0.0, 2024-02-10 15:06:47.691
92.0, -292.96880292892456, -591.6820921897888, -1988.0709780454636, -220.44466298818588, -1.008000047877431, -1.008000047877431, 1.008000047877431, 0.0, 0.0, 0.0, 0.0, 0.0, 1.7075956076914823E9, 0.0, 2024-02-10 15:06:47.691
93.0, -285.30948781967163, -622.5587062239647, -2055.808046042919, -238.39618277549744, -1.008000047877431, -1.008000047877431, 1.008000047877431, 0.0, 0.0, 0.0, 0.0, 0.0, 1.7075956076922004E9, 0.0, 2024-02-10 15:06:47.692
93.0, -270.70891839265823, -608.1974903941154, -2058.2015820145607, -231.93363565206528, -1.008000047877431, -1.008000047877431, 1.008000047877431, 0.0, 0.0, 0.0, 0.0, 0.0, 1.7075956076922004E9, 0.0, 2024-02-10 15:06:47.692
94.0, -284.8307806253433, -585.4588986635208, -1995.7302931547165, -225.23173493146896, -1.008000047877431, -1.008000047877431, 1.008000047877431, 0.0, 0.0, 0.0, 0.0, 0.0, 1.7075956077043865E9, 0.0, 2024-02-10 15:06:47.704
94.0, -292.01138854026794, -618.4896950721741, -2035.9416974782944, -244.14066910743713, -1.008000047877431, -1.008000047877431, 1.008000047877431, 0.0, 0.0, 0.0, 0.0, 0.0, 1.7075956077043865E9, 0.0, 2024-02-10 15:06:47.704
95.0, -281.7191838622093, -628.7818997502327, -2070.887322664261, -235.5239396095276, -1.008000047877431, -1.008000047877431, 1.008000047877431, 0.0, 0.0, 0.0, 0.0, 0.0, 1.7075956077198436E9, 0.0, 2024-02-10 15:06:47.719
95.0, -286.5062558054924, -593.3575673699379, -2007.2192658185959, -220.44466298818588, -1.008000047877431, -1.008000047877431, 1.008000047877431, 0.0, 0.0, 0.0, 0.0, 0.0, 1.7075956077198436E9, 0.0, 2024-02-10 15:06:47.719
96.0, -297.5165212750435, -607.0007224082947, -2008.1766802072525, -236.4813539981842, -1.008000047877431, -1.008000047877431, 1.008000047877431, 0.0, 0.0, 0.0, 0.0, 0.0, 1.7075956077205553E9, 0.0, 2024-02-10 15:06:47.720
96.0, -279.8043550848961, -636.2018612623215, -2072.323444247246, -237.43876838684082, -1.008000047877431, -1.008000047877431, 1.008000047877431, 0.0, 0.0, 0.0, 0.0, 0.0, 1.7075956077205553E9, 0.0, 2024-02-10 15:06:47.720
97.0, -277.1714655160904, -598.8627001047134, -2035.9416974782944, -219.48724859952927, -1.008000047877431, -1.008000047877431, 1.008000047877431, 0.0, 0.0, 0.0, 0.0, 0.0, 1.7075956077341552E9, 0.0, 2024-02-10 15:06:47.734
97.0, -292.96880292892456, -589.2885562181473, -1992.8580499887466, -226.18914932012558, -1.008000047877431, -1.008000047877431, 1.008000047877431, 0.0, 0.0, 0.0, 0.0, 0.0, 1.7075956077341552E9, 0.0, 2024-02-10 15:06:47.734
98.0, -286.5062558054924, -625.9096565842628, -2058.440935611725, -243.18325471878052, -1.008000047877431, -1.008000047877431, 1.008000047877431, 0.0, 0.0, 0.0, 0.0, 0.0, 1.707595607749118E9, 0.0, 2024-02-10 15:06:47.749
98.0, -277.1714655160904, -613.4632695317268, -2054.3719244599342, -224.75302773714066, -1.008000047877431, -1.008000047877431, 1.008000047877431, 0.0, 0.0, 0.0, 0.0, 0.0, 1.707595607749118E9, 0.0, 2024-02-10 15:06:47.749
0.0, -288.89979177713394, -620.8832310438156, -2031.3939791321754, -234.80587881803513, -1.008000047877431, -1.008000047877431, 1.008000047877431, 0.0, 0.0, 0.0, 0.0, 0.0, 1.7075956077651613E9, 0.0, 2024-02-10 15:06:47.765
0.0, -274.0598687529564, -632.1328501105309, -2070.4086154699326, -234.56652522087097, -1.008000047877431, -1.008000047877431, 1.008000047877431, 0.0, 0.0, 0.0, 0.0, 0.0, 1.7075956077651613E9, 0.0, 2024-02-10 15:06:47.765
1.0, -282.1978910565376, -588.3311418294907, -2009.6128017902374, -217.09371262788773, -1.008000047877431, 0.0, 1.008000047877431, 0.0, 0.0, 0.0, 0.0, 0.0, 1.7075956077656524E9, 0.0, 2024-02-10 15:06:47.765
1.0, -291.53268134593964, -603.1710648536682, -2004.5863762497902, -228.34333169460297, -1.008000047877431, 0.0, 1.008000047877431, 0.0, 0.0, 0.0, 0.0, 0.0, 1.7075956077656524E9, 0.0, 2024-02-10 15:06:47.765
2.0, -283.15530544519424, -635.483800470829, -2072.323444247246, -230.2581604719162, 0.06400000303983688, 0.0, 1.008000047877431, 0.0, 0.0, 0.0, 0.0, 0.0, 1.707595607779519E9, 0.0, 2024-02-10 15:06:47.779
2.0, -274.5385759472847, -600.0594680905342, -2033.5481615066528, -219.2478950023651, 0.06400000303983688, 0.0, 1.008000047877431, 0.0, 0.0, 0.0, 0.0, 0.0, 1.707595607779519E9, 0.0, 2024-02-10 15:06:47.779
3.0, -286.26690220832825, -593.596920967102, -1987.8316244482994, -222.12013816833496, 0.06400000303983688, 0.0, 1.008000047877431, 0.0, 0.0, 0.0, 0.0, 0.0, 1.707595607795189E9, 0.0, 2024-02-10 15:06:47.795
3.0, -276.6927583217621, -619.6864630579948, -2044.3190733790398, -229.54009968042374, 0.06400000303983688, 0.0, 1.008000047877431, 0.0, 0.0, 0.0, 0.0, 0.0, 1.707595607795189E9, 0.0, 2024-02-10 15:06:47.795
4.0, -268.07602882385254, -607.7187831997871, -2048.3880845308304, -213.0247014760971, 0.06400000303983688, 0.0, 1.008000047877431, 0.0, 0.0, 0.0, 0.0, 0.0, 1.707595607795699E9, 0.0, 2024-02-10 15:06:47.795
4.0, -286.0275486111641, -589.0492026209831, -1988.3103316426277, -217.33306622505188, 0.06400000303983688, 0.0, 1.008000047877431, 0.0, 0.0, 0.0, 0.0, 0.0, 1.707595607795699E9, 0.0, 2024-02-10 15:06:47.795
5.0, -294.64427810907364, -620.1651702523232, -2019.905006468296, -233.3697572350502, 0.06400000303983688, 0.0, 1.008000047877431, 0.0, 0.0, 0.0, 0.0, 0.0, 1.7075956078257551E9, 0.0, 2024-02-10 15:06:47.825
5.0, -269.99085760116577, -622.3193526268005, -2061.0738251805305, -220.20530939102173, 0.06400000303983688, 0.0, 1.008000047877431, 0.0, 0.0, 0.0, 0.0, 0.0, 1.7075956078257551E9, 0.0, 2024-02-10 15:06:47.825
6.0, -275.4959903359413, -584.0227770805359, -1998.6025363206863, -207.99827593564987, 0.06400000303983688, 0.0, 1.008000047877431, 0.0, 0.0, 0.0, 0.0, 0.0, 1.707595607826445E9, 0.0, 2024-02-10 15:06:47.826
6.0, -293.9262173175812, -613.4632695317268, -2000.9960722923279, -222.83819895982742, 0.06400000303983688, 0.0, 1.008000047877431, 0.0, 0.0, 0.0, 0.0, 0.0, 1.707595607826445E9, 0.0, 2024-02-10 15:06:47.826
7.0, -286.26690220832825, -635.2444468736649, -2065.3821899294853, -233.8484644293785, 0.06400000303983688, 0.0, 1.008000047877431, 0.0, 0.0, 0.0, 0.0, 0.0, 1.7075956078270786E9, 0.0, 2024-02-10 15:06:47.827
7.0, -275.9746975302696, -595.9904569387436, -2029.4791503548622, -211.82793349027634, 0.06400000303983688, 0.0, 1.008000047877431, 0.0, 0.0, 0.0, 0.0, 0.0, 1.7075956078270786E9, 0.0, 2024-02-10 15:06:47.827
8.0, -292.2507421374321, -597.6659321188927, -1988.3103316426277, -221.8807845711708, 0.06400000303983688, 0.0, 1.008000047877431, 0.0, 0.0, 0.0, 0.0, 0.0, 1.707595607839142E9, 0.0, 2024-02-10 15:06:47.839
8.0, -289.6178525686264, -634.2870324850082, -2053.4145100712776, -239.1142435669899, 0.06400000303983688, 0.0, 1.008000047877431, 0.0, 0.0, 0.0, 0.0, 0.0, 1.707595607839142E9, 0.0, 2024-02-10 15:06:47.839
9.0, -278.84694069623947, -615.6174519062042, -2053.6538636684418, -223.55625975131989, 0.06400000303983688, 0.0, 1.008000047877431, 0.0, 0.0, 0.0, 0.0, 0.0, 1.707595607855056E9, 0.0, 2024-02-10 15:06:47.855
9.0, -282.1978910565376, -588.0917882323265, -1994.5335251688957, -224.0349669456482, 0.06400000303983688, 0.0, 1.008000047877431, 0.0, 0.0, 0.0, 0.0, 0.0, 1.707595607855056E9, 0.0, 2024-02-10 15:06:47.855
10.0, -301.82488602399826, -632.1328501105309, -2028.2823823690414, -237.43876838684082, 0.06400000303983688, 0.0, 1.008000047877431, 0.0, 0.0, 0.0, 0.0, 0.0, 1.7075956078562815E9, 0.0, 2024-02-10 15:06:47.856
10.0, -283.8733662366867, -629.7393141388893, -2068.254433095455, -222.83819895982742, 0.06400000303983688, 0.0, 1.008000047877431, 0.0, 0.0, 0.0, 0.0, 0.0, 1.7075956078562815E9, 0.0, 2024-02-10 15:06:47.856
11.0, -279.0862942934036, -586.1769594550133, -2002.910901069641, -211.34922629594803, 0.06400000303983688, 0.0, 1.008000047877431, 0.0, 0.0, 0.0, 0.0, 0.0, 1.707595607869475E9, 0.0, 2024-02-10 15:06:47.869
11.0, -294.16557091474533, -607.0007224082947, -2003.8683154582977, -230.01880687475204, 0.06400000303983688, 0.0, 1.008000047877431, 0.0, 0.0, 0.0, 0.0, 0.0, 1.707595607869475E9, 0.0, 2024-02-10 15:06:47.869
12.0, -290.8146205544472, -641.9463475942612, -2075.913748204708, -239.1142435669899, 0.06400000303983688, 0.0, 1.008000047877431, 0.0, 0.0, 0.0, 0.0, 0.0, 1.7075956078851116E9, 0.0, 2024-02-10 15:06:47.885
12.0, -277.6501727104187, -604.1284792423248, -2035.7023438811302, -220.44466298818588, 0.06400000303983688, 0.0, 1.008000047877431, 0.0, 0.0, 0.0, 0.0, 0.0, 1.7075956078851116E9, 0.0, 2024-02-10 15:06:47.885
13.0, -297.0378140807152, -600.5381752848625, -2003.3896082639694, -234.56652522087097, 0.06400000303983688, 0.0, 1.008000047877431, 0.0, 0.0, 0.0, 0.0, 0.0, 1.707595607885692E9, 0.0, 2024-02-10 15:06:47.885
13.0, -296.3197532892227, -641.706993997097, -2062.988653957844, -246.77355867624283, 0.06400000303983688, 0.0, 1.008000047877431, 0.0, 0.0, 0.0, 0.0, 0.0, 1.707595607885692E9, 0.0, 2024-02-10 15:06:47.885
14.0, -280.52241587638855, -619.6864630579948, -2049.106145322323, -218.2904806137085, 0.06400000303983688, 0.0, 1.008000047877431, 0.0, 0.0, 0.0, 0.0, 0.0, 1.7075956078991194E9, 0.0, 2024-02-10 15:06:47.899
14.0, -287.70302379131317, -581.8685947060585, -1978.4968341588974, -207.04086154699326, 0.06400000303983688, 0.0, 1.008000047877431, 0.0, 0.0, 0.0, 0.0, 0.0, 1.7075956078991194E9, 0.0, 2024-02-10 15:06:47.899
15.0, -292.01138854026794, -623.5161206126213, -2023.2559568285942, -232.8910500407219, 0.06400000303983688, 0.0, 1.008000047877431, 0.0, 0.0, 0.0, 0.0, 0.0, 1.7075956079148252E9, 0.0, 2024-02-10 15:06:47.914
15.0, -277.6501727104187, -626.6277173757553, -2060.8344715833664, -218.05112701654434, 0.06400000303983688, 0.0, 1.008000047877431, 0.0, 0.0, 0.0, 0.0, 0.0, 1.7075956079148252E9, 0.0, 2024-02-10 15:06:47.914
16.0, -281.00112307071686, -590.0066170096397, -2002.910901069641, -208.9556903243065, 0.06400000303983688, 0.0, 1.008000047877431, 0.0, 0.0, 0.0, 0.0, 0.0, 1.7075956079155183E9, 0.0, 2024-02-10 15:06:47.915
16.0, -293.686863720417, -611.0697335600853, -2002.671547472477, -229.30074608325958, 0.06400000303983688, 0.0, 1.008000047877431, 0.0, 0.0, 0.0, 0.0, 0.0, 1.7075956079155183E9, 0.0, 2024-02-10 15:06:47.915
17.0, -288.1817309856415, -638.8347508311272, -2067.0576651096344, -228.82203888893127, 0.06400000303983688, 0.0, 1.008000047877431, 0.0, 0.0, 0.0, 0.0, 0.0, 1.707595607929198E9, 0.0, 2024-02-10 15:06:47.929
17.0, -274.77792954444885, -598.3839929103851, -2022.0591888427734, -201.5357288122177, 0.06400000303983688, 0.0, 1.008000047877431, 0.0, 0.0, 0.0, 0.0, 0.0, 1.707595607929198E9, 0.0, 2024-02-10 15:06:47.929
18.0, -292.96880292892456, -590.0066170096397, -1988.789038836956, -216.85435903072357, 0.06400000303983688, 0.0, 1.008000047877431, 0.0, 0.0, 0.0, 0.0, 0.0, 1.7075956079451597E9, 0.0, 2024-02-10 15:06:47.945
18.0, -289.1391453742981, -634.5263860821724, -2051.020974099636, -237.67812198400497, 0.06400000303983688, 0.0, 1.008000047877431, 0.0, 0.0, 0.0, 0.0, 0.0, 1.7075956079451597E9, 0.0, 2024-02-10 15:06:47.945
19.0, -280.2830622792244, -613.4632695317268, -2052.217742085457, -213.74276226758957, 0.06400000303983688, 0.0, 1.008000047877431, 0.0, 0.0, 0.0, 0.0, 0.0, 1.7075956079455469E9, 0.0, 2024-02-10 15:06:47.945
19.0, -296.3197532892227, -594.5543353557587, -1989.9858068227768, -209.4343975186348, 0.06400000303983688, 0.0, 1.008000047877431, 0.0, 0.0, 0.0, 0.0, 0.0, 1.7075956079455469E9, 0.0, 2024-02-10 15:06:47.945
20.0, -309.9629083275795, -633.3296180963516, -2038.0958798527718, -244.8587298989296, 0.06400000303983688, 0.0, 1.008000047877431, 0.0, 0.0, 0.0, 0.0, 0.0, 1.707595607959156E9, 0.0, 2024-02-10 15:06:47.959
20.0, -289.37849897146225, -635.2444468736649, -2073.5202122330666, -234.56652522087097, 0.06400000303983688, 0.0, 1.008000047877431, 0.0, 0.0, 0.0, 0.0, 0.0, 1.707595607959156E9, 0.0, 2024-02-10 15:06:47.959
21.0, -286.26690220832825, -594.5543353557587, -2010.570216178894, -213.26405507326126, 0.06400000303983688, 0.0, 1.008000047877431, 0.0, 0.0, 0.0, 0.0, 0.0, 1.7075956079751005E9, 0.0, 2024-02-10 15:06:47.975
21.0, -303.02165400981903, -613.9419767260551, -2013.2031057476997, -231.93363565206528, 0.06400000303983688, 0.0, 1.008000047877431, 0.0, 0.0, 0.0, 0.0, 0.0, 1.7075956079751005E9, 0.0, 2024-02-10 15:06:47.975
22.0, -291.0539741516113, -640.0315188169479, -2071.6053834557533, -231.45492845773697, 0.06400000303983688, 0.0, 1.008000047877431, 0.0, 0.0, 0.0, 0.0, 0.0, 1.7075956079755905E9, 0.0, 2024-02-10 15:06:47.975
22.0, -283.15530544519424, -604.6071864366531, -2031.3939791321754, -206.8015079498291, 0.06400000303983688, 0.0, 1.008000047877431, 0.0, 0.0, 0.0, 0.0, 0.0, 1.7075956079755905E9, 0.0, 2024-02-10 15:06:47.975
23.0, -300.1494108438492, -604.6071864366531, -1991.1825748085976, -222.83819895982742, 0.06400000303983688, 0.0, 1.008000047877431, 0.0, 0.0, 0.0, 0.0, 0.0, 1.7075956079893732E9, 0.0, 2024-02-10 15:06:47.989
23.0, -294.4049245119095, -637.3986292481422, -2055.0899852514267, -235.28458601236343, 0.06400000303983688, 0.0, 1.008000047877431, 0.0, 0.0, 0.0, 0.0, 0.0, 1.7075956079893732E9, 0.0, 2024-02-10 15:06:47.989
24.0, -281.7191838622093, -616.814219892025, -2057.244167625904, -222.59884536266327, 0.06400000303983688, 0.0, 1.008000047877431, 0.0, 0.0, 0.0, 0.0, 0.0, 1.7075956080055947E9, 0.0, 2024-02-10 15:06:48.005
24.0, -295.60169249773026, -591.4427385926247, -1993.576110780239, -218.2904806137085, 0.06400000303983688, 0.0, 1.008000047877431, 0.0, 0.0, 0.0, 0.0, 0.0, 1.7075956080055947E9, 0.0, 2024-02-10 15:06:48.005
25.0, -294.16557091474533, -622.0799990296364, -2031.8726863265038, -238.6355363726616, 0.06400000303983688, 0.0, 1.008000047877431, 0.0, 0.0, 0.0, 0.0, 0.0, 1.7075956080056684E9, 0.0, 2024-02-10 15:06:48.005
25.0, -269.99085760116577, -615.3780983090401, -2058.440935611725, -219.48724859952927, 0.06400000303983688, 0.0, 1.008000047877431, 0.0, 0.0, 0.0, 0.0, 0.0, 1.7075956080056684E9, 0.0, 2024-02-10 15:06:48.005
26.0, -284.352073431015, -591.921445786953, -2013.681812942028, -214.46082305908203, 0.06400000303983688, 0.0, 1.008000047877431, 0.0, 0.0, 0.0, 0.0, 0.0, 1.7075956080193293E9, 0.0, 2024-02-10 15:06:48.019
26.0, -289.85720616579056, -603.6497720479965, -2009.1340945959091, -236.72070759534836, 0.06400000303983688, 0.0, 1.008000047877431, 0.0, 0.0, 0.0, 0.0, 0.0, 1.7075956080193293E9, 0.0, 2024-02-10 15:06:48.019
27.0, -280.52241587638855, -625.9096565842628, -2070.887322664261, -236.9600611925125, 0.06400000303983688, 0.0, 1.008000047877431, 0.0, 0.0, 0.0, 0.0, 0.0, 1.7075956080351505E9, 0.0, 2024-02-10 15:06:48.035
27.0, -275.017283141613, -597.9052857160568, -2026.8462607860565, -211.82793349027634, 0.06400000303983688, 0.0, 1.008000047877431, 0.0, 0.0, 0.0, 0.0, 0.0, 1.7075956080351505E9, 0.0, 2024-02-10 15:06:48.035
28.0, -293.2081565260887, -595.7511033415794, -2000.0386579036713, -230.7368676662445, 0.06400000303983688, 0.0, 1.008000047877431, 0.0, 0.0, 0.0, 0.0, 0.0, 1.7075956080357013E9, 0.0, 2024-02-10 15:06:48.035
28.0, -295.12298530340195, -636.4412148594856, -2057.7228748202324, -245.8161442875862, 0.06400000303983688, 0.0, 1.008000047877431, 0.0, 0.0, 0.0, 0.0, 0.0, 1.7075956080357013E9, 0.0, 2024-02-10 15:06:48.035
29.0, -281.9585374593735, -615.8568055033684, -2049.106145322323, -221.16272377967834, 0.06400000303983688, 0.0, 1.008000047877431, 0.0, 0.0, 0.0, 0.0, 0.0, 1.7075956080491996E9, 0.0, 2024-02-10 15:06:48.049
29.0, -284.11271983385086, -589.2885562181473, -1991.6612820029259, -213.26405507326126, 0.06400000303983688, 0.0, 1.008000047877431, 0.0, 0.0, 0.0, 0.0, 0.0, 1.7075956080491996E9, 0.0, 2024-02-10 15:06:48.049
30.0, -294.64427810907364, -619.2077558636665, -2034.0268687009811, -234.08781802654266, 0.06400000303983688, 0.0, 1.008000047877431, 0.0, 0.0, 0.0, 0.0, 0.0, 1.7075956080648315E9, 0.0, 2024-02-10 15:06:48.064
30.0, -271.4269791841507, -618.7290486693382, -2061.791885972023, -219.00854140520096, 0.06400000303983688, 0.0, 1.008000047877431, 0.0, 0.0, 0.0, 0.0, 0.0, 1.7075956080648315E9, 0.0, 2024-02-10 15:06:48.064
31.0, -274.5385759472847, -573.7305724024773, -2004.347022652626, -209.4343975186348, 0.06400000303983688, 0.0, 1.008000047877431, 0.0, 0.0, 0.0, 0.0, 0.0, 1.7075956080655606E9, 0.0, 2024-02-10 15:06:48.065
31.0, -292.2507421374321, -601.9742968678474, -2003.8683154582977, -227.86462450027466, 0.06400000303983688, 0.0, 1.008000047877431, 0.0, 0.0, 0.0, 0.0, 0.0, 1.7075956080655606E9, 0.0, 2024-02-10 15:06:48.065
32.0, -285.0701342225075, -641.4676403999329, -2073.5202122330666, -232.8910500407219, 0.06400000303983688, 0.0, 1.008000047877431, 0.0, 0.0, 0.0, 0.0, 0.0, 1.7075956080796676E9, 0.0, 2024-02-10 15:06:48.079
32.0, -284.11271983385086, -606.0433080196381, -2030.1972111463547, -211.82793349027634, 0.06400000303983688, 0.0, 1.008000047877431, 0.0, 0.0, 0.0, 0.0, 0.0, 1.7075956080796676E9, 0.0, 2024-02-10 15:06:48.079
33.0, -292.96880292892456, -594.7936889529228, -1993.576110780239, -218.05112701654434, 0.06400000303983688, 0.0, 1.008000047877431, 0.0, 0.0, 0.0, 0.0, 0.0, 1.7075956080950584E9, 0.0, 2024-02-10 15:06:48.095
33.0, -291.53268134593964, -632.8509109020233, -2057.244167625904, -233.13040363788605, 0.06400000303983688, 0.0, 1.008000047877431, 0.0, 0.0, 0.0, 0.0, 0.0, 1.7075956080950584E9, 0.0, 2024-02-10 15:06:48.095
34.0, -277.1714655160904, -614.4206839203835, -2050.3029133081436, -217.33306622505188, 0.06400000303983688, 0.0, 1.008000047877431, 0.0, 0.0, 0.0, 0.0, 0.0, 1.7075956080955832E9, 0.0, 2024-02-10 15:06:48.095
34.0, -290.0965597629547, -592.1607993841171, -1989.9858068227768, -211.10987269878387, 0.06400000303983688, 0.0, 1.008000047877431, 0.0, 0.0, 0.0, 0.0, 0.0, 1.7075956080955832E9, 0.0, 2024-02-10 15:06:48.095
35.0, -303.50036120414734, -629.7393141388893, -2034.0268687009811, -236.72070759534836, 0.06400000303983688, 0.0, 1.008000047877431, 0.0, 0.0, 0.0, 0.0, 0.0, 1.7075956081094468E9, 0.0, 2024-02-10 15:06:48.109
35.0, -285.30948781967163, -630.9360821247101, -2068.254433095455, -225.94979572296143, 0.06400000303983688, 0.0, 1.008000047877431, 0.0, 0.0, 0.0, 0.0, 0.0, 1.7075956081094468E9, 0.0, 2024-02-10 15:06:48.109
36.0, -286.26690220832825, -591.921445786953, -2008.4160338044167, -207.99827593564987, 0.06400000303983688, 0.0, 1.008000047877431, 0.0, 0.0, 0.0, 0.0, 0.0, 1.7075956081248531E9, 0.0, 2024-02-10 15:06:48.124
36.0, -298.9526428580284, -610.3516727685928, -2015.3572881221771, -232.8910500407219, 0.06400000303983688, 0.0, 1.008000047877431, 0.0, 0.0, 0.0, 0.0, 0.0, 1.7075956081248531E9, 0.0, 2024-02-10 15:06:48.124
37.0, -292.01138854026794, -646.0153587460518, -2075.43504101038, -241.02907234430313, 0.06400000303983688, 0.0, 1.008000047877431, 0.0, 0.0, 0.0, 0.0, 0.0, 1.7075956081258392E9, 0.0, 2024-02-10 15:06:48.125
37.0, -279.3256478905678, -594.0756281614304, -2027.564321577549, -209.4343975186348, 0.06400000303983688, 0.0, 1.008000047877431, 0.0, 0.0, 0.0, 0.0, 0.0, 1.7075956081258392E9, 0.0, 2024-02-10 15:06:48.125
38.0, -302.0642396211624, -594.3149817585945, -1992.3793427944183, -219.72660219669342, 0.06400000303983688, 0.0, 1.008000047877431, 0.0, 0.0, 0.0, 0.0, 0.0, 1.7075956081394944E9, 0.0, 2024-02-10 15:06:48.139
38.0, -295.12298530340195, -629.7393141388893, -2041.686183810234, -224.75302773714066, 0.06400000303983688, 0.0, 1.008000047877431, 0.0, 0.0, 0.0, 0.0, 0.0, 1.7075956081394944E9, 0.0, 2024-02-10 15:06:48.139
39.0, -277.41081911325455, -607.479429602623, -2045.2764877676964, -211.34922629594803, 0.06400000303983688, 0.0, 1.008000047877431, 0.0, 0.0, 0.0, 0.0, 0.0, 1.707595608155251E9, 0.0, 2024-02-10 15:06:48.155
39.0, -288.42108458280563, -581.8685947060585, -1979.6936021447182, -207.04086154699326, 0.06400000303983688, 0.0, 1.008000047877431, 0.0, 0.0, 0.0, 0.0, 0.0, 1.707595608155251E9, 0.0, 2024-02-10 15:06:48.155
40.0, -288.6604381799698, -614.4206839203835, -2021.1017744541168, -224.27432054281235, 0.06400000303983688, 0.0, 0.9920000471174717, 0.0, 0.0, 0.0, 0.0, 0.0, 1.70759560815587E9, 0.0, 2024-02-10 15:06:48.155
40.0, -274.0598687529564, -623.2767670154572, -2053.6538636684418, -208.23762953281403, 0.06400000303983688, 0.0, 0.9920000471174717, 0.0, 0.0, 0.0, 0.0, 0.0, 1.70759560815587E9, 0.0, 2024-02-10 15:06:48.155
41.0, -281.9585374593735, -581.6292411088943, -1996.687707543373, -200.5783144235611, 0.06400000303983688, 0.0, 0.9920000471174717, 0.0, 0.0, 0.0, 0.0, 0.0, 1.707595608169468E9, 0.0, 2024-02-10 15:06:48.169
41.0, -286.26690220832825, -591.921445786953, -1993.336757183075, -216.61500543355942, 0.06400000303983688, 0.0, 0.9920000471174717, 0.0, 0.0, 0.0, 0.0, 0.0, 1.707595608169468E9, 0.0, 2024-02-10 15:06:48.169
42.0, -283.63401263952255, -633.0902644991875, -2056.765460431576, -214.93953025341034, 0.06400000303983688, 0.0, 0.9920000471174717, 0.0, 0.0, 0.0, 0.0, 0.0, 1.707595608185171E9, 0.0, 2024-02-10 15:06:48.185
42.0, -269.7515040040016, -587.1343738436699, -2016.0753489136696, -190.76481693983078, 0.06400000303983688, 0.0, 0.9920000471174717, 0.0, 0.0, 0.0, 0.0, 0.0, 1.707595608185171E9, 0.0, 2024-02-10 15:06:48.185
43.0, -289.6178525686264, -588.809849023819, -1977.778773367405, -206.56215435266495, 0.06400000303983688, 0.0, 0.9920000471174717, 0.0, 0.0, 0.0, 0.0, 0.0, 1.707595608185655E9, 0.0, 2024-02-10 15:06:48.185
43.0, -285.0701342225075, -616.814219892025, -2036.899111866951, -225.23173493146896, 0.06400000303983688, 0.0, 0.9920000471174717, 0.0, 0.0, 0.0, 0.0, 0.0, 1.707595608185655E9, 0.0, 2024-02-10 15:06:48.185
44.0, -277.6501727104187, -610.1123191714287, -2042.6435981988907, -208.71633672714233, 0.06400000303983688, 0.0, 0.9920000471174717, 0.0, 0.0, 0.0, 0.0, 0.0, 1.7075956081996481E9, 0.0, 2024-02-10 15:06:48.199
44.0, -292.7294493317604, -584.0227770805359, -1982.0871381163597, -205.12603276968002, 0.06400000303983688, 0.0, 0.9920000471174717, 0.0, 0.0, 0.0, 0.0, 0.0, 1.7075956081996481E9, 0.0, 2024-02-10 15:06:48.199
45.0, -292.7294493317604, -604.6071864366531, -2013.9211665391922, -218.05112701654434, 0.06400000303983688, 0.0, 0.9920000471174717, 0.0, 0.0, 0.0, 0.0, 0.0, 1.7075956082153625E9, 0.0, 2024-02-10 15:06:48.215
45.0, -275.4959903359413, -621.6012918353081, -2056.0473996400833, -210.63116550445557, 0.06400000303983688, 0.0, 0.9920000471174717, 0.0, 0.0, 0.0, 0.0, 0.0, 1.7075956082153625E9, 0.0, 2024-02-10 15:06:48.215
46.0, -281.7191838622093, -586.4163130521774, -1987.5922708511353, -194.8338280916214, 0.06400000303983688, 0.0, 0.9920000471174717, 0.0, 0.0, 0.0, 0.0, 0.0, 1.7075956082156887E9, 0.0, 2024-02-10 15:06:48.215
46.0, -288.42108458280563, -598.144639313221, -1983.7626132965088, -205.84409356117249, 0.06400000303983688, 0.0, 0.9920000471174717, 0.0, 0.0, 0.0, 0.0, 0.0, 1.7075956082156887E9, 0.0, 2024-02-10 15:06:48.215
47.0, -277.6501727104187, -621.8406454324722, -2054.13257086277, -211.58857989311218, 0.06400000303983688, 0.0, 0.9920000471174717, 0.0, 0.0, 0.0, 0.0, 0.0, 1.7075956082292273E9, 0.0, 2024-02-10 15:06:48.229
47.0, -268.07602882385254, -581.150533914566, -2011.7669841647148, -194.11576730012894, 0.06400000303983688, 0.0, 0.9920000471174717, 0.0, 0.0, 0.0, 0.0, 0.0, 1.7075956082292273E9, 0.0, 2024-02-10 15:06:48.229
48.0, -283.63401263952255, -578.5176443457603, -1968.2046294808388, -201.29637521505356, 0.06400000303983688, 0.0, 0.9920000471174717, 0.0, 0.0, 0.0, 0.0, 0.0, 1.707595608244878E9, 0.0, 2024-02-10 15:06:48.244
48.0, -280.04370868206024, -608.6761975884438, -2030.1972111463547, -214.93953025341034, 0.06400000303983688, 0.0, 0.9920000471174717, 0.0, 0.0, 0.0, 0.0, 0.0, 1.707595608244878E9, 0.0, 2024-02-10 15:06:48.244
49.0, -268.55473601818085, -592.1607993841171, -2030.9152719378471, -199.14219284057617, 0.06400000303983688, 0.0, 0.9920000471174717, 0.0, 0.0, 0.0, 0.0, 0.0, 1.7075956082456264E9, 0.0, 2024-02-10 15:06:48.245
49.0, -276.93211191892624, -568.4647932648659, -1967.4865686893463, -193.39770650863647, 0.06400000303983688, 0.0, 0.9920000471174717, 0.0, 0.0, 0.0, 0.0, 0.0, 1.7075956082456264E9, 0.0, 2024-02-10 15:06:48.245
50.0, -285.78819501399994, -600.5381752848625, -2011.0489233732224, -218.7691878080368, 0.06400000303983688, 0.0, 1.008000047877431, 0.0, 0.0, 0.0, 0.0, 0.0, 1.7075956082591453E9, 0.0, 2024-02-10 15:06:48.259
50.0, -278.128879904747, -627.8244853615761, -2052.696449279785, -211.82793349027634, 0.06400000303983688, 0.0, 1.008000047877431, 0.0, 0.0, 0.0, 0.0, 0.0, 1.7075956082591453E9, 0.0, 2024-02-10 15:06:48.259
51.0, -280.04370868206024, -584.2621306777, -1989.9858068227768, -196.74865686893463, 0.06400000303983688, 0.0, 1.008000047877431, 0.0, 0.0, 0.0, 0.0, 0.0, 1.707595608275051E9, 0.0, 2024-02-10 15:06:48.275
51.0, -301.5855324268341, -607.2400760054588, -1998.123829126358, -222.35949176549911, 0.06400000303983688, 0.0, 1.008000047877431, 0.0, 0.0, 0.0, 0.0, 0.0, 1.707595608275051E9, 0.0, 2024-02-10 15:06:48.275
52.0, -288.1817309856415, -630.4573749303818, -2057.244167625904, -227.1465637087822, 0.06400000303983688, 0.0, 1.008000047877431, 0.0, 0.0, 0.0, 0.0, 0.0, 1.7075956082755473E9, 0.0, 2024-02-10 15:06:48.275
52.0, -279.8043550848961, -591.2033849954605, -2023.2559568285942, -208.47698312997818, 0.06400000303983688, 0.0, 1.008000047877431, 0.0, 0.0, 0.0, 0.0, 0.0, 1.7075956082755473E9, 0.0, 2024-02-10 15:06:48.275
53.0, -288.1817309856415, -577.5602299571037, -1978.018126964569, -215.41823744773865, 0.06400000303983688, 0.0, 1.008000047877431, 0.0, 0.0, 0.0, 0.0, 0.0, 1.7075956082890832E9, 0.0, 2024-02-10 15:06:48.289
53.0, -287.22431659698486, -624.9522421956062, -2042.8829517960548, -225.47108852863312, 0.06400000303983688, 0.0, 1.008000047877431, 0.0, 0.0, 0.0, 0.0, 0.0, 1.7075956082890832E9, 0.0, 2024-02-10 15:06:48.289
54.0, -277.1714655160904, -603.4104184508324, -2036.4204046726227, -204.40797197818756, 0.06400000303983688, 0.0, 1.008000047877431, 0.0, 0.0, 0.0, 0.0, 0.0, 1.7075956083053148E9, 0.0, 2024-02-10 15:06:48.305
54.0, -282.1978910565376, -575.1666939854622, -1979.9329557418823, -202.97185039520264, 0.06400000303983688, 0.0, 1.008000047877431, 0.0, 0.0, 0.0, 0.0, 0.0, 1.7075956083053148E9, 0.0, 2024-02-10 15:06:48.305
55.0, -287.9423773884773, -616.3355126976967, -2021.5804816484451, -223.55625975131989, 0.06400000303983688, 0.0, 1.008000047877431, 0.0, 0.0, 0.0, 0.0, 0.0, 1.7075956083056111E9, 0.0, 2024-02-10 15:06:48.305
55.0, -277.41081911325455, -620.1651702523232, -2059.3983500003815, -212.5459942817688, 0.06400000303983688, 0.0, 1.008000047877431, 0.0, 0.0, 0.0, 0.0, 0.0, 1.7075956083056111E9, 0.0, 2024-02-10 15:06:48.305
56.0, -274.29922235012054, -582.3473019003868, -2000.0386579036713, -204.1686183810234, 0.06400000303983688, 0.0, 1.008000047877431, 0.0, 0.0, 0.0, 0.0, 0.0, 1.7075956083191626E9, 0.0, 2024-02-10 15:06:48.319
56.0, -296.08039969205856, -601.9742968678474, -2004.1076690554619, -229.30074608325958, 0.06400000303983688, 0.0, 1.008000047877431, 0.0, 0.0, 0.0, 0.0, 0.0, 1.7075956083191626E9, 0.0, 2024-02-10 15:06:48.319
57.0, -278.6075870990753, -626.6277173757553, -2059.1589964032173, -223.31690615415573, 0.06400000303983688, 0.0, 1.008000047877431, 0.0, 0.0, 0.0, 0.0, 0.0, 1.7075956083348465E9, 0.0, 2024-02-10 15:06:48.334
57.0, -281.240476667881, -601.256236076355, -2029.4791503548622, -211.10987269878387, 0.06400000303983688, 0.0, 1.008000047877431, 0.0, 0.0, 0.0, 0.0, 0.0, 1.7075956083348465E9, 0.0, 2024-02-10 15:06:48.334
58.0, -285.78819501399994, -588.5704954266548, -1983.0445525050163, -219.2478950023651, 0.06400000303983688, 0.0, 1.008000047877431, 0.0, 0.0, 0.0, 0.0, 0.0, 1.707595608335565E9, 0.0, 2024-02-10 15:06:48.335
58.0, -284.11271983385086, -628.5425461530685, -2047.909377336502, -231.21557486057281, 0.06400000303983688, 0.0, 1.008000047877431, 0.0, 0.0, 0.0, 0.0, 0.0, 1.707595608335565E9, 0.0, 2024-02-10 15:06:48.335
59.0, -274.77792954444885, -612.9845623373985, -2047.909377336502, -214.70017665624619, 0.06400000303983688, 0.0, 1.008000047877431, 0.0, 0.0, 0.0, 0.0, 0.0, 1.707595608349117E9, 0.0, 2024-02-10 15:06:48.349
59.0, -295.8410460948944, -587.8524346351624, -1985.677442073822, -215.89694464206696, 0.06400000303983688, 0.0, 1.008000047877431, 0.0, 0.0, 0.0, 0.0, 0.0, 1.707595608349117E9, 0.0, 2024-02-10 15:06:48.349
60.0, -305.1758363842964, -626.8670709729195, -2031.8726863265038, -236.24200040102005, 0.06400000303983688, 0.0, 1.008000047877431, 0.0, 0.0, 0.0, 0.0, 0.0, 1.707595608364876E9, 0.0, 2024-02-10 15:06:48.364
60.0, -281.47983026504517, -632.1328501105309, -2069.451201081276, -230.97622126340866, 0.06400000303983688, 0.0, 1.008000047877431, 0.0, 0.0, 0.0, 0.0, 0.0, 1.707595608364876E9, 0.0, 2024-02-10 15:06:48.364
61.0, -283.15530544519424, -597.1872249245644, -2004.1076690554619, -212.78534787893295, 0.06400000303983688, 0.0, 1.008000047877431, 0.0, 0.0, 0.0, 0.0, 0.0, 1.7075956083655648E9, 0.0, 2024-02-10 15:06:48.365
61.0, -301.5855324268341, -615.1387447118759, -2001.7141330838203, -228.34333169460297, 0.06400000303983688, 0.0, 1.008000047877431, 0.0, 0.0, 0.0, 0.0, 0.0, 1.7075956083655648E9, 0.0, 2024-02-10 15:06:48.365
62.0, -288.42108458280563, -635.9625076651573, -2068.4937866926193, -232.65169644355774, 0.06400000303983688, 0.0, 1.008000047877431, 0.0, 0.0, 0.0, 0.0, 0.0, 1.7075956083794515E9, 0.0, 2024-02-10 15:06:48.379
62.0, -275.25663673877716, -590.9640313982964, -2032.112039923668, -210.15245831012726, 0.06400000303983688, 0.0, 1.008000047877431, 0.0, 0.0, 0.0, 0.0, 0.0, 1.7075956083794515E9, 0.0, 2024-02-10 15:06:48.379
63.0, -299.4313500523567, -597.4265785217285, -1992.6186963915825, -217.33306622505188, 0.06400000303983688, 0.0, 1.008000047877431, 0.0, 0.0, 0.0, 0.0, 0.0, 1.7075956083952467E9, 0.0, 2024-02-10 15:06:48.395
63.0, -296.08039969205856, -637.1592756509781, -2057.00481402874, -235.28458601236343, 0.06400000303983688, 0.0, 1.008000047877431, 0.0, 0.0, 0.0, 0.0, 0.0, 1.7075956083952467E9, 0.0, 2024-02-10 15:06:48.395
64.0, -288.6604381799698, -624.2341814041138, -2054.8506316542625, -219.00854140520096, 0.06400000303983688, 0.0, 1.008000047877431, 0.0, 0.0, 0.0, 0.0, 0.0, 1.7075956083956873E9, 0.0, 2024-02-10 15:06:48.395
64.0, -288.1817309856415, -588.3311418294907, -1991.4219284057617, -213.98211586475372, 0.06400000303983688, 0.0, 1.008000047877431, 0.0, 0.0, 0.0, 0.0, 0.0, 1.7075956083956873E9, 0.0, 2024-02-10 15:06:48.395
65.0, -305.41518998146057, -629.7393141388893, -2029.4791503548622, -229.30074608325958, 0.06400000303983688, 0.0, 1.008000047877431, 0.0, 0.0, 0.0, 0.0, 0.0, 1.7075956084092863E9, 0.0, 2024-02-10 15:06:48.409
65.0, -288.1817309856415, -633.5689716935158, -2072.323444247246, -228.58268529176712, 0.06400000303983688, 0.0, 1.008000047877431, 0.0, 0.0, 0.0, 0.0, 0.0, 1.7075956084092863E9, 0.0, 2024-02-10 15:06:48.409
66.0, -286.0275486111641, -592.4001529812813, -2008.1766802072525, -208.47698312997818, 0.06400000303983688, 0.0, 1.008000047877431, 0.0, 0.0, 0.0, 0.0, 0.0, 1.707595608424836E9, 0.0, 2024-02-10 15:06:48.424
66.0, -301.34617882966995, -614.8993911147118, -2011.2882769703865, -225.94979572296143, 0.06400000303983688, 0.0, 1.008000047877431, 0.0, 0.0, 0.0, 0.0, 0.0, 1.707595608424836E9, 0.0, 2024-02-10 15:06:48.424
67.0, -284.352073431015, -630.9360821247101, -2068.4937866926193, -223.55625975131989, 0.06400000303983688, 0.0, 1.008000047877431, 0.0, 0.0, 0.0, 0.0, 0.0, 1.7075956084255571E9, 0.0, 2024-02-10 15:06:48.425
67.0, -276.45340472459793, -597.1872249245644, -2031.6333327293396, -207.51956874132156, 0.06400000303983688, 0.0, 1.008000047877431, 0.0, 0.0, 0.0, 0.0, 0.0, 1.7075956084255571E9, 0.0, 2024-02-10 15:06:48.425
68.0, -305.41518998146057, -597.1872249245644, -1989.2677460312843, -213.98211586475372, 0.06400000303983688, 0.0, 1.008000047877431, 0.0, 0.0, 0.0, 0.0, 0.0, 1.707595608439504E9, 0.0, 2024-02-10 15:06:48.439
68.0, -301.34617882966995, -640.7495796084404, -2052.217742085457, -230.7368676662445, 0.06400000303983688, 0.0, 1.008000047877431, 0.0, 0.0, 0.0, 0.0, 0.0, 1.707595608439504E9, 0.0, 2024-02-10 15:06:48.439
69.0, -281.240476667881, -621.1225846409798, -2051.7390348911285, -208.9556903243065, 0.06400000303983688, 0.0, 1.008000047877431, 0.0, 0.0, 0.0, 0.0, 0.0, 1.7075956084550831E9, 0.0, 2024-02-10 15:06:48.455
69.0, -288.6604381799698, -586.8950202465057, -1989.0283924341202, -203.45055758953094, 0.06400000303983688, 0.0, 1.008000047877431, 0.0, 0.0, 0.0, 0.0, 0.0, 1.7075956084550831E9, 0.0, 2024-02-10 15:06:48.455
70.0, -295.60169249773026, -620.6438774466515, -2022.5378960371017, -226.90721011161804, 0.06400000303983688, 0.0, 0.9920000471174717, 0.0, 0.0, 0.0, 0.0, 0.0, 1.7075956084556623E9, 0.0, 2024-02-10 15:06:48.455
70.0, -287.22431659698486, -629.9786677360535, -2073.7595658302307, -226.6678565144539, 0.06400000303983688, 0.0, 0.9920000471174717, 0.0, 0.0, 0.0, 0.0, 0.0, 1.7075956084556623E9, 0.0, 2024-02-10 15:06:48.455
71.0, -288.1817309856415, -589.2885562181473, -2006.0224978327751, -211.58857989311218, 0.06400000303983688, 0.0, 0.9920000471174717, 0.0, 0.0, 0.0, 0.0, 0.0, 1.7075956084691403E9, 0.0, 2024-02-10 15:06:48.469
71.0, -302.30359321832657, -610.591026365757, -2003.3896082639694, -225.23173493146896, 0.06400000303983688, 0.0, 0.9920000471174717, 0.0, 0.0, 0.0, 0.0, 0.0, 1.7075956084691403E9, 0.0, 2024-02-10 15:06:48.469
72.0, -284.11271983385086, -629.260606944561, -2067.775725901127, -228.82203888893127, 0.06400000303983688, 0.0, 0.9920000471174717, 0.0, 0.0, 0.0, 0.0, 0.0, 1.7075956084849107E9, 0.0, 2024-02-10 15:06:48.484
72.0, -277.88952630758286, -592.1607993841171, -2031.8726863265038, -207.04086154699326, 0.06400000303983688, 0.0, 0.9920000471174717, 0.0, 0.0, 0.0, 0.0, 0.0, 1.7075956084849107E9, 0.0, 2024-02-10 15:06:48.484
73.0, -302.30359321832657, -598.8627001047134, -1990.7038676142693, -214.70017665624619, 0.06400000303983688, 0.0, 0.9920000471174717, 0.0, 0.0, 0.0, 0.0, 0.0, 1.707595608485568E9, 0.0, 2024-02-10 15:06:48.485
73.0, -291.7720349431038, -632.6115573048592, -2050.3029133081436, -230.7368676662445, 0.06400000303983688, 0.0, 0.9920000471174717, 0.0, 0.0, 0.0, 0.0, 0.0, 1.707595608485568E9, 0.0, 2024-02-10 15:06:48.485
74.0, -279.56500148773193, -613.702623128891, -2049.345498919487, -210.87051910161972, 0.06400000303983688, 0.0, 0.9920000471174717, 0.0, 0.0, 0.0, 0.0, 0.0, 1.7075956084991822E9, 0.0, 2024-02-10 15:06:48.499
74.0, -288.1817309856415, -586.1769594550133, -1988.0709780454636, -210.87051910161972, 0.06400000303983688, 0.0, 0.9920000471174717, 0.0, 0.0, 0.0, 0.0, 0.0, 1.7075956084991822E9, 0.0, 2024-02-10 15:06:48.499
75.0, -301.82488602399826, -619.6864630579948, -2027.3249679803848, -231.69428205490112, 0.06400000303983688, 0.0, 0.9920000471174717, 0.0, 0.0, 0.0, 0.0, 0.0, 1.707595608514901E9, 0.0, 2024-02-10 15:06:48.514
75.0, -280.52241587638855, -620.4045238494873, -2069.211847484112, -224.0349669456482, 0.06400000303983688, 0.0, 0.9920000471174717, 0.0, 0.0, 0.0, 0.0, 0.0, 1.707595608514901E9, 0.0, 2024-02-10 15:06:48.514
76.0, -287.9423773884773, -594.3149817585945, -2008.4160338044167, -207.04086154699326, 0.06400000303983688, 0.0, 0.9920000471174717, 0.0, 0.0, 0.0, 0.0, 0.0, 1.7075956085156205E9, 0.0, 2024-02-10 15:06:48.515
76.0, -300.6281180381775, -609.8729655742645, -2015.5966417193413, -233.3697572350502, 0.06400000303983688, 0.0, 0.9920000471174717, 0.0, 0.0, 0.0, 0.0, 0.0, 1.7075956085156205E9, 0.0, 2024-02-10 15:06:48.515
77.0, -286.0275486111641, -632.8509109020233, -2072.56279784441, -234.08781802654266, 0.06400000303983688, 0.0, 0.9920000471174717, 0.0, 0.0, 0.0, 0.0, 0.0, 1.7075956085290997E9, 0.0, 2024-02-10 15:06:48.529
77.0, -280.52241587638855, -609.3942583799362, -2033.0694543123245, -212.78534787893295, 0.06400000303983688, 0.0, 0.9920000471174717, 0.0, 0.0, 0.0, 0.0, 0.0, 1.7075956085290997E9, 0.0, 2024-02-10 15:06:48.529
78.0, -314.0319194793701, -627.1064245700836, -1995.2515859603882, -217.09371262788773, 0.06400000303983688, 0.0, 0.9920000471174717, 0.0, 0.0, 0.0, 0.0, 0.0, 1.7075956085450335E9, 0.0, 2024-02-10 15:06:48.545
78.0, -307.09066516160965, -660.8552817702293, -2061.552532374859, -235.76329320669174, 0.06400000303983688, 0.0, 0.9920000471174717, 0.0, 0.0, 0.0, 0.0, 0.0, 1.7075956085450335E9, 0.0, 2024-02-10 15:06:48.545
79.0, -291.2933277487755, -629.260606944561, -2054.6112780570984, -213.98211586475372, 0.06400000303983688, 0.0, 0.9920000471174717, 0.0, 0.0, 0.0, 0.0, 0.0, 1.707595608545632E9, 0.0, 2024-02-10 15:06:48.545
79.0, -313.5532122850418, -622.3193526268005, -1986.3955028653145, -210.63116550445557, 0.06400000303983688, 0.0, 0.9920000471174717, 0.0, 0.0, 0.0, 0.0, 0.0, 1.707595608545632E9, 0.0, 2024-02-10 15:06:48.545
80.0, -317.3828698396683, -643.6218227744102, -2026.8462607860565, -225.47108852863312, 0.06400000303983688, 0.0, 0.9920000471174717, 0.0, 0.0, 0.0, 0.0, 0.0, 1.7075956085593696E9, 0.0, 2024-02-10 15:06:48.559
80.0, -278.36823350191116, -640.0315188169479, -2054.13257086277, -208.23762953281403, 0.06400000303983688, 0.0, 0.9920000471174717, 0.0, 0.0, 0.0, 0.0, 0.0, 1.7075956085593696E9, 0.0, 2024-02-10 15:06:48.559
81.0, -279.3256478905678, -582.3473019003868, -1998.123829126358, -197.4667176604271, 0.06400000303983688, 0.0, 0.9920000471174717, 0.0, 0.0, 0.0, 0.0, 0.0, 1.707595608575062E9, 0.0, 2024-02-10 15:06:48.575
81.0, -284.8307806253433, -587.1343738436699, -1993.8154643774033, -213.50340867042542, 0.06400000303983688, 0.0, 0.9920000471174717, 0.0, 0.0, 0.0, 0.0, 0.0, 1.707595608575062E9, 0.0, 2024-02-10 15:06:48.575
82.0, -271.66633278131485, -612.7452087402344, -2061.3131787776947, -224.9923813343048, 0.06400000303983688, 0.0, 0.9920000471174717, 0.0, 0.0, 0.0, 0.0, 0.0, 1.707595608575608E9, 0.0, 2024-02-10 15:06:48.575
82.0, -279.3256478905678, -592.6395065784454, -2020.3837136626244, -201.5357288122177, 0.06400000303983688, 0.0, 0.9920000471174717, 0.0, 0.0, 0.0, 0.0, 0.0, 1.707595608575608E9, 0.0, 2024-02-10 15:06:48.575
83.0, -300.38876444101334, -592.1607993841171, -1981.6084309220314, -211.58857989311218, 0.06400000303983688, 0.0, 0.9920000471174717, 0.0, 0.0, 0.0, 0.0, 0.0, 1.707595608589695E9, 0.0, 2024-02-10 15:06:48.589
83.0, -296.798460483551, -635.483800470829, -2051.7390348911285, -235.04523241519928, 0.06400000303983688, 0.0, 0.9920000471174717, 0.0, 0.0, 0.0, 0.0, 0.0, 1.707595608589695E9, 0.0, 2024-02-10 15:06:48.589
84.0, -284.59142702817917, -616.5748662948608, -2049.345498919487, -218.05112701654434, 0.06400000303983688, 0.0, 0.9920000471174717, 0.0, 0.0, 0.0, 0.0, 0.0, 1.7075956086053617E9, 0.0, 2024-02-10 15:06:48.605
84.0, -299.19199645519257, -591.2033849954605, -1995.012232363224, -217.33306622505188, 0.06400000303983688, 0.0, 0.9920000471174717, 0.0, 0.0, 0.0, 0.0, 0.0, 1.7075956086053617E9, 0.0, 2024-02-10 15:06:48.605
85.0, -308.5267867445946, -631.4147893190384, -2033.787515103817, -237.43876838684082, 0.06400000303983688, 0.0, 0.9920000471174717, 0.0, 0.0, 0.0, 0.0, 0.0, 1.7075956086058526E9, 0.0, 2024-02-10 15:06:48.605
85.0, -301.5855324268341, -644.5792371630669, -2090.5143176317215, -244.3800227046013, 0.06400000303983688, 0.0, 0.9920000471174717, 0.0, 0.0, 0.0, 0.0, 0.0, 1.7075956086058526E9, 0.0, 2024-02-10 15:06:48.605
86.0, -302.30359321832657, -607.9581367969513, -2011.2882769703865, -211.10987269878387, 0.06400000303983688, 0.0, 0.9920000471174717, 0.0, 0.0, 0.0, 0.0, 0.0, 1.707595608619213E9, 0.0, 2024-02-10 15:06:48.619
86.0, -298.71328926086426, -600.7775288820267, -1991.1825748085976, -214.70017665624619, 0.06400000303983688, 0.0, 0.9920000471174717, 0.0, 0.0, 0.0, 0.0, 0.0, 1.707595608619213E9, 0.0, 2024-02-10 15:06:48.619
87.0, -297.9952284693718, -635.2444468736649, -2061.791885972023, -218.2904806137085, 0.06400000303983688, 0.0, 0.9920000471174717, 0.0, 0.0, 0.0, 0.0, 0.0, 1.7075956086349015E9, 0.0, 2024-02-10 15:06:48.634
87.0, -287.22431659698486, -602.6923576593399, -2017.9901776909828, -191.96158492565155, 0.06400000303983688, 0.0, 0.9920000471174717, 0.0, 0.0, 0.0, 0.0, 0.0, 1.7075956086349015E9, 0.0, 2024-02-10 15:06:48.634
88.0, -300.38876444101334, -587.8524346351624, -1975.6245909929276, -200.33896082639694, 0.06400000303983688, 0.0, 0.9920000471174717, 0.0, 0.0, 0.0, 0.0, 0.0, 1.7075956086357467E9, 0.0, 2024-02-10 15:06:48.635
88.0, -291.53268134593964, -615.8568055033684, -2031.8726863265038, -210.87051910161972, 0.06400000303983688, 0.0, 0.9920000471174717, 0.0, 0.0, 0.0, 0.0, 0.0, 1.7075956086357467E9, 0.0, 2024-02-10 15:06:48.635
89.0, -275.017283141613, -602.4530040621758, -2027.8036751747131, -185.4990378022194, 0.06400000303983688, 0.0, 0.9920000471174717, 0.0, 0.0, 0.0, 0.0, 0.0, 1.707595608649191E9, 0.0, 2024-02-10 15:06:48.649
89.0, -290.0965597629547, -569.4222076535225, -1971.3162262439728, -185.9777449965477, 0.06400000303983688, 0.0, 0.9920000471174717, 0.0, 0.0, 0.0, 0.0, 0.0, 1.707595608649191E9, 0.0, 2024-02-10 15:06:48.649
90.0, -297.9952284693718, -608.4368439912796, -2004.1076690554619, -205.60473996400833, 0.06400000303983688, 0.0, 0.9920000471174717, 0.0, 0.0, 0.0, 0.0, 0.0, 1.707595608664886E9, 0.0, 2024-02-10 15:06:48.664
90.0, -281.9585374593735, -612.2665015459061, -2045.7551949620247, -195.3125352859497, 0.06400000303983688, 0.0, 0.9920000471174717, 0.0, 0.0, 0.0, 0.0, 0.0, 1.707595608664886E9, 0.0, 2024-02-10 15:06:48.664
91.0, -285.0701342225075, -570.3796220421791, -1988.3103316426277, -186.21709859371185, 0.06400000303983688, 0.0, 0.9920000471174717, 0.0, 0.0, 0.0, 0.0, 0.0, 1.7075956086655996E9, 0.0, 2024-02-10 15:06:48.665
91.0, -294.4049245119095, -593.1182137727737, -1987.113563656807, -208.23762953281403, 0.06400000303983688, 0.0, 0.9920000471174717, 0.0, 0.0, 0.0, 0.0, 0.0, 1.7075956086655996E9, 0.0, 2024-02-10 15:06:48.665
92.0, -295.60169249773026, -630.6967285275459, -2054.3719244599342, -210.87051910161972, 0.06400000303983688, 0.0, 0.9920000471174717, 0.0, 0.0, 0.0, 0.0, 0.0, 1.707595608679162E9, 0.0, 2024-02-10 15:06:48.679
92.0, -278.84694069623947, -586.1769594550133, -2015.3572881221771, -195.07318168878555, 0.06400000303983688, 0.0, 0.9920000471174717, 0.0, 0.0, 0.0, 0.0, 0.0, 1.707595608679162E9, 0.0, 2024-02-10 15:06:48.679
93.0, -300.1494108438492, -581.150533914566, -1977.0607125759125, -202.49314320087433, 0.06400000303983688, 0.0, 0.9920000471174717, 0.0, 0.0, 0.0, 0.0, 0.0, 1.7075956086948464E9, 0.0, 2024-02-10 15:06:48.694
93.0, -294.8836317062378, -617.5322806835175, -2037.3778190612793, -216.1362982392311, 0.06400000303983688, 0.0, 0.9920000471174717, 0.0, 0.0, 0.0, 0.0, 0.0, 1.7075956086948464E9, 0.0, 2024-02-10 15:06:48.694
94.0, -285.78819501399994, -608.4368439912796, -2044.0797197818756, -199.38154643774033, 0.06400000303983688, 0.0, 0.9920000471174717, 0.0, 0.0, 0.0, 0.0, 0.0, 1.707595608695621E9, 0.0, 2024-02-10 15:06:48.695
94.0, -300.1494108438492, -580.4324731230736, -1981.3690773248672, -204.1686183810234, 0.06400000303983688, 0.0, 0.9920000471174717, 0.0, 0.0, 0.0, 0.0, 0.0, 1.707595608695621E9, 0.0, 2024-02-10 15:06:48.695
95.0, -300.86747163534164, -609.6336119771004, -2021.341128051281, -223.79561334848404, 0.06400000303983688, 0.0, 0.9920000471174717, 0.0, 0.0, 0.0, 0.0, 0.0, 1.7075956087091296E9, 0.0, 2024-02-10 15:06:48.709
95.0, -293.44751012325287, -623.9948278069496, -2058.680289208889, -213.50340867042542, 0.06400000303983688, 0.0, 0.9920000471174717, 0.0, 0.0, 0.0, 0.0, 0.0, 1.7075956087091296E9, 0.0, 2024-02-10 15:06:48.709
96.0, -290.33591336011887, -586.4163130521774, -1996.448353946209, -197.4667176604271, 0.06400000303983688, 0.0, 0.9920000471174717, 0.0, 0.0, 0.0, 0.0, 0.0, 1.7075956087248878E9, 0.0, 2024-02-10 15:06:48.724
96.0, -303.97906839847565, -605.3252472281456, -1998.6025363206863, -216.61500543355942, 0.06400000303983688, 0.0, 0.9920000471174717, 0.0, 0.0, 0.0, 0.0, 0.0, 1.7075956087248878E9, 0.0, 2024-02-10 15:06:48.724
97.0, -290.575266957283, -628.0638389587402, -2067.0576651096344, -221.16272377967834, 0.06400000303983688, 0.0, 0.9920000471174717, 0.0, 0.0, 0.0, 0.0, 0.0, 1.7075956087258215E9, 0.0, 2024-02-10 15:06:48.725
97.0, -280.52241587638855, -588.3311418294907, -2022.777249634266, -199.14219284057617, 0.06400000303983688, 0.0, 0.9920000471174717, 0.0, 0.0, 0.0, 0.0, 0.0, 1.7075956087258215E9, 0.0, 2024-02-10 15:06:48.725
98.0, -297.0378140807152, -581.150533914566, -1983.5232596993446, -209.9131047129631, 0.06400000303983688, 0.0, 0.9920000471174717, 0.0, 0.0, 0.0, 0.0, 0.0, 1.707595608739454E9, 0.0, 2024-02-10 15:06:48.739
98.0, -295.8410460948944, -626.8670709729195, -2045.5158413648605, -220.68401658535004, 0.06400000303983688, 0.0, 0.9920000471174717, 0.0, 0.0, 0.0, 0.0, 0.0, 1.707595608739454E9, 0.0, 2024-02-10 15:06:48.739
99.0, -293.2081565260887, -618.7290486693382, -2053.893217265606, -210.87051910161972, 0.06400000303983688, 0.0, 0.9920000471174717, 0.0, 0.0, 0.0, 0.0, 0.0, 1.7075956087543988E9, 0.0, 2024-02-10 15:06:48.754
99.0, -311.87773710489273, -600.2988216876984, -1995.7302931547165, -213.50340867042542, 0.06400000303983688, 0.0, 0.9920000471174717, 0.0, 0.0, 0.0, 0.0, 0.0, 1.7075956087543988E9, 0.0, 2024-02-10 15:06:48.754
0.0, -295.3623389005661, -636.2018612623215, -2077.589223384857, -234.56652522087097, 0.06400000303983688, 0.0, 1.008000047877431, 0.0, 0.0, 0.0, 0.0, 0.0, 1.7075956087698588E9, 0.0, 2024-02-10 15:06:48.769
0.0, -304.93648278713226, -602.9317112565041, -2014.8785809278488, -215.89694464206696, 0.06400000303983688, 0.0, 1.008000047877431, 0.0, 0.0, 0.0, 0.0, 0.0, 1.7075956087698588E9, 0.0, 2024-02-10 15:06:48.769
1.0, -319.7764058113098, -619.2077558636665, -2024.452724814415, -240.07165795564651, 0.06400000303983688, 0.0, 1.008000047877431, 0.0, 0.0, 0.0, 0.0, 0.0, 1.7075956087706149E9, 0.0, 2024-02-10 15:06:48.770
1.0, -300.86747163534164, -646.0153587460518, -2073.5202122330666, -232.17298924922943, 0.06400000303983688, 0.0, 1.008000047877431, 0.0, 0.0, 0.0, 0.0, 0.0, 1.7075956087706149E9, 0.0, 2024-02-10 15:06:48.770
2.0, -292.96880292892456, -608.9155511856079, -2028.0430287718773, -209.4343975186348, 0.04800000227987766, 0.0, 1.008000047877431, 0.0, 0.0, 0.0, 0.0, 0.0, 1.7075956088005924E9, 0.0, 2024-02-10 15:06:48.800
2.0, -298.9526428580284, -597.9052857160568, -1980.4116629362106, -208.23762953281403, 0.04800000227987766, 0.0, 1.008000047877431, 0.0, 0.0, 0.0, 0.0, 0.0, 1.7075956088005924E9, 0.0, 2024-02-10 15:06:48.800
3.0, -298.4739356637001, -634.2870324850082, -2046.7126093506813, -228.58268529176712, 0.04800000227987766, 0.0, 1.008000047877431, 0.0, 0.0, 0.0, 0.0, 0.0, 1.707595608801263E9, 0.0, 2024-02-10 15:06:48.801
3.0, -286.9849629998207, -608.1974903941154, -2046.7126093506813, -211.34922629594803, 0.04800000227987766, 0.0, 1.008000047877431, 0.0, 0.0, 0.0, 0.0, 0.0, 1.707595608801263E9, 0.0, 2024-02-10 15:06:48.801
4.0, -297.5165212750435, -581.8685947060585, -1983.0445525050163, -202.01443600654602, 0.04800000227987766, 0.0, 1.008000047877431, 0.0, 0.0, 0.0, 0.0, 0.0, 1.7075956088020213E9, 0.0, 2024-02-10 15:06:48.802
4.0, -301.82488602399826, -613.4632695317268, -2018.4688848853111, -219.2478950023651, 0.04800000227987766, 0.0, 1.008000047877431, 0.0, 0.0, 0.0, 0.0, 0.0, 1.7075956088020213E9, 0.0, 2024-02-10 15:06:48.802
5.0, -288.1817309856415, -627.8244853615761, -2056.2867532372475, -211.82793349027634, 0.04800000227987766, 0.0, 1.008000047877431, 0.0, 0.0, 0.0, 0.0, 0.0, 1.7075956088145928E9, 0.0, 2024-02-10 15:06:48.814
5.0, -292.01138854026794, -590.485324203968, -1999.799304306507, -200.33896082639694, 0.04800000227987766, 0.0, 1.008000047877431, 0.0, 0.0, 0.0, 0.0, 0.0, 1.7075956088145928E9, 0.0, 2024-02-10 15:06:48.814
6.0, -306.13325077295303, -612.0271479487419, -1996.9270611405373, -213.50340867042542, 0.04800000227987766, 0.0, 1.008000047877431, 0.0, 0.0, 0.0, 0.0, 0.0, 1.707595608830335E9, 0.0, 2024-02-10 15:06:48.830
6.0, -297.9952284693718, -633.5689716935158, -2056.765460431576, -220.68401658535004, 0.04800000227987766, 0.0, 1.008000047877431, 0.0, 0.0, 0.0, 0.0, 0.0, 1.707595608830335E9, 0.0, 2024-02-10 15:06:48.830
7.0, -292.49009573459625, -597.4265785217285, -2021.1017744541168, -197.4667176604271, 0.04800000227987766, 0.0, 1.008000047877431, 0.0, 0.0, 0.0, 0.0, 0.0, 1.7075956088306851E9, 0.0, 2024-02-10 15:06:48.830
7.0, -300.6281180381775, -591.4427385926247, -1976.34265178442, -201.77508240938187, 0.04800000227987766, 0.0, 1.008000047877431, 0.0, 0.0, 0.0, 0.0, 0.0, 1.7075956088306851E9, 0.0, 2024-02-10 15:06:48.830
8.0, -297.75587487220764, -623.2767670154572, -2040.2500622272491, -222.35949176549911, 0.04800000227987766, 0.0, 1.008000047877431, 0.0, 0.0, 0.0, 0.0, 0.0, 1.7075956088442397E9, 0.0, 2024-02-10 15:06:48.844
8.0, -280.7617694735527, -609.6336119771004, -2040.2500622272491, -207.2802151441574, 0.04800000227987766, 0.0, 1.008000047877431, 0.0, 0.0, 0.0, 0.0, 0.0, 1.7075956088442397E9, 0.0, 2024-02-10 15:06:48.844
9.0, -293.2081565260887, -580.1931195259094, -1983.5232596993446, -204.1686183810234, 0.04800000227987766, 0.0, 1.008000047877431, 0.0, 0.0, 0.0, 0.0, 0.0, 1.7075956088600345E9, 0.0, 2024-02-10 15:06:48.860
9.0, -287.9423773884773, -615.6174519062042, -2016.793409705162, -216.61500543355942, 0.04800000227987766, 0.0, 1.008000047877431, 0.0, 0.0, 0.0, 0.0, 0.0, 1.7075956088600345E9, 0.0, 2024-02-10 15:06:48.860
10.0, -286.9849629998207, -627.1064245700836, -2060.116410791874, -207.99827593564987, 0.04800000227987766, 0.0, 1.008000047877431, 0.0, 0.0, 0.0, 0.0, 0.0, 1.7075956088606148E9, 0.0, 2024-02-10 15:06:48.860
10.0, -283.63401263952255, -578.5176443457603, -1991.1825748085976, -198.66348564624786, 0.04800000227987766, 0.0, 1.008000047877431, 0.0, 0.0, 0.0, 0.0, 0.0, 1.7075956088606148E9, 0.0, 2024-02-10 15:06:48.860
11.0, -304.45777559280396, -605.0858936309814, -2000.7567186951637, -221.8807845711708, 0.04800000227987766, 0.0, 1.008000047877431, 0.0, 0.0, 0.0, 0.0, 0.0, 1.7075956088742108E9, 0.0, 2024-02-10 15:06:48.874
11.0, -293.9262173175812, -634.0476788878441, -2059.6377035975456, -221.16272377967834, 0.04800000227987766, 0.0, 1.008000047877431, 0.0, 0.0, 0.0, 0.0, 0.0, 1.7075956088742108E9, 0.0, 2024-02-10 15:06:48.874
12.0, -281.240476667881, -599.3414072990417, -2017.7508240938187, -200.81766802072525, 0.04800000227987766, 0.0, 1.008000047877431, 0.0, 0.0, 0.0, 0.0, 0.0, 1.7075956088899071E9, 0.0, 2024-02-10 15:06:48.889
12.0, -294.16557091474533, -591.6820921897888, -1984.001966893673, -213.74276226758957, 0.04800000227987766, 0.0, 1.008000047877431, 0.0, 0.0, 0.0, 0.0, 0.0, 1.7075956088899071E9, 0.0, 2024-02-10 15:06:48.889
13.0, -287.9423773884773, -625.1915957927704, -2049.584852516651, -229.7794532775879, 0.04800000227987766, 0.0, 1.008000047877431, 0.0, 0.0, 0.0, 0.0, 0.0, 1.707595608890571E9, 0.0, 2024-02-10 15:06:48.890
13.0, -277.6501727104187, -601.9742968678474, -2050.5422669053078, -208.23762953281403, 0.04800000227987766, 0.0, 1.008000047877431, 0.0, 0.0, 0.0, 0.0, 0.0, 1.707595608890571E9, 0.0, 2024-02-10 15:06:48.890
14.0, -293.686863720417, -589.7672634124756, -1987.5922708511353, -205.12603276968002, 0.04800000227987766, 0.0, 1.008000047877431, 0.0, 0.0, 0.0, 0.0, 0.0, 1.707595608904176E9, 0.0, 2024-02-10 15:06:48.904
14.0, -308.2874331474304, -628.0638389587402, -2022.5378960371017, -222.83819895982742, 0.04800000227987766, 0.0, 1.008000047877431, 0.0, 0.0, 0.0, 0.0, 0.0, 1.707595608904176E9, 0.0, 2024-02-10 15:06:48.904
15.0, -290.575266957283, -624.9522421956062, -2057.244167625904, -213.98211586475372, 0.04800000227987766, 0.0, 1.008000047877431, 0.0, 0.0, 0.0, 0.0, 0.0, 1.7075956089199295E9, 0.0, 2024-02-10 15:06:48.919
15.0, -287.22431659698486, -586.6556666493416, -1995.9696467518806, -199.86025363206863, 0.04800000227987766, 0.0, 1.008000047877431, 0.0, 0.0, 0.0, 0.0, 0.0, 1.7075956089199295E9, 0.0, 2024-02-10 15:06:48.919
16.0, -303.50036120414734, -607.7187831997871, -2000.9960722923279, -227.38591730594635, 0.04800000227987766, 0.0, 1.008000047877431, 0.0, 0.0, 0.0, 0.0, 0.0, 1.7075956089205823E9, 0.0, 2024-02-10 15:06:48.920
16.0, -296.55910688638687, -644.3398835659027, -2066.578957915306, -228.58268529176712, 0.04800000227987766, 0.0, 1.008000047877431, 0.0, 0.0, 0.0, 0.0, 0.0, 1.7075956089205823E9, 0.0, 2024-02-10 15:06:48.920
17.0, -290.8146205544472, -605.8039544224739, -2028.2823823690414, -208.9556903243065, 0.04800000227987766, 0.0, 1.008000047877431, 0.0, 0.0, 0.0, 0.0, 0.0, 1.7075956089345455E9, 0.0, 2024-02-10 15:06:48.934
17.0, -300.86747163534164, -590.9640313982964, -1987.5922708511353, -219.00854140520096, 0.04800000227987766, 0.0, 1.008000047877431, 0.0, 0.0, 0.0, 0.0, 0.0, 1.7075956089345455E9, 0.0, 2024-02-10 15:06:48.934
18.0, -299.19199645519257, -632.372203707695, -2054.6112780570984, -232.65169644355774, 0.04800000227987766, 0.0, 1.008000047877431, 0.0, 0.0, 0.0, 0.0, 0.0, 1.7075956089502978E9, 0.0, 2024-02-10 15:06:48.950
18.0, -286.74560940265656, -617.5322806835175, -2046.7126093506813, -214.22146946191788, 0.04800000227987766, 0.0, 1.008000047877431, 0.0, 0.0, 0.0, 0.0, 0.0, 1.7075956089502978E9, 0.0, 2024-02-10 15:06:48.950
19.0, -296.55910688638687, -591.2033849954605, -1990.7038676142693, -211.58857989311218, 0.04800000227987766, 0.0, 1.008000047877431, 0.0, 0.0, 0.0, 0.0, 0.0, 1.707595608950772E9, 0.0, 2024-02-10 15:06:48.950
19.0, -301.82488602399826, -627.3457781672478, -2024.9314320087433, -229.54009968042374, 0.04800000227987766, 0.0, 1.008000047877431, 0.0, 0.0, 0.0, 0.0, 0.0, 1.707595608950772E9, 0.0, 2024-02-10 15:06:48.950
20.0, -292.96880292892456, -633.3296180963516, -2068.254433095455, -225.94979572296143, 0.04800000227987766, 0.0, 1.008000047877431, 0.0, 0.0, 0.0, 0.0, 0.0, 1.7075956089642687E9, 0.0, 2024-02-10 15:06:48.964
20.0, -297.27716767787933, -594.7936889529228, -2002.1928402781487, -209.19504392147064, 0.04800000227987766, 0.0, 1.008000047877431, 0.0, 0.0, 0.0, 0.0, 0.0, 1.7075956089642687E9, 0.0, 2024-02-10 15:06:48.964
21.0, -304.2184219956398, -606.0433080196381, -2000.5173650979996, -221.8807845711708, 0.04800000227987766, 0.0, 1.008000047877431, 0.0, 0.0, 0.0, 0.0, 0.0, 1.7075956089801676E9, 0.0, 2024-02-10 15:06:48.980
21.0, -292.7294493317604, -634.2870324850082, -2063.9460683465004, -227.86462450027466, 0.04800000227987766, 0.0, 1.008000047877431, 0.0, 0.0, 0.0, 0.0, 0.0, 1.7075956089801676E9, 0.0, 2024-02-10 15:06:48.980
22.0, -285.78819501399994, -596.708517730236, -2026.3675535917282, -213.0247014760971, 0.04800000227987766, 0.0, 1.008000047877431, 0.0, 0.0, 0.0, 0.0, 0.0, 1.7075956089806983E9, 0.0, 2024-02-10 15:06:48.980
22.0, -310.4416155219078, -605.5646008253098, -1994.0548179745674, -226.6678565144539, 0.04800000227987766, 0.0, 1.008000047877431, 0.0, 0.0, 0.0, 0.0, 0.0, 1.7075956089806983E9, 0.0, 2024-02-10 15:06:48.980
23.0, -302.0642396211624, -642.4250547885895, -2050.5422669053078, -230.49751406908035, 0.04800000227987766, 0.0, 1.008000047877431, 0.0, 0.0, 0.0, 0.0, 0.0, 1.7075956089941156E9, 0.0, 2024-02-10 15:06:48.994
23.0, -286.9849629998207, -617.2929270863533, -2051.9783884882927, -215.41823744773865, 0.04800000227987766, 0.0, 1.008000047877431, 0.0, 0.0, 0.0, 0.0, 0.0, 1.7075956089941156E9, 0.0, 2024-02-10 15:06:48.994
24.0, -293.44751012325287, -586.6556666493416, -1993.576110780239, -217.09371262788773, 0.04800000227987766, 0.0, 1.008000047877431, 0.0, 0.0, 0.0, 0.0, 0.0, 1.7075956090098653E9, 0.0, 2024-02-10 15:06:49.009
24.0, -296.55910688638687, -620.4045238494873, -2032.8301007151604, -234.56652522087097, 0.04800000227987766, 0.0, 1.008000047877431, 0.0, 0.0, 0.0, 0.0, 0.0, 1.7075956090098653E9, 0.0, 2024-02-10 15:06:49.009
25.0, -296.798460483551, -637.1592756509781, -2071.366029858589, -228.58268529176712, 0.04800000227987766, 0.0, 1.008000047877431, 0.0, 0.0, 0.0, 0.0, 0.0, 1.7075956090105777E9, 0.0, 2024-02-10 15:06:49.010
25.0, -297.75587487220764, -586.6556666493416, -2012.4850449562073, -219.48724859952927, 0.04800000227987766, 0.0, 1.008000047877431, 0.0, 0.0, 0.0, 0.0, 0.0, 1.7075956090105777E9, 0.0, 2024-02-10 15:06:49.010
26.0, -309.0054939389229, -612.0271479487419, -2006.0224978327751, -230.01880687475204, 0.04800000227987766, 0.0, 1.008000047877431, 0.0, 0.0, 0.0, 0.0, 0.0, 1.7075956090242772E9, 0.0, 2024-02-10 15:06:49.024
26.0, -300.6281180381775, -641.706993997097, -2069.211847484112, -231.69428205490112, 0.04800000227987766, 0.0, 1.008000047877431, 0.0, 0.0, 0.0, 0.0, 0.0, 1.7075956090242772E9, 0.0, 2024-02-10 15:06:49.024
27.0, -286.0275486111641, -596.9478713274002, -2029.9578575491905, -211.34922629594803, 0.04800000227987766, 0.0, 1.008000047877431, 0.0, 0.0, 0.0, 0.0, 0.0, 1.7075956090400991E9, 0.0, 2024-02-10 15:06:49.040
27.0, -303.2610076069832, -595.033042550087, -1995.7302931547165, -225.23173493146896, 0.04800000227987766, 0.0, 1.008000047877431, 0.0, 0.0, 0.0, 0.0, 0.0, 1.7075956090400991E9, 0.0, 2024-02-10 15:06:49.040
28.0, -296.3197532892227, -631.6541429162025, -2052.696449279785, -234.80587881803513, 0.04800000227987766, 0.0, 1.008000047877431, 0.0, 0.0, 0.0, 0.0, 0.0, 1.707595609040584E9, 0.0, 2024-02-10 15:06:49.040
28.0, -283.63401263952255, -609.1549047827721, -2047.670023739338, -214.70017665624619, 0.04800000227987766, 0.0, 1.008000047877431, 0.0, 0.0, 0.0, 0.0, 0.0, 1.707595609040584E9, 0.0, 2024-02-10 15:06:49.040
29.0, -296.08039969205856, -580.6718267202377, -1992.3793427944183, -218.2904806137085, 0.04800000227987766, 0.0, 1.008000047877431, 0.0, 0.0, 0.0, 0.0, 0.0, 1.7075956090541532E9, 0.0, 2024-02-10 15:06:49.054
29.0, -299.4313500523567, -615.3780983090401, -2025.8888463974, -232.8910500407219, 0.04800000227987766, 0.0, 1.008000047877431, 0.0, 0.0, 0.0, 0.0, 0.0, 1.7075956090541532E9, 0.0, 2024-02-10 15:06:49.054
30.0, -296.3197532892227, -630.4573749303818, -2064.1854219436646, -219.48724859952927, 0.04800000227987766, 0.0, 1.008000047877431, 0.0, 0.0, 0.0, 0.0, 0.0, 1.7075956090699036E9, 0.0, 2024-02-10 15:06:49.069
30.0, -286.26690220832825, -583.7834234833717, -1999.799304306507, -201.77508240938187, 0.04800000227987766, 0.0, 1.008000047877431, 0.0, 0.0, 0.0, 0.0, 0.0, 1.7075956090699036E9, 0.0, 2024-02-10 15:06:49.069
31.0, -302.5429468154907, -604.1284792423248, -2004.8257298469543, -223.79561334848404, 0.04800000227987766, 0.0, 1.008000047877431, 0.0, 0.0, 0.0, 0.0, 0.0, 1.7075956090706377E9, 0.0, 2024-02-10 15:06:49.070
31.0, -289.37849897146225, -633.3296180963516, -2064.903482735157, -230.7368676662445, 0.04800000227987766, 0.0, 1.008000047877431, 0.0, 0.0, 0.0, 0.0, 0.0, 1.7075956090706377E9, 0.0, 2024-02-10 15:06:49.070
32.0, -282.67659825086594, -598.3839929103851, -2030.9152719378471, -211.82793349027634, 0.04800000227987766, 0.0, 1.008000047877431, 0.0, 0.0, 0.0, 0.0, 0.0, 1.707595609084205E9, 0.0, 2024-02-10 15:06:49.084
32.0, -298.71328926086426, -590.0066170096397, -1984.9593812823296, -215.1788838505745, 0.04800000227987766, 0.0, 1.008000047877431, 0.0, 0.0, 0.0, 0.0, 0.0, 1.707595609084205E9, 0.0, 2024-02-10 15:06:49.084
33.0, -296.798460483551, -627.3457781672478, -2049.345498919487, -230.97622126340866, 0.04800000227987766, 0.0, 1.008000047877431, 0.0, 0.0, 0.0, 0.0, 0.0, 1.7075956090998511E9, 0.0, 2024-02-10 15:06:49.099
33.0, -270.70891839265823, -601.9742968678474, -2049.345498919487, -209.67375111579895, 0.04800000227987766, 0.0, 1.008000047877431, 0.0, 0.0, 0.0, 0.0, 0.0, 1.7075956090998511E9, 0.0, 2024-02-10 15:06:49.099
34.0, -286.74560940265656, -581.8685947060585, -1982.0871381163597, -204.40797197818756, 0.04800000227987766, 0.0, 1.008000047877431, 0.0, 0.0, 0.0, 0.0, 0.0, 1.7075956091005714E9, 0.0, 2024-02-10 15:06:49.100
34.0, -298.9526428580284, -618.9684022665024, -2030.1972111463547, -234.56652522087097, 0.04800000227987766, 0.0, 1.008000047877431, 0.0, 0.0, 0.0, 0.0, 0.0, 1.7075956091005714E9, 0.0, 2024-02-10 15:06:49.100
35.0, -284.8307806253433, -621.6012918353081, -2071.126676261425, -224.5136741399765, 0.04800000227987766, 0.0, 1.008000047877431, 0.0, 0.0, 0.0, 0.0, 0.0, 1.707595609114633E9, 0.0, 2024-02-10 15:06:49.114
35.0, -284.59142702817917, -579.475058734417, -2006.9799122214317, -208.47698312997818, 0.04800000227987766, 0.0, 1.008000047877431, 0.0, 0.0, 0.0, 0.0, 0.0, 1.707595609114633E9, 0.0, 2024-02-10 15:06:49.114
36.0, -306.8513115644455, -608.6761975884438, -2003.8683154582977, -231.45492845773697, 0.04800000227987766, 0.0, 1.008000047877431, 0.0, 0.0, 0.0, 0.0, 0.0, 1.7075956091301E9, 0.0, 2024-02-10 15:06:49.130
36.0, -297.0378140807152, -638.1166900396347, -2072.0840906500816, -232.17298924922943, 0.04800000227987766, 0.0, 1.008000047877431, 0.0, 0.0, 0.0, 0.0, 0.0, 1.7075956091301E9, 0.0, 2024-02-10 15:06:49.130
37.0, -284.59142702817917, -599.3414072990417, -2031.1546255350113, -213.74276226758957, 0.04800000227987766, 0.0, 1.008000047877431, 0.0, 0.0, 0.0, 0.0, 0.0, 1.707595609130619E9, 0.0, 2024-02-10 15:06:49.130
37.0, -301.82488602399826, -596.2298105359077, -1988.3103316426277, -217.8117734193802, 0.04800000227987766, 0.0, 1.008000047877431, 0.0, 0.0, 0.0, 0.0, 0.0, 1.707595609130619E9, 0.0, 2024-02-10 15:06:49.130
38.0, -293.686863720417, -639.3134580254555, -2055.808046042919, -236.4813539981842, 0.04800000227987766, 0.0, 1.008000047877431, 0.0, 0.0, 0.0, 0.0, 0.0, 1.7075956091443706E9, 0.0, 2024-02-10 15:06:49.144
38.0, -283.8733662366867, -618.4896950721741, -2055.568692445755, -217.33306622505188, 0.04800000227987766, 0.0, 1.008000047877431, 0.0, 0.0, 0.0, 0.0, 0.0, 1.7075956091443706E9, 0.0, 2024-02-10 15:06:49.144
39.0, -291.0539741516113, -584.5014842748642, -1992.8580499887466, -215.89694464206696, 0.04800000227987766, 0.0, 1.008000047877431, 0.0, 0.0, 0.0, 0.0, 0.0, 1.707595609160054E9, 0.0, 2024-02-10 15:06:49.160
39.0, -297.5165212750435, -620.4045238494873, -2030.9152719378471, -234.56652522087097, 0.04800000227987766, 0.0, 1.008000047877431, 0.0, 0.0, 0.0, 0.0, 0.0, 1.707595609160054E9, 0.0, 2024-02-10 15:06:49.160
40.0, -280.2830622792244, -625.6703029870987, -2058.919642806053, -222.35949176549911, 0.04800000227987766, 0.0, 1.008000047877431, 0.0, 0.0, 0.0, 0.0, 0.0, 1.707595609160656E9, 0.0, 2024-02-10 15:06:49.160
40.0, -284.8307806253433, -588.5704954266548, -2000.7567186951637, -206.8015079498291, 0.04800000227987766, 0.0, 1.008000047877431, 0.0, 0.0, 0.0, 0.0, 0.0, 1.707595609160656E9, 0.0, 2024-02-10 15:06:49.160
41.0, -304.2184219956398, -615.6174519062042, -2009.3734481930733, -227.6252709031105, 0.04800000227987766, 0.0, 1.008000047877431, 0.0, 0.0, 0.0, 0.0, 0.0, 1.7075956091744137E9, 0.0, 2024-02-10 15:06:49.174
41.0, -289.1391453742981, -640.7495796084404, -2064.1854219436646, -227.86462450027466, 0.04800000227987766, 0.0, 1.008000047877431, 0.0, 0.0, 0.0, 0.0, 0.0, 1.7075956091744137E9, 0.0, 2024-02-10 15:06:49.174
42.0, -280.2830622792244, -597.4265785217285, -2029.9578575491905, -213.98211586475372, 0.06400000303983688, 0.0, 1.008000047877431, 0.0, 0.0, 0.0, 0.0, 0.0, 1.707595609189931E9, 0.0, 2024-02-10 15:06:49.189
42.0, -295.60169249773026, -593.1182137727737, -1986.8742100596428, -219.00854140520096, 0.06400000303983688, 0.0, 1.008000047877431, 0.0, 0.0, 0.0, 0.0, 0.0, 1.707595609189931E9, 0.0, 2024-02-10 15:06:49.189
43.0, -291.0539741516113, -626.6277173757553, -2047.909377336502, -227.1465637087822, 0.06400000303983688, 0.0, 1.008000047877431, 0.0, 0.0, 0.0, 0.0, 0.0, 1.707595609190544E9, 0.0, 2024-02-10 15:06:49.190
43.0, -282.1978910565376, -610.3516727685928, -2048.6274381279945, -213.26405507326126, 0.06400000303983688, 0.0, 1.008000047877431, 0.0, 0.0, 0.0, 0.0, 0.0, 1.707595609190544E9, 0.0, 2024-02-10 15:06:49.190
44.0, -286.9849629998207, -581.3898875117302, -1983.2839061021805, -206.08344715833664, 0.06400000303983688, 0.0, 1.008000047877431, 0.0, 0.0, 0.0, 0.0, 0.0, 1.7075956092045703E9, 0.0, 2024-02-10 15:06:49.204
44.0, -290.0965597629547, -607.479429602623, -2027.564321577549, -230.49751406908035, 0.06400000303983688, 0.0, 1.008000047877431, 0.0, 0.0, 0.0, 0.0, 0.0, 1.7075956092045703E9, 0.0, 2024-02-10 15:06:49.204
45.0, -283.3946590423584, -624.9522421956062, -2062.031239569187, -220.20530939102173, 0.06400000303983688, 0.0, 1.008000047877431, 0.0, 0.0, 0.0, 0.0, 0.0, 1.7075956092203023E9, 0.0, 2024-02-10 15:06:49.220
45.0, -289.85720616579056, -589.5279098153114, -2004.1076690554619, -204.1686183810234, 0.06400000303983688, 0.0, 1.008000047877431, 0.0, 0.0, 0.0, 0.0, 0.0, 1.7075956092203023E9, 0.0, 2024-02-10 15:06:49.220
46.0, -301.5855324268341, -606.7613688111305, -2010.33086258173, -221.16272377967834, 0.06400000303983688, 0.0, 1.008000047877431, 0.0, 0.0, 0.0, 0.0, 0.0, 1.707595609220614E9, 0.0, 2024-02-10 15:06:49.220
46.0, -282.9159518480301, -626.8670709729195, -2070.1692618727684, -224.9923813343048, 0.06400000303983688, 0.0, 1.008000047877431, 0.0, 0.0, 0.0, 0.0, 0.0, 1.707595609220614E9, 0.0, 2024-02-10 15:06:49.220
47.0, -280.7617694735527, -597.9052857160568, -2034.7449294924736, -213.98211586475372, 0.06400000303983688, 0.0, 1.008000047877431, 0.0, 0.0, 0.0, 0.0, 0.0, 1.7075956092345226E9, 0.0, 2024-02-10 15:06:49.234
47.0, -299.910057246685, -586.1769594550133, -1991.90063560009, -222.12013816833496, 0.06400000303983688, 0.0, 1.008000047877431, 0.0, 0.0, 0.0, 0.0, 0.0, 1.7075956092345226E9, 0.0, 2024-02-10 15:06:49.234
48.0, -290.8146205544472, -626.3883637785912, -2042.8829517960548, -232.65169644355774, 0.06400000303983688, 0.0, 1.008000047877431, 0.0, 0.0, 0.0, 0.0, 0.0, 1.7075956092501695E9, 0.0, 2024-02-10 15:06:49.250
48.0, -284.11271983385086, -613.9419767260551, -2046.7126093506813, -213.74276226758957, 0.06400000303983688, 0.0, 1.008000047877431, 0.0, 0.0, 0.0, 0.0, 0.0, 1.7075956092501695E9, 0.0, 2024-02-10 15:06:49.250
49.0, -284.11271983385086, -582.586655497551, -1984.9593812823296, -213.50340867042542, 0.06400000303983688, 0.0, 1.008000047877431, 0.0, 0.0, 0.0, 0.0, 0.0, 1.7075956092507935E9, 0.0, 2024-02-10 15:06:49.250
49.0, -283.63401263952255, -616.3355126976967, -2021.341128051281, -235.28458601236343, 0.06400000303983688, 0.0, 1.008000047877431, 0.0, 0.0, 0.0, 0.0, 0.0, 1.7075956092507935E9, 0.0, 2024-02-10 15:06:49.250
50.0, -277.41081911325455, -619.2077558636665, -2074.238273024559, -253.7148129940033, 0.06400000303983688, 0.0, 1.008000047877431, 0.0, 0.0, 0.0, 0.0, 0.0, 1.7075956092644477E9, 0.0, 2024-02-10 15:06:49.264
50.0, -279.3256478905678, -580.9111803174019, -1998.3631827235222, -199.14219284057617, 0.06400000303983688, 0.0, 1.008000047877431, 0.0, 0.0, 0.0, 0.0, 0.0, 1.7075956092644477E9, 0.0, 2024-02-10 15:06:49.264
51.0, -285.78819501399994, -590.2459706068039, -1989.9858068227768, -204.64732557535172, 0.06400000303983688, 0.0, 1.008000047877431, 0.0, 0.0, 0.0, 0.0, 0.0, 1.7075956092798765E9, 0.0, 2024-02-10 15:06:49.279
51.0, -282.1978910565376, -623.037413418293, -2063.9460683465004, -234.08781802654266, 0.06400000303983688, 0.0, 1.008000047877431, 0.0, 0.0, 0.0, 0.0, 0.0, 1.7075956092798765E9, 0.0, 2024-02-10 15:06:49.279
52.0, -268.55473601818085, -595.5117497444153, -2025.8888463974, -212.0672870874405, 0.06400000303983688, 0.0, 1.008000047877431, 0.0, 0.0, 0.0, 0.0, 0.0, 1.707595609280563E9, 0.0, 2024-02-10 15:06:49.280
52.0, -297.27716767787933, -595.7511033415794, -1986.8742100596428, -198.18477845191956, 0.06400000303983688, 0.0, 1.008000047877431, 0.0, 0.0, 0.0, 0.0, 0.0, 1.707595609280563E9, 0.0, 2024-02-10 15:06:49.280
53.0, -283.63401263952255, -622.7980598211288, -2043.122305393219, -217.8117734193802, 0.06400000303983688, 0.0, 1.008000047877431, 0.0, 0.0, 0.0, 0.0, 0.0, 1.7075956092943923E9, 0.0, 2024-02-10 15:06:49.294
53.0, -279.8043550848961, -618.0109878778458, -2046.233902156353, -207.51956874132156, 0.06400000303983688, 0.0, 1.008000047877431, 0.0, 0.0, 0.0, 0.0, 0.0, 1.7075956092943923E9, 0.0, 2024-02-10 15:06:49.294
54.0, -292.49009573459625, -591.4427385926247, -1985.1987348794937, -209.67375111579895, 0.06400000303983688, 0.0, 1.008000047877431, 0.0, 0.0, 0.0, 0.0, 0.0, 1.707595609310052E9, 0.0, 2024-02-10 15:06:49.310
54.0, -292.01138854026794, -617.7716342806816, -2020.3837136626244, -225.23173493146896, 0.06400000303983688, 0.0, 1.008000047877431, 0.0, 0.0, 0.0, 0.0, 0.0, 1.707595609310052E9, 0.0, 2024-02-10 15:06:49.310
55.0, -281.7191838622093, -630.9360821247101, -2062.988653957844, -220.20530939102173, 0.06400000303983688, 0.0, 1.008000047877431, 0.0, 0.0, 0.0, 0.0, 0.0, 1.7075956093105967E9, 0.0, 2024-02-10 15:06:49.310
55.0, -277.6501727104187, -588.3311418294907, -2001.7141330838203, -203.6899111866951, 0.06400000303983688, 0.0, 1.008000047877431, 0.0, 0.0, 0.0, 0.0, 0.0, 1.7075956093105967E9, 0.0, 2024-02-10 15:06:49.310
56.0, -297.5165212750435, -601.4955896735191, -1994.7728787660599, -218.05112701654434, 0.06400000303983688, 0.0, 1.008000047877431, 0.0, 0.0, 0.0, 0.0, 0.0, 1.707595609324535E9, 0.0, 2024-02-10 15:06:49.324
56.0, -276.2140511274338, -624.4735350012779, -2054.6112780570984, -222.35949176549911, 0.06400000303983688, 0.0, 1.008000047877431, 0.0, 0.0, 0.0, 0.0, 0.0, 1.707595609324535E9, 0.0, 2024-02-10 15:06:49.324
57.0, -272.3843935728073, -587.373727440834, -2026.8462607860565, -205.60473996400833, 0.06400000303983688, 0.0, 1.008000047877431, 0.0, 0.0, 0.0, 0.0, 0.0, 1.707595609340201E9, 0.0, 2024-02-10 15:06:49.340
57.0, -290.575266957283, -583.0653626918793, -1979.454248547554, -216.61500543355942, 0.06400000303983688, 0.0, 1.008000047877431, 0.0, 0.0, 0.0, 0.0, 0.0, 1.707595609340201E9, 0.0, 2024-02-10 15:06:49.340
58.0, -284.352073431015, -620.1651702523232, -2048.3880845308304, -229.54009968042374, 0.06400000303983688, 0.0, 1.008000047877431, 0.0, 0.0, 0.0, 0.0, 0.0, 1.7075956093406427E9, 0.0, 2024-02-10 15:06:49.340
58.0, -269.51215040683746, -606.2826616168022, -2043.122305393219, -210.3918119072914, 0.06400000303983688, 0.0, 1.008000047877431, 0.0, 0.0, 0.0, 0.0, 0.0, 1.7075956093406427E9, 0.0, 2024-02-10 15:06:49.340
59.0, -293.9262173175812, -587.6130810379982, -1980.4116629362106, -207.99827593564987, 0.06400000303983688, 0.0, 1.008000047877431, 0.0, 0.0, 0.0, 0.0, 0.0, 1.7075956093542068E9, 0.0, 2024-02-10 15:06:49.354
59.0, -293.44751012325287, -615.6174519062042, -2016.793409705162, -227.38591730594635, 0.06400000303983688, 0.0, 1.008000047877431, 0.0, 0.0, 0.0, 0.0, 0.0, 1.7075956093542068E9, 0.0, 2024-02-10 15:06:49.354
60.0, -278.84694069623947, -625.6703029870987, -2068.9724938869476, -220.9233701825142, 0.06400000303983688, 0.0, 1.008000047877431, 0.0, 0.0, 0.0, 0.0, 0.0, 1.7075956093699124E9, 0.0, 2024-02-10 15:06:49.369
60.0, -274.77792954444885, -576.8421691656113, -1999.3205971121788, -202.01443600654602, 0.06400000303983688, 0.0, 1.008000047877431, 0.0, 0.0, 0.0, 0.0, 0.0, 1.7075956093699124E9, 0.0, 2024-02-10 15:06:49.369
61.0, -285.30948781967163, -590.2459706068039, -1999.799304306507, -224.75302773714066, 0.06400000303983688, 0.0, 1.008000047877431, 0.0, 0.0, 0.0, 0.0, 0.0, 1.707595609370846E9, 0.0, 2024-02-10 15:06:49.370
61.0, -277.41081911325455, -629.260606944561, -2064.664129137993, -226.42850291728973, 0.06400000303983688, 0.0, 1.008000047877431, 0.0, 0.0, 0.0, 0.0, 0.0, 1.707595609370846E9, 0.0, 2024-02-10 15:06:49.370
62.0, -276.45340472459793, -600.5381752848625, -2029.7185039520264, -214.93953025341034, 0.06400000303983688, 0.0, 1.008000047877431, 0.0, 0.0, 0.0, 0.0, 0.0, 1.7075956093844936E9, 0.0, 2024-02-10 15:06:49.384
62.0, -294.8836317062378, -594.5543353557587, -1986.1561492681503, -213.74276226758957, 0.06400000303983688, 0.0, 1.008000047877431, 0.0, 0.0, 0.0, 0.0, 0.0, 1.7075956093844936E9, 0.0, 2024-02-10 15:06:49.384
63.0, -296.798460483551, -632.8509109020233, -2046.233902156353, -228.58268529176712, 0.06400000303983688, 0.0, 1.008000047877431, 0.0, 0.0, 0.0, 0.0, 0.0, 1.7075956094000573E9, 0.0, 2024-02-10 15:06:49.400
63.0, -276.2140511274338, -615.8568055033684, -2045.7551949620247, -207.2802151441574, 0.06400000303983688, 0.0, 1.008000047877431, 0.0, 0.0, 0.0, 0.0, 0.0, 1.7075956094000573E9, 0.0, 2024-02-10 15:06:49.400
64.0, -289.37849897146225, -588.5704954266548, -1989.7464532256126, -213.98211586475372, 0.06400000303983688, 0.0, 1.008000047877431, 0.0, 0.0, 0.0, 0.0, 0.0, 1.7075956094009123E9, 0.0, 2024-02-10 15:06:49.400
64.0, -295.3623389005661, -617.2929270863533, -2028.7610895633698, -233.13040363788605, 0.06400000303983688, 0.0, 1.008000047877431, 0.0, 0.0, 0.0, 0.0, 0.0, 1.7075956094009123E9, 0.0, 2024-02-10 15:06:49.400
65.0, -282.67659825086594, -620.8832310438156, -2066.339604318142, -218.2904806137085, 0.06400000303983688, 0.0, 1.008000047877431, 0.0, 0.0, 0.0, 0.0, 0.0, 1.7075956094141324E9, 0.0, 2024-02-10 15:06:49.414
65.0, -292.7294493317604, -599.1020537018776, -2004.5863762497902, -207.51956874132156, 0.06400000303983688, 0.0, 1.008000047877431, 0.0, 0.0, 0.0, 0.0, 0.0, 1.7075956094141324E9, 0.0, 2024-02-10 15:06:49.414
66.0, -303.50036120414734, -616.3355126976967, -2002.910901069641, -232.17298924922943, 0.06400000303983688, 0.0, 1.008000047877431, 0.0, 0.0, 0.0, 0.0, 0.0, 1.707595609446758E9, 0.0, 2024-02-10 15:06:49.446
66.0, -286.0275486111641, -638.1166900396347, -2065.142836332321, -228.34333169460297, 0.06400000303983688, 0.0, 1.008000047877431, 0.0, 0.0, 0.0, 0.0, 0.0, 1.707595609446758E9, 0.0, 2024-02-10 15:06:49.446
67.0, -282.9159518480301, -601.4955896735191, -2029.239796757698, -201.77508240938187, 0.06400000303983688, 0.0, 1.008000047877431, 0.0, 0.0, 0.0, 0.0, 0.0, 1.707595609446928E9, 0.0, 2024-02-10 15:06:49.446
67.0, -295.8410460948944, -596.708517730236, -1986.8742100596428, -211.58857989311218, 0.06400000303983688, 0.0, 1.008000047877431, 0.0, 0.0, 0.0, 0.0, 0.0, 1.707595609446928E9, 0.0, 2024-02-10 15:06:49.446
68.0, -298.9526428580284, -640.2708724141121, -2060.355764389038, -236.9600611925125, 0.06400000303983688, 0.0, 1.008000047877431, 0.0, 0.0, 0.0, 0.0, 0.0, 1.7075956094476788E9, 0.0, 2024-02-10 15:06:49.447
68.0, -275.73534393310547, -604.367832839489, -2048.8667917251587, -220.68401658535004, 0.06400000303983688, 0.0, 1.008000047877431, 0.0, 0.0, 0.0, 0.0, 0.0, 1.7075956094476788E9, 0.0, 2024-02-10 15:06:49.447
69.0, -289.1391453742981, -586.6556666493416, -1986.8742100596428, -214.70017665624619, 0.06400000303983688, 0.0, 1.008000047877431, 0.0, 0.0, 0.0, 0.0, 0.0, 1.7075956094484243E9, 0.0, 2024-02-10 15:06:49.448
69.0, -300.1494108438492, -622.5587062239647, -2023.7346640229225, -234.80587881803513, 0.06400000303983688, 0.0, 1.008000047877431, 0.0, 0.0, 0.0, 0.0, 0.0, 1.7075956094484243E9, 0.0, 2024-02-10 15:06:49.448
70.0, -287.9423773884773, -634.7657396793365, -2057.9622284173965, -219.96595579385757, 0.06400000303983688, 0.0, 1.008000047877431, 0.0, 0.0, 0.0, 0.0, 0.0, 1.7075956094593735E9, 0.0, 2024-02-10 15:06:49.459
70.0, -288.6604381799698, -593.596920967102, -2001.235425889492, -201.77508240938187, 0.06400000303983688, 0.0, 1.008000047877431, 0.0, 0.0, 0.0, 0.0, 0.0, 1.7075956094593735E9, 0.0, 2024-02-10 15:06:49.459
71.0, -299.6707036495209, -607.9581367969513, -2000.5173650979996, -218.05112701654434, 0.06400000303983688, 0.0, 1.008000047877431, 0.0, 0.0, 0.0, 0.0, 0.0, 1.7075956094743714E9, 0.0, 2024-02-10 15:06:49.474
71.0, -283.8733662366867, -639.0741044282913, -2062.988653957844, -228.34333169460297, 0.06400000303983688, 0.0, 1.008000047877431, 0.0, 0.0, 0.0, 0.0, 0.0, 1.7075956094743714E9, 0.0, 2024-02-10 15:06:49.474
72.0, -284.59142702817917, -601.256236076355, -2028.2823823690414, -209.4343975186348, 0.06400000303983688, 0.0, 1.008000047877431, 0.0, 0.0, 0.0, 0.0, 0.0, 1.7075956094901478E9, 0.0, 2024-02-10 15:06:49.490
72.0, -295.60169249773026, -592.8788601756096, -1994.0548179745674, -220.20530939102173, 0.06400000303983688, 0.0, 1.008000047877431, 0.0, 0.0, 0.0, 0.0, 0.0, 1.7075956094901478E9, 0.0, 2024-02-10 15:06:49.490
73.0, -287.22431659698486, -625.6703029870987, -2052.9358028769493, -236.9600611925125, 0.06400000303983688, 0.0, 1.008000047877431, 0.0, 0.0, 0.0, 0.0, 0.0, 1.7075956094907155E9, 0.0, 2024-02-10 15:06:49.490
73.0, -286.9849629998207, -620.8832310438156, -2047.909377336502, -212.78534787893295, 0.06400000303983688, 0.0, 1.008000047877431, 0.0, 0.0, 0.0, 0.0, 0.0, 1.7075956094907155E9, 0.0, 2024-02-10 15:06:49.490
74.0, -287.463670194149, -587.1343738436699, -1988.5496852397919, -219.48724859952927, 0.06400000303983688, 0.0, 1.008000047877431, 0.0, 0.0, 0.0, 0.0, 0.0, 1.7075956095041835E9, 0.0, 2024-02-10 15:06:49.504
74.0, -293.9262173175812, -625.6703029870987, -2031.3939791321754, -236.4813539981842, 0.06400000303983688, 0.0, 1.008000047877431, 0.0, 0.0, 0.0, 0.0, 0.0, 1.7075956095041835E9, 0.0, 2024-02-10 15:06:49.504
75.0, -287.22431659698486, -633.8083252906799, -2072.56279784441, -230.49751406908035, 0.06400000303983688, 0.0, 1.008000047877431, 0.0, 0.0, 0.0, 0.0, 0.0, 1.707595609519982E9, 0.0, 2024-02-10 15:06:49.519
75.0, -281.7191838622093, -584.5014842748642, -2005.3044370412827, -212.5459942817688, 0.06400000303983688, 0.0, 1.008000047877431, 0.0, 0.0, 0.0, 0.0, 0.0, 1.707595609519982E9, 0.0, 2024-02-10 15:06:49.519
76.0, -303.2610076069832, -610.8303799629211, -2013.442459344864, -235.28458601236343, 0.06400000303983688, 0.0, 1.008000047877431, 0.0, 0.0, 0.0, 0.0, 0.0, 1.7075956095205553E9, 0.0, 2024-02-10 15:06:49.520
76.0, -292.2507421374321, -638.8347508311272, -2074.7169802188873, -237.19941478967667, 0.06400000303983688, 0.0, 1.008000047877431, 0.0, 0.0, 0.0, 0.0, 0.0, 1.7075956095205553E9, 0.0, 2024-02-10 15:06:49.520
77.0, -281.240476667881, -601.7349432706833, -2029.7185039520264, -210.15245831012726, 0.06400000303983688, 0.0, 1.008000047877431, 0.0, 0.0, 0.0, 0.0, 0.0, 1.7075956095342085E9, 0.0, 2024-02-10 15:06:49.534
77.0, -299.19199645519257, -594.3149817585945, -1991.1825748085976, -219.48724859952927, 0.06400000303983688, 0.0, 1.008000047877431, 0.0, 0.0, 0.0, 0.0, 0.0, 1.7075956095342085E9, 0.0, 2024-02-10 15:06:49.534
78.0, -290.8146205544472, -628.5425461530685, -2049.345498919487, -233.3697572350502, 0.06400000303983688, 0.0, 1.008000047877431, 0.0, 0.0, 0.0, 0.0, 0.0, 1.707595609549875E9, 0.0, 2024-02-10 15:06:49.549
78.0, -278.128879904747, -608.6761975884438, -2046.233902156353, -214.46082305908203, 0.06400000303983688, 0.0, 1.008000047877431, 0.0, 0.0, 0.0, 0.0, 0.0, 1.707595609549875E9, 0.0, 2024-02-10 15:06:49.549
79.0, -291.2933277487755, -586.6556666493416, -1987.352917253971, -208.71633672714233, 0.06400000303983688, 0.0, 1.008000047877431, 0.0, 0.0, 0.0, 0.0, 0.0, 1.7075956095505724E9, 0.0, 2024-02-10 15:06:49.550
