%OpenBCI Raw EXG Data
%Number of channels = 4
%Sample Rate = 200 Hz
%Board = OpenBCI_GUI$BoardGanglionBLE
Sample Index, EXG Channel 0, EXG Channel 1, EXG Channel 2, EXG Channel 3, Accel Channel 0, Accel Channel 1, Accel Channel 2, Other, Other, Other, Other, Other, Timestamp, Other, Timestamp (Formatted)
65.0, -566.7893180847168, -723.0872170329094, -545.9655551314354, -424.134574174881, 0.0, 0.0, 0.0, 0.0, 0.0, 0.0, 0.0, 0.0, 1.706387777664476E9, 0.0, 2024-01-27 15:36:17.664
65.0, 0.0, 0.0, 0.0, 0.0, 0.0, 0.0, 0.0, 0.0, 0.0, 0.0, 0.0, 0.0, 1.706387777664476E9, 0.0, 2024-01-27 15:36:17.664
0.0, -472.9627079963684, -716.1459627151489, -546.2049087285995, -297.0378140807152, 0.0, 0.0, 1.008000047877431, 0.0, 0.0, 0.0, 0.0, 0.0, 1.7063877777072198E9, 0.0, 2024-01-27 15:36:17.707
0.0, -591.4427385926247, -726.4381673932076, -543.811372756958, -445.4370443224907, 0.0, 0.0, 1.008000047877431, 0.0, 0.0, 0.0, 0.0, 0.0, 1.7063877777072198E9, 0.0, 2024-01-27 15:36:17.707
1.0, -542.8539583683014, -734.5761896967888, -552.1887486577034, -421.74103820323944, 0.0, -1.008000047877431, 1.008000047877431, 0.0, 0.0, 0.0, 0.0, 0.0, 1.7063877777218528E9, 0.0, 2024-01-27 15:36:17.721
1.0, -453.57506662607193, -720.6936810612679, -554.3429310321808, -291.2933277487755, 0.0, -1.008000047877431, 1.008000047877431, 0.0, 0.0, 0.0, 0.0, 0.0, 1.7063877777218528E9, 0.0, 2024-01-27 15:36:17.721
2.0, -555.5396990180016, -722.1298026442528, -558.4119421839714, -401.6353360414505, -1.008000047877431, -1.008000047877431, 1.008000047877431, 0.0, 0.0, 0.0, 0.0, 0.0, 1.706387777736334E9, 0.0, 2024-01-27 15:36:17.736
2.0, -590.7246778011322, -747.5012839436531, -556.7364670038223, -472.4840008020401, -1.008000047877431, -1.008000047877431, 1.008000047877431, 0.0, 0.0, 0.0, 0.0, 0.0, 1.706387777736334E9, 0.0, 2024-01-27 15:36:17.736
3.0, -468.4149896502495, -736.9697256684303, -563.1990141272545, -329.350549697876, -1.008000047877431, -1.008000047877431, 1.008000047877431, 0.0, 0.0, 0.0, 0.0, 0.0, 1.7063877777370768E9, 0.0, 2024-01-27 15:36:17.737
3.0, -518.4398914575577, -725.7201066017151, -553.14616304636, -345.14788711071014, -1.008000047877431, -1.008000047877431, 1.008000047877431, 0.0, 0.0, 0.0, 0.0, 0.0, 1.7063877777370768E9, 0.0, 2024-01-27 15:36:17.737
4.0, -606.5220152139664, -737.6877864599228, -556.7364670038223, -478.46784073114395, -1.008000047877431, -1.008000047877431, 1.008000047877431, 0.0, 0.0, 0.0, 0.0, 0.0, 1.706387777751202E9, 0.0, 2024-01-27 15:36:17.751
4.0, -500.7277252674103, -738.8845544457436, -565.8319036960602, -376.024501144886, -1.008000047877431, -1.008000047877431, 1.008000047877431, 0.0, 0.0, 0.0, 0.0, 0.0, 1.706387777751202E9, 0.0, 2024-01-27 15:36:17.751
5.0, -477.98913353681564, -723.5659242272377, -554.3429310321808, -308.04807955026627, -1.008000047877431, -1.008000047877431, 1.008000047877431, 0.0, 0.0, 0.0, 0.0, 0.0, 1.706387777766373E9, 0.0, 2024-01-27 15:36:17.766
5.0, -596.9478713274002, -736.7303720712662, -548.3590911030769, -452.6176522374153, -1.008000047877431, -1.008000047877431, 1.008000047877431, 0.0, 0.0, 0.0, 0.0, 0.0, 1.706387777766373E9, 0.0, 2024-01-27 15:36:17.766
6.0, -544.5294335484505, -741.038736820221, -552.6674558520317, -427.96423172950745, -1.008000047877431, -1.008000047877431, 1.008000047877431, 0.0, 0.0, 0.0, 0.0, 0.0, 1.706387777767134E9, 0.0, 2024-01-27 15:36:17.767
6.0, -449.26670187711716, -718.5394986867905, -550.5132734775543, -290.0965597629547, -1.008000047877431, -1.008000047877431, 1.008000047877431, 0.0, 0.0, 0.0, 0.0, 0.0, 1.706387777767134E9, 0.0, 2024-01-27 15:36:17.767
7.0, -548.3590911030769, -718.5394986867905, -547.6410303115845, -394.9334353208542, -1.008000047877431, -1.008000047877431, 1.008000047877431, 0.0, 0.0, 0.0, 0.0, 0.0, 1.7063877777806954E9, 0.0, 2024-01-27 15:36:17.780
7.0, -568.4647932648659, -726.6775209903717, -544.5294335484505, -457.8834313750267, -1.008000047877431, -1.008000047877431, 1.008000047877431, 0.0, 0.0, 0.0, 0.0, 0.0, 1.7063877777806954E9, 0.0, 2024-01-27 15:36:17.780
8.0, -454.7718346118927, -724.7626922130585, -550.2739198803902, -318.10093063116074, -1.008000047877431, -1.008000047877431, 1.008000047877431, 0.0, 0.0, 0.0, 0.0, 0.0, 1.7063877777974427E9, 0.0, 2024-01-27 15:36:17.797
8.0, -511.4986371397972, -719.4969130754471, -544.2900799512863, -337.72792559862137, -1.008000047877431, -1.008000047877431, 1.008000047877431, 0.0, 0.0, 0.0, 0.0, 0.0, 1.7063877777974427E9, 0.0, 2024-01-27 15:36:17.797
9.0, -600.7775288820267, -735.2942504882812, -546.4442623257637, -475.35624396800995, -1.008000047877431, -1.008000047877431, 1.008000047877431, 0.0, 0.0, 0.0, 0.0, 0.0, 1.7063877777978592E9, 0.0, 2024-01-27 15:36:17.797
9.0, -501.92449325323105, -739.1239080429077, -551.4706878662109, -366.92906445264816, -1.008000047877431, -1.008000047877431, 1.008000047877431, 0.0, 0.0, 0.0, 0.0, 0.0, 1.7063877777978592E9, 0.0, 2024-01-27 15:36:17.797
10.0, -472.0052936077118, -717.1033771038055, -542.8539583683014, -293.686863720417, -1.008000047877431, -1.008000047877431, 0.6240000296384096, 0.0, 0.0, 0.0, 0.0, 0.0, 1.7063877778271813E9, 0.0, 2024-01-27 15:36:17.827
10.0, -602.6923576593399, -741.2780904173851, -547.6410303115845, -442.804154753685, -1.008000047877431, -1.008000047877431, 0.6240000296384096, 0.0, 0.0, 0.0, 0.0, 0.0, 1.7063877778271813E9, 0.0, 2024-01-27 15:36:17.827
11.0, -549.3165054917336, -740.3206760287285, -551.9493950605392, -421.5016846060753, -1.008000047877431, -0.6240000296384096, 0.6240000296384096, 0.0, 0.0, 0.0, 0.0, 0.0, 1.7063877778278391E9, 0.0, 2024-01-27 15:36:17.827
11.0, -459.0801993608475, -726.6775209903717, -554.8216382265091, -291.7720349431038, -1.008000047877431, -0.6240000296384096, 0.6240000296384096, 0.0, 0.0, 0.0, 0.0, 0.0, 1.7063877778278391E9, 0.0, 2024-01-27 15:36:17.827
12.0, -562.0022461414337, -730.267824947834, -557.9332349896431, -390.86442416906357, -0.6240000296384096, -0.6240000296384096, 0.6240000296384096, 0.0, 0.0, 0.0, 0.0, 0.0, 1.7063877778285556E9, 0.0, 2024-01-27 15:36:17.828
12.0, -600.0594680905342, -754.9212454557419, -564.6351357102394, -470.56917202472687, -0.6240000296384096, -0.6240000296384096, 0.6240000296384096, 0.0, 0.0, 0.0, 0.0, 0.0, 1.7063877778285556E9, 0.0, 2024-01-27 15:36:17.828
13.0, -474.39882957935333, -744.6290407776833, -557.2151741981506, -325.5208921432495, -0.6240000296384096, -0.6240000296384096, 0.6240000296384096, 0.0, 0.0, 0.0, 0.0, 0.0, 1.7063877778406248E9, 0.0, 2024-01-27 15:36:17.840
13.0, -520.5940738320351, -730.7465321421623, -554.3429310321808, -343.47241193056107, -0.6240000296384096, -0.6240000296384096, 0.6240000296384096, 0.0, 0.0, 0.0, 0.0, 0.0, 1.7063877778406248E9, 0.0, 2024-01-27 15:36:17.840
14.0, -609.6336119771004, -744.3896871805191, -557.6938813924789, -471.76594001054764, -0.6240000296384096, -0.6240000296384096, 0.6240000296384096, 0.0, 0.0, 0.0, 0.0, 0.0, 1.7063877778563063E9, 0.0, 2024-01-27 15:36:17.856
14.0, -505.2754436135292, -742.4748584032059, -560.805478155613, -367.6471252441406, -0.6240000296384096, -0.6240000296384096, 0.6240000296384096, 0.0, 0.0, 0.0, 0.0, 0.0, 1.7063877778563063E9, 0.0, 2024-01-27 15:36:17.856
15.0, -477.031719148159, -722.8478634357452, -546.4442623257637, -301.5855324268341, -0.6240000296384096, -0.6240000296384096, 0.6240000296384096, 0.0, 0.0, 0.0, 0.0, 0.0, 1.7063877778570337E9, 0.0, 2024-01-27 15:36:17.857
15.0, -592.6395065784454, -731.7039465308189, -547.1623231172562, -443.52221554517746, -0.6240000296384096, -0.6240000296384096, 0.6240000296384096, 0.0, 0.0, 0.0, 0.0, 0.0, 1.7063877778570337E9, 0.0, 2024-01-27 15:36:17.857
16.0, -540.699775993824, -741.038736820221, -544.7687871456146, -417.911380648613, -0.6240000296384096, -0.6240000296384096, 0.6240000296384096, 0.0, 0.0, 0.0, 0.0, 0.0, 1.7063877778721373E9, 0.0, 2024-01-27 15:36:17.872
16.0, -456.4473097920418, -721.8904490470886, -547.4016767144203, -292.01138854026794, -0.6240000296384096, -0.6240000296384096, 0.6240000296384096, 0.0, 0.0, 0.0, 0.0, 0.0, 1.7063877778721373E9, 0.0, 2024-01-27 15:36:17.872
17.0, -551.2313342690468, -716.6246699094772, -536.1520576477051, -386.31670582294464, -0.6240000296384096, -0.6240000296384096, 0.6240000296384096, 0.0, 0.0, 0.0, 0.0, 0.0, 1.7063877778862936E9, 0.0, 2024-01-27 15:36:17.886
17.0, -575.8847547769547, -734.8155432939529, -543.5720191597939, -457.4047241806984, -0.6240000296384096, -0.6240000296384096, 0.6240000296384096, 0.0, 0.0, 0.0, 0.0, 0.0, 1.7063877778862936E9, 0.0, 2024-01-27 15:36:17.886
18.0, -452.138945043087, -719.0182058811188, -545.0081407427788, -306.13325077295303, -0.6240000296384096, -0.6240000296384096, 0.6240000296384096, 0.0, 0.0, 0.0, 0.0, 0.0, 1.7063877778870246E9, 0.0, 2024-01-27 15:36:17.887
18.0, -503.5999684333801, -714.9491947293282, -540.4604223966599, -333.8982680439949, -0.6240000296384096, -0.6240000296384096, 0.6240000296384096, 0.0, 0.0, 0.0, 0.0, 0.0, 1.7063877778870246E9, 0.0, 2024-01-27 15:36:17.887
19.0, -591.4427385926247, -731.7039465308189, -546.922969520092, -465.7821000814438, -0.6240000296384096, -0.6240000296384096, 0.6240000296384096, 0.0, 0.0, 0.0, 0.0, 0.0, 1.7063877779008565E9, 0.0, 2024-01-27 15:36:17.900
19.0, -489.95681339502335, -732.6613609194756, -547.1623231172562, -361.18457812070847, -0.6240000296384096, -0.6240000296384096, 0.6240000296384096, 0.0, 0.0, 0.0, 0.0, 0.0, 1.7063877779008565E9, 0.0, 2024-01-27 15:36:17.900
20.0, -469.8511112332344, -719.0182058811188, -546.2049087285995, -303.02165400981903, -0.6240000296384096, -0.6240000296384096, 0.8160000387579203, 0.0, 0.0, 0.0, 0.0, 0.0, 1.7063877779162955E9, 0.0, 2024-01-27 15:36:17.916
20.0, -594.3149817585945, -730.267824947834, -553.14616304636, -448.5486410856247, -0.6240000296384096, -0.6240000296384096, 0.8160000387579203, 0.0, 0.0, 0.0, 0.0, 0.0, 1.7063877779162955E9, 0.0, 2024-01-27 15:36:17.916
21.0, -549.0771518945694, -744.3896871805191, -561.0448317527771, -427.48552453517914, -0.6240000296384096, -0.8160000387579203, 0.8160000387579203, 0.0, 0.0, 0.0, 0.0, 0.0, 1.7063877779170208E9, 0.0, 2024-01-27 15:36:17.917
21.0, -463.38856410980225, -729.0710569620132, -557.9332349896431, -301.1068252325058, -0.6240000296384096, -0.8160000387579203, 0.8160000387579203, 0.0, 0.0, 0.0, 0.0, 0.0, 1.7063877779170208E9, 0.0, 2024-01-27 15:36:17.917
22.0, -566.5499644875526, -733.379421710968, -557.6938813924789, -402.35339683294296, -0.8160000387579203, -0.8160000387579203, 0.8160000387579203, 0.0, 0.0, 0.0, 0.0, 0.0, 1.7063877779306517E9, 0.0, 2024-01-27 15:36:17.930
22.0, -594.7936889529228, -752.049002289772, -567.2680252790451, -475.5955975651741, -0.8160000387579203, -0.8160000387579203, 0.8160000387579203, 0.0, 0.0, 0.0, 0.0, 0.0, 1.7063877779306517E9, 0.0, 2024-01-27 15:36:17.930
23.0, -473.4414151906967, -741.5174440145493, -564.8744893074036, -329.58990329504013, -0.8160000387579203, -0.8160000387579203, 0.8160000387579203, 0.0, 0.0, 0.0, 0.0, 0.0, 1.706387777946346E9, 0.0, 2024-01-27 15:36:17.946
23.0, -515.0889410972595, -724.044631421566, -558.4119421839714, -345.14788711071014, -0.8160000387579203, -0.8160000387579203, 0.8160000387579203, 0.0, 0.0, 0.0, 0.0, 0.0, 1.706387777946346E9, 0.0, 2024-01-27 15:36:17.946
24.0, -613.4632695317268, -744.8683943748474, -557.4545277953148, -477.7497799396515, -0.8160000387579203, -0.8160000387579203, 0.8160000387579203, 0.0, 0.0, 0.0, 0.0, 0.0, 1.7063877779471474E9, 0.0, 2024-01-27 15:36:17.947
24.0, -500.96707886457443, -739.3632616400719, -559.369356572628, -375.30644035339355, -0.8160000387579203, -0.8160000387579203, 0.8160000387579203, 0.0, 0.0, 0.0, 0.0, 0.0, 1.7063877779471474E9, 0.0, 2024-01-27 15:36:17.947
25.0, -470.3298184275627, -717.5820842981339, -551.9493950605392, -304.93648278713226, -0.8160000387579203, -0.8160000387579203, 0.8160000387579203, 0.0, 0.0, 0.0, 0.0, 0.0, 1.7063877779606333E9, 0.0, 2024-01-27 15:36:17.960
25.0, -586.4163130521774, -730.9858857393265, -550.5132734775543, -446.3944587111473, -0.8160000387579203, -0.8160000387579203, 0.8160000387579203, 0.0, 0.0, 0.0, 0.0, 0.0, 1.7063877779606333E9, 0.0, 2024-01-27 15:36:17.960
26.0, -540.9391295909882, -736.2516648769379, -552.6674558520317, -423.6558669805527, -0.8160000387579203, -0.8160000387579203, 0.8160000387579203, 0.0, 0.0, 0.0, 0.0, 0.0, 1.7063877779765196E9, 0.0, 2024-01-27 15:36:17.976
26.0, -452.6176522374153, -719.2575594782829, -548.1197375059128, -298.23458206653595, -0.8160000387579203, -0.8160000387579203, 0.8160000387579203, 0.0, 0.0, 0.0, 0.0, 0.0, 1.7063877779765196E9, 0.0, 2024-01-27 15:36:17.976
27.0, -553.3855166435242, -720.2149738669395, -552.1887486577034, -400.1992144584656, -0.8160000387579203, -0.8160000387579203, 0.8160000387579203, 0.0, 0.0, 0.0, 0.0, 0.0, 1.7063877779772203E9, 0.0, 2024-01-27 15:36:17.977
27.0, -583.3047162890434, -740.5600296258926, -558.6512957811356, -465.7821000814438, -0.8160000387579203, -0.8160000387579203, 0.8160000387579203, 0.0, 0.0, 0.0, 0.0, 0.0, 1.7063877779772203E9, 0.0, 2024-01-27 15:36:17.977
28.0, -459.3195529580116, -731.7039465308189, -563.1990141272545, -329.1111961007118, -0.8160000387579203, -0.8160000387579203, 0.8160000387579203, 0.0, 0.0, 0.0, 0.0, 0.0, 1.70638777799063E9, 0.0, 2024-01-27 15:36:17.990
28.0, -500.7277252674103, -713.0343659520149, -552.4281022548676, -342.7543511390686, -0.8160000387579203, -0.8160000387579203, 0.8160000387579203, 0.0, 0.0, 0.0, 0.0, 0.0, 1.70638777799063E9, 0.0, 2024-01-27 15:36:17.990
29.0, -592.8788601756096, -735.5336040854454, -556.257759809494, -476.0743047595024, -0.8160000387579203, -0.8160000387579203, 0.8160000387579203, 0.0, 0.0, 0.0, 0.0, 0.0, 1.7063877780063963E9, 0.0, 2024-01-27 15:36:18.006
29.0, -487.32392382621765, -735.0548968911171, -554.5822846293449, -371.71613639593124, -0.8160000387579203, -0.8160000387579203, 0.8160000387579203, 0.0, 0.0, 0.0, 0.0, 0.0, 1.7063877780063963E9, 0.0, 2024-01-27 15:36:18.006
30.0, -459.5589065551758, -712.0769515633583, -547.8803839087486, -304.2184219956398, -0.8160000387579203, -0.8160000387579203, 0.9120000433176756, 0.0, 0.0, 0.0, 0.0, 0.0, 1.70638777800713E9, 0.0, 2024-01-27 15:36:18.007
30.0, -584.9801914691925, -725.9594601988792, -546.6836159229279, -445.915751516819, -0.8160000387579203, -0.8160000387579203, 0.9120000433176756, 0.0, 0.0, 0.0, 0.0, 0.0, 1.70638777800713E9, 0.0, 2024-01-27 15:36:18.007
31.0, -537.1094720363617, -735.2942504882812, -548.3590911030769, -420.7836238145828, -0.8160000387579203, -0.9120000433176756, 0.9120000433176756, 0.0, 0.0, 0.0, 0.0, 0.0, 1.7063877780206485E9, 0.0, 2024-01-27 15:36:18.020
31.0, -449.9847626686096, -720.4543274641037, -550.5132734775543, -297.27716767787933, -0.8160000387579203, -0.9120000433176756, 0.9120000433176756, 0.0, 0.0, 0.0, 0.0, 0.0, 1.7063877780206485E9, 0.0, 2024-01-27 15:36:18.020
32.0, -547.8803839087486, -713.9917803406715, -542.1358975768089, -392.3005457520485, -0.9120000433176756, -0.9120000433176756, 0.9120000433176756, 0.0, 0.0, 0.0, 0.0, 0.0, 1.706387778036615E9, 0.0, 2024-01-27 15:36:18.036
32.0, -579.9537659287453, -741.038736820221, -552.9068094491959, -464.34597849845886, -0.9120000433176756, -0.9120000433176756, 0.9120000433176756, 0.0, 0.0, 0.0, 0.0, 0.0, 1.706387778036615E9, 0.0, 2024-01-27 15:36:18.036
33.0, -465.7821000814438, -737.4484328627586, -556.257759809494, -322.64864897727966, -0.9120000433176756, -0.9120000433176756, 0.9120000433176756, 0.0, 0.0, 0.0, 0.0, 0.0, 1.7063877780371284E9, 0.0, 2024-01-27 15:36:18.037
33.0, -509.583808362484, -720.6936810612679, -556.0184062123299, -341.0788759589195, -0.9120000433176756, -0.9120000433176756, 0.9120000433176756, 0.0, 0.0, 0.0, 0.0, 0.0, 1.7063877780371284E9, 0.0, 2024-01-27 15:36:18.037
34.0, -597.1872249245644, -737.2090792655945, -546.6836159229279, -469.3724040389061, -0.9120000433176756, -0.9120000433176756, 0.9120000433176756, 0.0, 0.0, 0.0, 0.0, 0.0, 1.706387778050629E9, 0.0, 2024-01-27 15:36:18.050
34.0, -495.4619461297989, -736.7303720712662, -556.257759809494, -369.801307618618, -0.9120000433176756, -0.9120000433176756, 0.9120000433176756, 0.0, 0.0, 0.0, 0.0, 0.0, 1.706387778050629E9, 0.0, 2024-01-27 15:36:18.050
35.0, -479.42525511980057, -722.6085098385811, -557.6938813924789, -307.3300187587738, -0.9120000433176756, -0.9120000433176756, 0.9120000433176756, 0.0, 0.0, 0.0, 0.0, 0.0, 1.706387778066579E9, 0.0, 2024-01-27 15:36:18.066
35.0, -585.2195450663567, -729.0710569620132, -553.14616304636, -447.83058029413223, -0.9120000433176756, -0.9120000433176756, 0.9120000433176756, 0.0, 0.0, 0.0, 0.0, 0.0, 1.706387778066579E9, 0.0, 2024-01-27 15:36:18.066
36.0, -537.1094720363617, -737.927140057087, -557.9332349896431, -425.0919885635376, -0.9120000433176756, -0.9120000433176756, 0.9120000433176756, 0.0, 0.0, 0.0, 0.0, 0.0, 1.7063877780671606E9, 0.0, 2024-01-27 15:36:18.067
36.0, -450.4634698629379, -721.8904490470886, -559.6087101697922, -294.8836317062378, -0.9120000433176756, -0.9120000433176756, 0.9120000433176756, 0.0, 0.0, 0.0, 0.0, 0.0, 1.7063877780671606E9, 0.0, 2024-01-27 15:36:18.067
37.0, -544.0507263541222, -718.0607914924622, -544.5294335484505, -387.9921810030937, -0.9120000433176756, -0.9120000433176756, 0.9120000433176756, 0.0, 0.0, 0.0, 0.0, 0.0, 1.7063877780806658E9, 0.0, 2024-01-27 15:36:18.080
37.0, -570.8583292365074, -733.379421710968, -549.3165054917336, -457.64407777786255, -0.9120000433176756, -0.9120000433176756, 0.9120000433176756, 0.0, 0.0, 0.0, 0.0, 0.0, 1.7063877780806658E9, 0.0, 2024-01-27 15:36:18.080
38.0, -447.11251950263977, -720.6936810612679, -545.7262015342712, -310.68096911907196, -0.9120000433176756, -0.9120000433176756, 0.9120000433176756, 0.0, 0.0, 0.0, 0.0, 0.0, 1.7063877780966983E9, 0.0, 2024-01-27 15:36:18.096
38.0, -494.5045317411423, -707.2898796200752, -541.4178367853165, -332.2227928638458, -0.9120000433176756, -0.9120000433176756, 0.9120000433176756, 0.0, 0.0, 0.0, 0.0, 0.0, 1.7063877780966983E9, 0.0, 2024-01-27 15:36:18.096
39.0, -578.038937151432, -719.2575594782829, -541.1784831881523, -466.02145367860794, -0.9120000433176756, -0.9120000433176756, 0.9120000433176756, 0.0, 0.0, 0.0, 0.0, 0.0, 1.7063877780971868E9, 0.0, 2024-01-27 15:36:18.097
39.0, -478.94654792547226, -717.1033771038055, -547.4016767144203, -367.40777164697647, -0.9120000433176756, -0.9120000433176756, 0.9120000433176756, 0.0, 0.0, 0.0, 0.0, 0.0, 1.7063877780971868E9, 0.0, 2024-01-27 15:36:18.097
40.0, -451.42088425159454, -708.7260012030602, -544.2900799512863, -298.71328926086426, -0.9120000433176756, -0.9120000433176756, 0.9600000455975533, 0.0, 0.0, 0.0, 0.0, 0.0, 1.706387778110628E9, 0.0, 2024-01-27 15:36:18.110
40.0, -576.8421691656113, -719.9756202697754, -546.4442623257637, -445.67639791965485, -0.9120000433176756, -0.9120000433176756, 0.9600000455975533, 0.0, 0.0, 0.0, 0.0, 0.0, 1.706387778110628E9, 0.0, 2024-01-27 15:36:18.110
41.0, -526.8172673583031, -726.6775209903717, -547.1623231172562, -423.17715978622437, -0.9120000433176756, -0.9600000455975533, 0.9600000455975533, 0.0, 0.0, 0.0, 0.0, 0.0, 1.706387778126443E9, 0.0, 2024-01-27 15:36:18.126
41.0, -435.14483964443207, -709.6834155917168, -544.2900799512863, -289.6178525686264, -0.9120000433176756, -0.9600000455975533, 0.9600000455975533, 0.0, 0.0, 0.0, 0.0, 0.0, 1.706387778126443E9, 0.0, 2024-01-27 15:36:18.126
42.0, -534.476582467556, -707.0505260229111, -536.1520576477051, -386.31670582294464, -0.9600000455975533, -0.9600000455975533, 0.9600000455975533, 0.0, 0.0, 0.0, 0.0, 0.0, 1.706387778127322E9, 0.0, 2024-01-27 15:36:18.127
42.0, -564.8744893074036, -724.044631421566, -543.811372756958, -457.4047241806984, -0.9600000455975533, -0.9600000455975533, 0.9600000455975533, 0.0, 0.0, 0.0, 0.0, 0.0, 1.706387778127322E9, 0.0, 2024-01-27 15:36:18.127
43.0, -448.0699338912964, -718.7788522839546, -546.6836159229279, -315.7073946595192, -0.9600000455975533, -0.9600000455975533, 0.9600000455975533, 0.0, 0.0, 0.0, 0.0, 0.0, 1.7063877781406436E9, 0.0, 2024-01-27 15:36:18.140
43.0, -500.0096644759178, -704.4176364541054, -542.1358975768089, -335.573743224144, -0.9600000455975533, -0.9600000455975533, 0.9600000455975533, 0.0, 0.0, 0.0, 0.0, 0.0, 1.7063877781406436E9, 0.0, 2024-01-27 15:36:18.140
44.0, -590.2459706068039, -725.4807530045509, -548.1197375059128, -469.61175763607025, -0.9600000455975533, -0.9600000455975533, 0.9600000455975533, 0.0, 0.0, 0.0, 0.0, 0.0, 1.706387778156375E9, 0.0, 2024-01-27 15:36:18.156
44.0, -486.1271558403969, -725.0020458102226, -545.2474943399429, -365.49294286966324, -0.9600000455975533, -0.9600000455975533, 0.9600000455975533, 0.0, 0.0, 0.0, 0.0, 0.0, 1.706387778156375E9, 0.0, 2024-01-27 15:36:18.156
45.0, -466.50016087293625, -711.1195371747017, -545.7262015342712, -299.910057246685, -0.9600000455975533, -0.9600000455975533, 0.9600000455975533, 0.0, 0.0, 0.0, 0.0, 0.0, 1.706387778157072E9, 0.0, 2024-01-27 15:36:18.157
45.0, -586.4163130521774, -726.4381673932076, -546.922969520092, -448.5486410856247, -0.9600000455975533, -0.9600000455975533, 0.9600000455975533, 0.0, 0.0, 0.0, 0.0, 0.0, 1.706387778157072E9, 0.0, 2024-01-27 15:36:18.157
46.0, -534.476582467556, -735.7729576826096, -553.3855166435242, -422.69845259189606, -0.9600000455975533, -0.9600000455975533, 0.9600000455975533, 0.0, 0.0, 0.0, 0.0, 0.0, 1.7063877781710556E9, 0.0, 2024-01-27 15:36:18.171
46.0, -463.6279177069664, -727.6349353790283, -555.3003454208374, -294.4049245119095, -0.9600000455975533, -0.9600000455975533, 0.9600000455975533, 0.0, 0.0, 0.0, 0.0, 0.0, 1.7063877781710556E9, 0.0, 2024-01-27 15:36:18.171
47.0, -556.9758206009865, -726.1988137960434, -549.7952126860619, -398.5237392783165, -0.9600000455975533, -0.9600000455975533, 0.9600000455975533, 0.0, 0.0, 0.0, 0.0, 0.0, 1.7063877781863675E9, 0.0, 2024-01-27 15:36:18.186
47.0, -583.3047162890434, -744.8683943748474, -555.3003454208374, -468.8936968445778, -0.9600000455975533, -0.9600000455975533, 0.9600000455975533, 0.0, 0.0, 0.0, 0.0, 0.0, 1.7063877781863675E9, 0.0, 2024-01-27 15:36:18.186
48.0, -465.7821000814438, -731.2252393364906, -559.6087101697922, -325.0421849489212, -0.9600000455975533, -0.9600000455975533, 0.9600000455975533, 0.0, 0.0, 0.0, 0.0, 0.0, 1.7063877781870794E9, 0.0, 2024-01-27 15:36:18.187
48.0, -510.78057634830475, -722.6085098385811, -545.4868479371071, -336.5311576128006, -0.9600000455975533, -0.9600000455975533, 0.9600000455975533, 0.0, 0.0, 0.0, 0.0, 0.0, 1.7063877781870794E9, 0.0, 2024-01-27 15:36:18.187
49.0, -600.0594680905342, -738.4058472514153, -544.5294335484505, -465.54274648427963, -0.9600000455975533, -0.9600000455975533, 0.9600000455975533, 0.0, 0.0, 0.0, 0.0, 0.0, 1.706387778200946E9, 0.0, 2024-01-27 15:36:18.200
49.0, -494.5045317411423, -729.0710569620132, -553.3855166435242, -370.04066121578217, -0.9600000455975533, -0.9600000455975533, 0.9600000455975533, 0.0, 0.0, 0.0, 0.0, 0.0, 1.706387778200946E9, 0.0, 2024-01-27 15:36:18.200
50.0, -464.1066249012947, -709.2047083973885, -537.8275328278542, -293.2081565260887, -0.9600000455975533, -0.9600000455975533, 0.9760000463575125, 0.0, 0.0, 0.0, 0.0, 0.0, 1.7063877782164745E9, 0.0, 2024-01-27 15:36:18.216
50.0, -586.6556666493416, -723.0872170329094, -543.5720191597939, -440.1712651848793, -0.9600000455975533, -0.9600000455975533, 0.9760000463575125, 0.0, 0.0, 0.0, 0.0, 0.0, 1.7063877782164745E9, 0.0, 2024-01-27 15:36:18.216
51.0, -531.364985704422, -728.5923497676849, -542.1358975768089, -414.5604302883148, -0.9600000455975533, -0.9760000463575125, 0.9760000463575125, 0.0, 0.0, 0.0, 0.0, 0.0, 1.706387778217081E9, 0.0, 2024-01-27 15:36:18.217
51.0, -444.9583371281624, -714.4704875349998, -546.2049087285995, -292.01138854026794, -0.9600000455975533, -0.9760000463575125, 0.9760000463575125, 0.0, 0.0, 0.0, 0.0, 0.0, 1.706387778217081E9, 0.0, 2024-01-27 15:36:18.217
52.0, -542.8539583683014, -712.0769515633583, -538.7849472165108, -388.2315346002579, -0.9760000463575125, -0.9760000463575125, 0.9760000463575125, 0.0, 0.0, 0.0, 0.0, 0.0, 1.706387778230894E9, 0.0, 2024-01-27 15:36:18.230
52.0, -566.7893180847168, -732.6613609194756, -548.3590911030769, -457.64407777786255, -0.9760000463575125, -0.9760000463575125, 0.9760000463575125, 0.0, 0.0, 0.0, 0.0, 0.0, 1.706387778230894E9, 0.0, 2024-01-27 15:36:18.230
53.0, -451.6602378487587, -726.9168745875359, -553.8642238378525, -318.8189914226532, -0.9760000463575125, -0.9760000463575125, 0.9760000463575125, 0.0, 0.0, 0.0, 0.0, 0.0, 1.706387778246375E9, 0.0, 2024-01-27 15:36:18.246
53.0, -495.4619461297989, -710.4014763832092, -551.2313342690468, -338.685339987278, -0.9760000463575125, -0.9760000463575125, 0.9760000463575125, 0.0, 0.0, 0.0, 0.0, 0.0, 1.706387778246375E9, 0.0, 2024-01-27 15:36:18.246
54.0, -584.5014842748642, -725.7201066017151, -548.5984447002411, -474.6381831765175, -0.9760000463575125, -0.9760000463575125, 0.9760000463575125, 0.0, 0.0, 0.0, 0.0, 0.0, 1.706387778247066E9, 0.0, 2024-01-27 15:36:18.247
54.0, -487.5632774233818, -732.4220073223114, -548.5984447002411, -362.6206997036934, -0.9760000463575125, -0.9760000463575125, 0.9760000463575125, 0.0, 0.0, 0.0, 0.0, 0.0, 1.706387778247066E9, 0.0, 2024-01-27 15:36:18.247
55.0, -464.1066249012947, -713.2737195491791, -545.9655551314354, -302.0642396211624, -0.9760000463575125, -0.9760000463575125, 0.9760000463575125, 0.0, 0.0, 0.0, 0.0, 0.0, 1.7063877782611024E9, 0.0, 2024-01-27 15:36:18.261
55.0, -576.6028155684471, -719.0182058811188, -541.1784831881523, -444.00092273950577, -0.9760000463575125, -0.9760000463575125, 0.9760000463575125, 0.0, 0.0, 0.0, 0.0, 0.0, 1.7063877782611024E9, 0.0, 2024-01-27 15:36:18.261
56.0, -529.9288641214371, -732.4220073223114, -550.9919806718826, -423.8952205777168, -0.9760000463575125, -0.9760000463575125, 0.9760000463575125, 0.0, 0.0, 0.0, 0.0, 0.0, 1.7063877782763624E9, 0.0, 2024-01-27 15:36:18.276
56.0, -436.1022540330887, -707.5292332172394, -545.9655551314354, -288.6604381799698, -0.9760000463575125, -0.9760000463575125, 0.9760000463575125, 0.0, 0.0, 0.0, 0.0, 0.0, 1.7063877782763624E9, 0.0, 2024-01-27 15:36:18.276
57.0, -536.1520576477051, -706.5718188285828, -543.0933119654655, -392.7792529463768, -0.9760000463575125, -0.9760000463575125, 0.9760000463575125, 0.0, 0.0, 0.0, 0.0, 0.0, 1.7063877782770507E9, 0.0, 2024-01-27 15:36:18.277
57.0, -570.140268445015, -730.9858857393265, -552.1887486577034, -460.5163209438324, -0.9760000463575125, -0.9760000463575125, 0.9760000463575125, 0.0, 0.0, 0.0, 0.0, 0.0, 1.7063877782770507E9, 0.0, 2024-01-27 15:36:18.277
58.0, -455.250541806221, -728.3529961705208, -555.7790526151657, -324.5634777545929, -0.9760000463575125, -0.9760000463575125, 0.9760000463575125, 0.0, 0.0, 0.0, 0.0, 0.0, 1.7063877782909594E9, 0.0, 2024-01-27 15:36:18.290
58.0, -512.2166979312897, -723.0872170329094, -558.4119421839714, -349.4562518596649, -0.9760000463575125, -0.9760000463575125, 0.9760000463575125, 0.0, 0.0, 0.0, 0.0, 0.0, 1.7063877782909594E9, 0.0, 2024-01-27 15:36:18.290
59.0, -599.82011449337, -744.150333583355, -555.7790526151657, -480.8613767027855, -0.9760000463575125, -0.9760000463575125, 0.9760000463575125, 0.0, 0.0, 0.0, 0.0, 0.0, 1.7063877783068938E9, 0.0, 2024-01-27 15:36:18.306
59.0, -501.92449325323105, -745.5864551663399, -571.3370364308357, -379.6148051023483, -0.9760000463575125, -0.9760000463575125, 0.9760000463575125, 0.0, 0.0, 0.0, 0.0, 0.0, 1.7063877783068938E9, 0.0, 2024-01-27 15:36:18.306
60.0, -475.1168903708458, -725.7201066017151, -560.805478155613, -313.31385868787766, -0.9760000463575125, -0.9760000463575125, 0.9920000471174717, 0.0, 0.0, 0.0, 0.0, 0.0, 1.706387778307124E9, 0.0, 2024-01-27 15:36:18.307
60.0, -596.708517730236, -738.1664936542511, -553.3855166435242, -455.250541806221, -0.9760000463575125, -0.9760000463575125, 0.9920000471174717, 0.0, 0.0, 0.0, 0.0, 0.0, 1.706387778307124E9, 0.0, 2024-01-27 15:36:18.307
61.0, -544.0507263541222, -741.7567976117134, -559.6087101697922, -429.40035331249237, -0.9760000463575125, -0.9920000471174717, 0.9920000471174717, 0.0, 0.0, 0.0, 0.0, 0.0, 1.706387778320661E9, 0.0, 2024-01-27 15:36:18.320
61.0, -451.6602378487587, -719.7362666726112, -557.6938813924789, -297.9952284693718, -0.9760000463575125, -0.9920000471174717, 0.9920000471174717, 0.0, 0.0, 0.0, 0.0, 0.0, 1.706387778320661E9, 0.0, 2024-01-27 15:36:18.320
62.0, -550.034566283226, -722.1298026442528, -549.5558590888977, -399.0024464726448, -0.9920000471174717, -0.9920000471174717, 0.9920000471174717, 0.0, 0.0, 0.0, 0.0, 0.0, 1.706387778336406E9, 0.0, 2024-01-27 15:36:18.336
62.0, -574.4486331939697, -735.0548968911171, -559.1300029754639, -467.9362824559212, -0.9920000471174717, -0.9920000471174717, 0.9920000471174717, 0.0, 0.0, 0.0, 0.0, 0.0, 1.706387778336406E9, 0.0, 2024-01-27 15:36:18.336
63.0, -454.05377382040024, -725.0020458102226, -550.9919806718826, -319.7764058113098, -0.9920000471174717, -0.9920000471174717, 0.9920000471174717, 0.0, 0.0, 0.0, 0.0, 0.0, 1.7063877783370707E9, 0.0, 2024-01-27 15:36:18.337
63.0, -505.2754436135292, -716.8640235066414, -546.4442623257637, -341.3182295560837, -0.9920000471174717, -0.9920000471174717, 0.9920000471174717, 0.0, 0.0, 0.0, 0.0, 0.0, 1.7063877783370707E9, 0.0, 2024-01-27 15:36:18.337
64.0, -587.8524346351624, -730.0284713506699, -549.3165054917336, -472.9627079963684, -0.9920000471174717, -0.9920000471174717, 0.9920000471174717, 0.0, 0.0, 0.0, 0.0, 0.0, 1.7063877783507617E9, 0.0, 2024-01-27 15:36:18.350
64.0, -483.4942662715912, -726.9168745875359, -555.0609918236732, -375.5457939505577, -0.9920000471174717, -0.9920000471174717, 0.9920000471174717, 0.0, 0.0, 0.0, 0.0, 0.0, 1.7063877783507617E9, 0.0, 2024-01-27 15:36:18.350
65.0, -461.9524425268173, -710.4014763832092, -547.1623231172562, -307.56937235593796, -0.9920000471174717, -0.9920000471174717, 0.9920000471174717, 0.0, 0.0, 0.0, 0.0, 0.0, 1.706387778366829E9, 0.0, 2024-01-27 15:36:18.366
65.0, -574.927340388298, -717.5820842981339, -544.7687871456146, -443.52221554517746, -0.9920000471174717, -0.9920000471174717, 0.9920000471174717, 0.0, 0.0, 0.0, 0.0, 0.0, 1.706387778366829E9, 0.0, 2024-01-27 15:36:18.366
66.0, -528.9714497327805, -733.6187753081322, -551.7100414633751, -422.21974539756775, -0.9920000471174717, -0.9920000471174717, 0.9920000471174717, 0.0, 0.0, 0.0, 0.0, 0.0, 1.7063877783671913E9, 0.0, 2024-01-27 15:36:18.367
66.0, -444.00092273950577, -714.4704875349998, -550.9919806718826, -296.3197532892227, -0.9920000471174717, -0.9920000471174717, 0.9920000471174717, 0.0, 0.0, 0.0, 0.0, 0.0, 1.7063877783671913E9, 0.0, 2024-01-27 15:36:18.367
67.0, -549.3165054917336, -718.3001450896263, -548.3590911030769, -398.0450320839882, -0.9920000471174717, -0.9920000471174717, 0.9920000471174717, 0.0, 0.0, 0.0, 0.0, 0.0, 1.7063877783806689E9, 0.0, 2024-01-27 15:36:18.380
67.0, -570.6189756393433, -734.3368360996246, -550.5132734775543, -461.71308892965317, -0.9920000471174717, -0.9920000471174717, 0.9920000471174717, 0.0, 0.0, 0.0, 0.0, 0.0, 1.7063877783806689E9, 0.0, 2024-01-27 15:36:18.380
68.0, -454.53248101472855, -725.4807530045509, -547.4016767144203, -319.05834501981735, -0.9920000471174717, -0.9920000471174717, 0.9920000471174717, 0.0, 0.0, 0.0, 0.0, 0.0, 1.7063877783966048E9, 0.0, 2024-01-27 15:36:18.396
68.0, -501.6851396560669, -714.709841132164, -550.034566283226, -348.25948387384415, -0.9920000471174717, -0.9920000471174717, 0.9920000471174717, 0.0, 0.0, 0.0, 0.0, 0.0, 1.7063877783966048E9, 0.0, 2024-01-27 15:36:18.396
69.0, -590.0066170096397, -733.1400681138039, -550.7526270747185, -478.7071943283081, -0.9920000471174717, -0.9920000471174717, 0.9920000471174717, 0.0, 0.0, 0.0, 0.0, 0.0, 1.7063877783972383E9, 0.0, 2024-01-27 15:36:18.397
69.0, -490.1961669921875, -733.8581289052963, -554.8216382265091, -370.2800148129463, -0.9920000471174717, -0.9920000471174717, 0.9920000471174717, 0.0, 0.0, 0.0, 0.0, 0.0, 1.7063877783972383E9, 0.0, 2024-01-27 15:36:18.397
70.0, -475.5955975651741, -722.1298026442528, -559.1300029754639, -309.72355473041534, -0.9920000471174717, -0.9920000471174717, 1.008000047877431, 0.0, 0.0, 0.0, 0.0, 0.0, 1.7063877784106529E9, 0.0, 2024-01-27 15:36:18.410
70.0, -588.809849023819, -727.6349353790283, -557.9332349896431, -450.4634698629379, -0.9920000471174717, -0.9920000471174717, 1.008000047877431, 0.0, 0.0, 0.0, 0.0, 0.0, 1.7063877784106529E9, 0.0, 2024-01-27 15:36:18.410
71.0, -547.1623231172562, -745.3471015691757, -555.3003454208374, -429.6397069096565, -0.9920000471174717, -1.008000047877431, 1.008000047877431, 0.0, 0.0, 0.0, 0.0, 0.0, 1.706387778426324E9, 0.0, 2024-01-27 15:36:18.426
71.0, -460.75567454099655, -730.9858857393265, -563.1990141272545, -303.2610076069832, -0.9920000471174717, -1.008000047877431, 1.008000047877431, 0.0, 0.0, 0.0, 0.0, 0.0, 1.706387778426324E9, 0.0, 2024-01-27 15:36:18.426
72.0, -556.9758206009865, -727.8742889761925, -560.5661245584488, -404.98628640174866, -1.008000047877431, -1.008000047877431, 1.008000047877431, 0.0, 0.0, 0.0, 0.0, 0.0, 1.7063877784270196E9, 0.0, 2024-01-27 15:36:18.427
72.0, -590.9640313982964, -757.0754278302193, -564.8744893074036, -478.46784073114395, -1.008000047877431, -1.008000047877431, 1.008000047877431, 0.0, 0.0, 0.0, 0.0, 0.0, 1.7063877784270196E9, 0.0, 2024-01-27 15:36:18.427
73.0, -467.45757526159286, -739.1239080429077, -559.8480637669563, -326.4783065319061, -1.008000047877431, -1.008000047877431, 1.008000047877431, 0.0, 0.0, 0.0, 0.0, 0.0, 1.7063877784410062E9, 0.0, 2024-01-27 15:36:18.441
73.0, -515.0889410972595, -728.3529961705208, -557.9332349896431, -346.8233622908592, -1.008000047877431, -1.008000047877431, 1.008000047877431, 0.0, 0.0, 0.0, 0.0, 0.0, 1.7063877784410062E9, 0.0, 2024-01-27 15:36:18.441
74.0, -600.7775288820267, -744.3896871805191, -552.9068094491959, -477.2710727453232, -1.008000047877431, -1.008000047877431, 1.008000047877431, 0.0, 0.0, 0.0, 0.0, 0.0, 1.7063877784643798E9, 0.0, 2024-01-27 15:36:18.464
74.0, -500.96707886457443, -744.8683943748474, -563.6777213215828, -379.3754515051842, -1.008000047877431, -1.008000047877431, 1.008000047877431, 0.0, 0.0, 0.0, 0.0, 0.0, 1.7063877784643798E9, 0.0, 2024-01-27 15:36:18.464
75.0, -481.3400838971138, -727.6349353790283, -561.0448317527771, -314.27127307653427, -1.008000047877431, -1.008000047877431, 1.008000047877431, 0.0, 0.0, 0.0, 0.0, 0.0, 1.706387778464424E9, 0.0, 2024-01-27 15:36:18.464
75.0, -594.5543353557587, -737.6877864599228, -554.8216382265091, -451.89959144592285, -1.008000047877431, -1.008000047877431, 1.008000047877431, 0.0, 0.0, 0.0, 0.0, 0.0, 1.706387778464424E9, 0.0, 2024-01-27 15:36:18.464
76.0, -539.5030080080032, -738.4058472514153, -558.8906493782997, -421.26233100891113, -1.008000047877431, -1.008000047877431, 1.008000047877431, 0.0, 0.0, 0.0, 0.0, 0.0, 1.7063877784873745E9, 0.0, 2024-01-27 15:36:18.487
76.0, -446.8731659054756, -720.933034658432, -549.5558590888977, -295.60169249773026, -1.008000047877431, -1.008000047877431, 1.008000047877431, 0.0, 0.0, 0.0, 0.0, 0.0, 1.7063877784873745E9, 0.0, 2024-01-27 15:36:18.487
77.0, -543.5720191597939, -712.0769515633583, -544.7687871456146, -390.1463633775711, -1.008000047877431, -1.008000047877431, 1.008000047877431, 0.0, 0.0, 0.0, 0.0, 0.0, 1.7063877784878361E9, 0.0, 2024-01-27 15:36:18.487
77.0, -570.3796220421791, -731.9433001279831, -545.2474943399429, -461.9524425268173, -1.008000047877431, -1.008000047877431, 1.008000047877431, 0.0, 0.0, 0.0, 0.0, 0.0, 1.7063877784878361E9, 0.0, 2024-01-27 15:36:18.487
78.0, -452.6176522374153, -719.2575594782829, -559.369356572628, -322.16994178295135, -1.008000047877431, -1.008000047877431, 1.008000047877431, 0.0, 0.0, 0.0, 0.0, 0.0, 1.706387778488596E9, 0.0, 2024-01-27 15:36:18.488
78.0, -501.92449325323105, -714.9491947293282, -551.9493950605392, -347.30206948518753, -1.008000047877431, -1.008000047877431, 1.008000047877431, 0.0, 0.0, 0.0, 0.0, 0.0, 1.706387778488596E9, 0.0, 2024-01-27 15:36:18.488
79.0, -590.2459706068039, -733.379421710968, -548.5984447002411, -474.6381831765175, -1.008000047877431, -1.008000047877431, 1.008000047877431, 0.0, 0.0, 0.0, 0.0, 0.0, 1.706387778500874E9, 0.0, 2024-01-27 15:36:18.500
79.0, -490.43552058935165, -730.7465321421623, -553.14616304636, -373.15225797891617, -1.008000047877431, -1.008000047877431, 1.008000047877431, 0.0, 0.0, 0.0, 0.0, 0.0, 1.706387778500874E9, 0.0, 2024-01-27 15:36:18.500
80.0, -463.6279177069664, -711.3588907718658, -545.0081407427788, -301.1068252325058, -1.008000047877431, -1.008000047877431, 1.008000047877431, 0.0, 0.0, 0.0, 0.0, 0.0, 1.7063877785166705E9, 0.0, 2024-01-27 15:36:18.516
80.0, -586.1769594550133, -725.2413994073868, -542.1358975768089, -443.7615691423416, -1.008000047877431, -1.008000047877431, 1.008000047877431, 0.0, 0.0, 0.0, 0.0, 0.0, 1.7063877785166705E9, 0.0, 2024-01-27 15:36:18.516
81.0, -536.8701184391975, -734.0974825024605, -554.3429310321808, -424.85263496637344, -1.008000047877431, -1.008000047877431, 1.008000047877431, 0.0, 0.0, 0.0, 0.0, 0.0, 1.706387778517306E9, 0.0, 2024-01-27 15:36:18.517
81.0, -448.5486410856247, -719.4969130754471, -550.034566283226, -296.55910688638687, -1.008000047877431, -1.008000047877431, 1.008000047877431, 0.0, 0.0, 0.0, 0.0, 0.0, 1.706387778517306E9, 0.0, 2024-01-27 15:36:18.517
82.0, -549.5558590888977, -713.0343659520149, -540.9391295909882, -391.1037777662277, -1.008000047877431, -1.008000047877431, 1.008000047877431, 0.0, 0.0, 0.0, 0.0, 0.0, 1.7063877785332372E9, 0.0, 2024-01-27 15:36:18.533
82.0, -572.0550972223282, -730.7465321421623, -545.9655551314354, -459.79826015233994, -1.008000047877431, -1.008000047877431, 1.008000047877431, 0.0, 0.0, 0.0, 0.0, 0.0, 1.7063877785332372E9, 0.0, 2024-01-27 15:36:18.533
83.0, -454.05377382040024, -718.0607914924622, -547.1623231172562, -318.3402842283249, -1.008000047877431, -1.008000047877431, 1.008000047877431, 0.0, 0.0, 0.0, 0.0, 0.0, 1.7063877785465171E9, 0.0, 2024-01-27 15:36:18.546
83.0, -505.2754436135292, -715.1885483264923, -546.6836159229279, -339.88210797309875, -1.008000047877431, -1.008000047877431, 1.008000047877431, 0.0, 0.0, 0.0, 0.0, 0.0, 1.7063877785465171E9, 0.0, 2024-01-27 15:36:18.546
84.0, -586.4163130521774, -728.8317033648491, -547.8803839087486, -471.0478792190552, -1.008000047877431, -1.008000047877431, 1.008000047877431, 0.0, 0.0, 0.0, 0.0, 0.0, 1.706387778547127E9, 0.0, 2024-01-27 15:36:18.547
84.0, -486.36650943756104, -726.9168745875359, -549.3165054917336, -368.8438932299614, -1.008000047877431, -1.008000047877431, 1.008000047877431, 0.0, 0.0, 0.0, 0.0, 0.0, 1.706387778547127E9, 0.0, 2024-01-27 15:36:18.547
85.0, -465.7821000814438, -708.0079404115677, -543.5720191597939, -300.38876444101334, -1.008000047877431, -1.008000047877431, 1.008000047877431, 0.0, 0.0, 0.0, 0.0, 0.0, 1.706387778560897E9, 0.0, 2024-01-27 15:36:18.560
85.0, -584.0227770805359, -722.1298026442528, -546.922969520092, -449.9847626686096, -1.008000047877431, -1.008000047877431, 1.008000047877431, 0.0, 0.0, 0.0, 0.0, 0.0, 1.706387778560897E9, 0.0, 2024-01-27 15:36:18.560
86.0, -533.0404608845711, -730.5071785449982, -553.3855166435242, -422.9378061890602, -1.008000047877431, -1.008000047877431, 1.008000047877431, 0.0, 0.0, 0.0, 0.0, 0.0, 1.70638777857656E9, 0.0, 2024-01-27 15:36:18.576
86.0, -444.2402763366699, -716.3853163123131, -549.3165054917336, -297.27716767787933, -1.008000047877431, -1.008000047877431, 1.008000047877431, 0.0, 0.0, 0.0, 0.0, 0.0, 1.70638777857656E9, 0.0, 2024-01-27 15:36:18.576
87.0, -547.8803839087486, -715.1885483264923, -547.1623231172562, -399.72050726413727, -1.008000047877431, -1.008000047877431, 1.008000047877431, 0.0, 0.0, 0.0, 0.0, 0.0, 1.7063877785770943E9, 0.0, 2024-01-27 15:36:18.577
87.0, -569.1828540563583, -730.9858857393265, -556.9758206009865, -463.86727130413055, -1.008000047877431, -1.008000047877431, 1.008000047877431, 0.0, 0.0, 0.0, 0.0, 0.0, 1.7063877785770943E9, 0.0, 2024-01-27 15:36:18.577
88.0, -453.3357130289078, -727.1562281847, -559.1300029754639, -323.3667097687721, -1.008000047877431, -1.008000047877431, 1.008000047877431, 0.0, 0.0, 0.0, 0.0, 0.0, 1.7063877785906732E9, 0.0, 2024-01-27 15:36:18.590
88.0, -500.7277252674103, -714.4704875349998, -549.3165054917336, -342.51499754190445, -1.008000047877431, -1.008000047877431, 1.008000047877431, 0.0, 0.0, 0.0, 0.0, 0.0, 1.7063877785906732E9, 0.0, 2024-01-27 15:36:18.590
89.0, -594.0756281614304, -732.1826537251472, -552.6674558520317, -473.4414151906967, -1.008000047877431, -1.008000047877431, 1.008000047877431, 0.0, 0.0, 0.0, 0.0, 0.0, 1.7063877786063437E9, 0.0, 2024-01-27 15:36:18.606
89.0, -484.69103425741196, -725.9594601988792, -547.6410303115845, -367.1684180498123, -1.008000047877431, -1.008000047877431, 1.008000047877431, 0.0, 0.0, 0.0, 0.0, 0.0, 1.7063877786063437E9, 0.0, 2024-01-27 15:36:18.606
90.0, -466.50016087293625, -711.8375979661942, -555.0609918236732, -307.09066516160965, -1.008000047877431, -1.008000047877431, 1.008000047877431, 0.0, 0.0, 0.0, 0.0, 0.0, 1.7063877786070602E9, 0.0, 2024-01-27 15:36:18.607
90.0, -584.9801914691925, -721.6510954499245, -542.6146047711372, -447.11251950263977, -1.008000047877431, -1.008000047877431, 1.008000047877431, 0.0, 0.0, 0.0, 0.0, 0.0, 1.7063877786070602E9, 0.0, 2024-01-27 15:36:18.607
91.0, -528.9714497327805, -729.0710569620132, -545.9655551314354, -418.62944144010544, -1.008000047877431, -1.008000047877431, 1.008000047877431, 0.0, 0.0, 0.0, 0.0, 0.0, 1.7063877786211464E9, 0.0, 2024-01-27 15:36:18.621
91.0, -446.3944587111473, -714.4704875349998, -546.4442623257637, -292.96880292892456, -1.008000047877431, -1.008000047877431, 1.008000047877431, 0.0, 0.0, 0.0, 0.0, 0.0, 1.7063877786211464E9, 0.0, 2024-01-27 15:36:18.621
92.0, -548.5984447002411, -718.0607914924622, -546.6836159229279, -396.13020330667496, -1.008000047877431, -1.008000047877431, 1.008000047877431, 0.0, 0.0, 0.0, 0.0, 0.0, 1.7063877786363592E9, 0.0, 2024-01-27 15:36:18.636
92.0, -579.7144123315811, -740.0813224315643, -556.257759809494, -468.65434324741364, -1.008000047877431, -1.008000047877431, 1.008000047877431, 0.0, 0.0, 0.0, 0.0, 0.0, 1.7063877786363592E9, 0.0, 2024-01-27 15:36:18.636
93.0, -461.23438173532486, -730.7465321421623, -551.7100414633751, -320.9731737971306, -1.008000047877431, -1.008000047877431, 1.008000047877431, 0.0, 0.0, 0.0, 0.0, 0.0, 1.7063877786370976E9, 0.0, 2024-01-27 15:36:18.637
93.0, -512.9347587227821, -722.1298026442528, -546.4442623257637, -341.796936750412, -1.008000047877431, -1.008000047877431, 1.008000047877431, 0.0, 0.0, 0.0, 0.0, 0.0, 1.7063877786370976E9, 0.0, 2024-01-27 15:36:18.637
94.0, -600.5381752848625, -740.0813224315643, -555.5396990180016, -479.6646087169647, -1.008000047877431, -1.008000047877431, 1.008000047877431, 0.0, 0.0, 0.0, 0.0, 0.0, 1.7063877786672895E9, 0.0, 2024-01-27 15:36:18.667
94.0, -494.9832389354706, -736.0123112797737, -558.6512957811356, -372.4341971874237, -1.008000047877431, -1.008000047877431, 1.008000047877431, 0.0, 0.0, 0.0, 0.0, 0.0, 1.7063877786672895E9, 0.0, 2024-01-27 15:36:18.667
95.0, -477.98913353681564, -727.1562281847, -553.3855166435242, -310.68096911907196, -1.008000047877431, -1.008000047877431, 1.008000047877431, 0.0, 0.0, 0.0, 0.0, 0.0, 1.7063877786677659E9, 0.0, 2024-01-27 15:36:18.667
95.0, -595.9904569387436, -738.1664936542511, -556.9758206009865, -458.60149216651917, -1.008000047877431, -1.008000047877431, 1.008000047877431, 0.0, 0.0, 0.0, 0.0, 0.0, 1.7063877786677659E9, 0.0, 2024-01-27 15:36:18.667
96.0, -540.9391295909882, -737.4484328627586, -555.7790526151657, -425.33134216070175, -1.008000047877431, -1.008000047877431, 1.008000047877431, 0.0, 0.0, 0.0, 0.0, 0.0, 1.7063877786684744E9, 0.0, 2024-01-27 15:36:18.668
96.0, -456.68666338920593, -728.8317033648491, -554.8216382265091, -298.71328926086426, -1.008000047877431, -1.008000047877431, 1.008000047877431, 0.0, 0.0, 0.0, 0.0, 0.0, 1.7063877786684744E9, 0.0, 2024-01-27 15:36:18.668
97.0, -556.4971134066582, -726.4381673932076, -549.3165054917336, -392.7792529463768, -1.008000047877431, -1.008000047877431, 1.008000047877431, 0.0, 0.0, 0.0, 0.0, 0.0, 1.7063877786811223E9, 0.0, 2024-01-27 15:36:18.681
97.0, -580.4324731230736, -738.6452008485794, -543.811372756958, -456.9260169863701, -1.008000047877431, -1.008000047877431, 1.008000047877431, 0.0, 0.0, 0.0, 0.0, 0.0, 1.7063877786811223E9, 0.0, 2024-01-27 15:36:18.681
98.0, -461.71308892965317, -735.5336040854454, -550.9919806718826, -315.2286874651909, -1.008000047877431, -1.008000047877431, 1.008000047877431, 0.0, 0.0, 0.0, 0.0, 0.0, 1.7063877786956873E9, 0.0, 2024-01-27 15:36:18.695
98.0, -507.19027239084244, -713.5130731463432, -547.8803839087486, -340.6001687645912, -1.008000047877431, -1.008000047877431, 1.008000047877431, 0.0, 0.0, 0.0, 0.0, 0.0, 1.7063877786956873E9, 0.0, 2024-01-27 15:36:18.695
0.0, -487.80263102054596, -733.379421710968, -552.4281022548676, -369.3226004242897, -1.008000047877431, -1.008000047877431, 1.008000047877431, 0.0, 0.0, 0.0, 0.0, 0.0, 1.7063877787115576E9, 0.0, 2024-01-27 15:36:18.711
0.0, -468.1756360530853, -712.3163051605225, -548.1197375059128, -305.41518998146057, -1.008000047877431, -1.008000047877431, 1.008000047877431, 0.0, 0.0, 0.0, 0.0, 0.0, 1.7063877787115576E9, 0.0, 2024-01-27 15:36:18.711
1.0, -590.2459706068039, -732.9007145166397, -544.7687871456146, -448.5486410856247, -1.008000047877431, -0.03200000151991844, 1.008000047877431, 0.0, 0.0, 0.0, 0.0, 0.0, 1.7063877787121153E9, 0.0, 2024-01-27 15:36:18.712
1.0, -536.1520576477051, -735.0548968911171, -551.7100414633751, -419.10814863443375, -1.008000047877431, -0.03200000151991844, 1.008000047877431, 0.0, 0.0, 0.0, 0.0, 0.0, 1.7063877787121153E9, 0.0, 2024-01-27 15:36:18.712
2.0, -450.2241162657738, -720.933034658432, -543.5720191597939, -291.7720349431038, 0.09600000455975533, -0.03200000151991844, 1.008000047877431, 0.0, 0.0, 0.0, 0.0, 0.0, 1.706387778725898E9, 0.0, 2024-01-27 15:36:18.725
2.0, -549.5558590888977, -714.9491947293282, -539.5030080080032, -393.97602093219757, 0.09600000455975533, -0.03200000151991844, 1.008000047877431, 0.0, 0.0, 0.0, 0.0, 0.0, 1.706387778725898E9, 0.0, 2024-01-27 15:36:18.725
3.0, -578.9963515400887, -737.4484328627586, -543.0933119654655, -455.01118820905685, 0.09600000455975533, -0.03200000151991844, 1.008000047877431, 0.0, 0.0, 0.0, 0.0, 0.0, 1.7063877787417388E9, 0.0, 2024-01-27 15:36:18.741
3.0, -453.3357130289078, -723.3265706300735, -543.3326655626297, -313.79256588220596, 0.09600000455975533, -0.03200000151991844, 1.008000047877431, 0.0, 0.0, 0.0, 0.0, 0.0, 1.7063877787417388E9, 0.0, 2024-01-27 15:36:18.741
4.0, -506.9509187936783, -714.4704875349998, -542.3752511739731, -336.29180401563644, 0.09600000455975533, -0.03200000151991844, 1.008000047877431, 0.0, 0.0, 0.0, 0.0, 0.0, 1.7063877787421873E9, 0.0, 2024-01-27 15:36:18.742
4.0, -595.033042550087, -730.7465321421623, -542.8539583683014, -467.45757526159286, 0.09600000455975533, -0.03200000151991844, 1.008000047877431, 0.0, 0.0, 0.0, 0.0, 0.0, 1.7063877787421873E9, 0.0, 2024-01-27 15:36:18.742
5.0, -484.69103425741196, -723.5659242272377, -540.699775993824, -357.59427416324615, 0.09600000455975533, -0.03200000151991844, 1.008000047877431, 0.0, 0.0, 0.0, 0.0, 0.0, 1.7063877787557137E9, 0.0, 2024-01-27 15:36:18.755
5.0, -466.7395144701004, -712.5556587576866, -539.7423616051674, -293.686863720417, 0.09600000455975533, -0.03200000151991844, 1.008000047877431, 0.0, 0.0, 0.0, 0.0, 0.0, 1.7063877787557137E9, 0.0, 2024-01-27 15:36:18.755
6.0, -581.3898875117302, -723.5659242272377, -532.5617536902428, -435.6235468387604, 0.09600000455975533, -0.03200000151991844, 1.008000047877431, 0.0, 0.0, 0.0, 0.0, 0.0, 1.7063877787715397E9, 0.0, 2024-01-27 15:36:18.771
6.0, -535.1946432590485, -733.1400681138039, -550.2739198803902, -419.3475022315979, 0.09600000455975533, -0.03200000151991844, 1.008000047877431, 0.0, 0.0, 0.0, 0.0, 0.0, 1.7063877787715397E9, 0.0, 2024-01-27 15:36:18.771
7.0, -452.6176522374153, -720.4543274641037, -548.5984447002411, -293.44751012325287, 0.09600000455975533, -0.03200000151991844, 1.008000047877431, 0.0, 0.0, 0.0, 0.0, 0.0, 1.7063877787867696E9, 0.0, 2024-01-27 15:36:18.786
7.0, -554.3429310321808, -719.7362666726112, -541.4178367853165, -391.1037777662277, 0.09600000455975533, -0.03200000151991844, 1.008000047877431, 0.0, 0.0, 0.0, 0.0, 0.0, 1.7063877787867696E9, 0.0, 2024-01-27 15:36:18.786
8.0, -573.4912188053131, -731.4645929336548, -541.8965439796448, -456.4473097920418, 0.09600000455975533, -0.03200000151991844, 1.008000047877431, 0.0, 0.0, 0.0, 0.0, 0.0, 1.7063877787871034E9, 0.0, 2024-01-27 15:36:18.787
8.0, -453.8144202232361, -721.6510954499245, -552.6674558520317, -316.90416264533997, 0.09600000455975533, -0.03200000151991844, 1.008000047877431, 0.0, 0.0, 0.0, 0.0, 0.0, 1.7063877787871034E9, 0.0, 2024-01-27 15:36:18.787
9.0, -511.0199299454689, -721.6510954499245, -548.1197375059128, -343.2330583333969, 0.09600000455975533, -0.03200000151991844, 1.008000047877431, 0.0, 0.0, 0.0, 0.0, 0.0, 1.7063877788016343E9, 0.0, 2024-01-27 15:36:18.801
9.0, -598.144639313221, -738.1664936542511, -548.1197375059128, -468.65434324741364, 0.09600000455975533, -0.03200000151991844, 1.008000047877431, 0.0, 0.0, 0.0, 0.0, 0.0, 1.7063877788016343E9, 0.0, 2024-01-27 15:36:18.801
10.0, -495.70129972696304, -734.8155432939529, -556.7364670038223, -372.67355078458786, 0.09600000455975533, -0.03200000151991844, 0.9920000471174717, 0.0, 0.0, 0.0, 0.0, 0.0, 1.706387778802266E9, 0.0, 2024-01-27 15:36:18.802
10.0, -472.4840008020401, -715.9066091179848, -553.6248702406883, -309.4842011332512, 0.09600000455975533, -0.03200000151991844, 0.9920000471174717, 0.0, 0.0, 0.0, 0.0, 0.0, 1.706387778802266E9, 0.0, 2024-01-27 15:36:18.802
11.0, -600.0594680905342, -735.0548968911171, -552.6674558520317, -456.2079561948776, 0.09600000455975533, -0.03200000151991844, 0.9920000471174717, 0.0, 0.0, 0.0, 0.0, 0.0, 1.7063877788156483E9, 0.0, 2024-01-27 15:36:18.815
11.0, -545.9655551314354, -749.1767591238022, -557.6938813924789, -429.40035331249237, 0.09600000455975533, -0.03200000151991844, 0.9920000471174717, 0.0, 0.0, 0.0, 0.0, 0.0, 1.7063877788156483E9, 0.0, 2024-01-27 15:36:18.815
12.0, -458.60149216651917, -729.0710569620132, -554.8216382265091, -294.4049245119095, 0.09600000455975533, -0.03200000151991844, 0.9920000471174717, 0.0, 0.0, 0.0, 0.0, 0.0, 1.7063877788313928E9, 0.0, 2024-01-27 15:36:18.831
12.0, -565.3531965017319, -730.5071785449982, -561.2841853499413, -402.83210402727127, 0.09600000455975533, -0.03200000151991844, 0.9920000471174717, 0.0, 0.0, 0.0, 0.0, 0.0, 1.7063877788313928E9, 0.0, 2024-01-27 15:36:18.831
13.0, -590.2459706068039, -750.373527109623, -559.8480637669563, -468.4149896502495, 0.09600000455975533, -0.03200000151991844, 0.9920000471174717, 0.0, 0.0, 0.0, 0.0, 0.0, 1.7063877788322363E9, 0.0, 2024-01-27 15:36:18.832
13.0, -471.76594001054764, -738.4058472514153, -561.2841853499413, -326.4783065319061, 0.09600000455975533, -0.03200000151991844, 0.9920000471174717, 0.0, 0.0, 0.0, 0.0, 0.0, 1.7063877788322363E9, 0.0, 2024-01-27 15:36:18.832
14.0, -522.7482562065125, -725.9594601988792, -558.8906493782997, -350.6530198454857, 0.09600000455975533, -0.03200000151991844, 0.9920000471174717, 0.0, 0.0, 0.0, 0.0, 0.0, 1.7063877788456695E9, 0.0, 2024-01-27 15:36:18.845
14.0, -613.4632695317268, -747.7406375408173, -554.5822846293449, -477.7497799396515, 0.09600000455975533, -0.03200000151991844, 0.9920000471174717, 0.0, 0.0, 0.0, 0.0, 0.0, 1.7063877788456695E9, 0.0, 2024-01-27 15:36:18.845
15.0, -507.19027239084244, -743.4322727918625, -559.369356572628, -372.912904381752, 0.09600000455975533, -0.03200000151991844, 0.9920000471174717, 0.0, 0.0, 0.0, 0.0, 0.0, 1.7063877788616219E9, 0.0, 2024-01-27 15:36:18.861
15.0, -477.98913353681564, -716.3853163123131, -547.6410303115845, -303.50036120414734, 0.09600000455975533, -0.03200000151991844, 0.9920000471174717, 0.0, 0.0, 0.0, 0.0, 0.0, 1.7063877788616219E9, 0.0, 2024-01-27 15:36:18.861
16.0, -592.8788601756096, -732.9007145166397, -545.4868479371071, -448.78799468278885, 0.09600000455975533, -0.03200000151991844, 0.9920000471174717, 0.0, 0.0, 0.0, 0.0, 0.0, 1.7063877788621447E9, 0.0, 2024-01-27 15:36:18.862
16.0, -540.9391295909882, -740.7993832230568, -550.9919806718826, -421.26233100891113, 0.09600000455975533, -0.03200000151991844, 0.9920000471174717, 0.0, 0.0, 0.0, 0.0, 0.0, 1.7063877788621447E9, 0.0, 2024-01-27 15:36:18.862
17.0, -454.2931274175644, -719.4969130754471, -548.1197375059128, -294.16557091474533, 0.09600000455975533, -0.03200000151991844, 0.9920000471174717, 0.0, 0.0, 0.0, 0.0, 0.0, 1.7063877788758743E9, 0.0, 2024-01-27 15:36:18.875
17.0, -557.2151741981506, -723.3265706300735, -543.5720191597939, -398.76309287548065, 0.09600000455975533, -0.03200000151991844, 0.9920000471174717, 0.0, 0.0, 0.0, 0.0, 0.0, 1.7063877788758743E9, 0.0, 2024-01-27 15:36:18.875
18.0, -580.1931195259094, -740.0813224315643, -548.3590911030769, -460.5163209438324, 0.09600000455975533, -0.03200000151991844, 0.9920000471174717, 0.0, 0.0, 0.0, 0.0, 0.0, 1.7063877788913443E9, 0.0, 2024-01-27 15:36:18.891
18.0, -464.34597849845886, -729.7891177535057, -556.9758206009865, -321.69123458862305, 0.09600000455975533, -0.03200000151991844, 0.9920000471174717, 0.0, 0.0, 0.0, 0.0, 0.0, 1.7063877788913443E9, 0.0, 2024-01-27 15:36:18.891
19.0, -517.4824770689011, -723.0872170329094, -554.5822846293449, -348.73819106817245, 0.09600000455975533, -0.03200000151991844, 0.9920000471174717, 0.0, 0.0, 0.0, 0.0, 0.0, 1.7063877788921173E9, 0.0, 2024-01-27 15:36:18.892
19.0, -602.4530040621758, -741.9961512088776, -557.4545277953148, -483.25491267442703, 0.09600000455975533, -0.03200000151991844, 0.9920000471174717, 0.0, 0.0, 0.0, 0.0, 0.0, 1.7063877788921173E9, 0.0, 2024-01-27 15:36:18.892
20.0, -496.65871411561966, -742.2355048060417, -559.8480637669563, -373.87031877040863, 0.09600000455975533, -0.03200000151991844, 1.008000047877431, 0.0, 0.0, 0.0, 0.0, 0.0, 1.7063877789056473E9, 0.0, 2024-01-27 15:36:18.905
20.0, -486.36650943756104, -733.379421710968, -557.9332349896431, -319.2976986169815, 0.09600000455975533, -0.03200000151991844, 1.008000047877431, 0.0, 0.0, 0.0, 0.0, 0.0, 1.7063877789056473E9, 0.0, 2024-01-27 15:36:18.905
21.0, -596.4691641330719, -738.6452008485794, -553.14616304636, -459.3195529580116, 0.09600000455975533, -0.03200000151991844, 1.008000047877431, 0.0, 0.0, 0.0, 0.0, 0.0, 1.7063877789213572E9, 0.0, 2024-01-27 15:36:18.921
21.0, -545.4868479371071, -749.1767591238022, -562.2415997385979, -433.70871806144714, 0.09600000455975533, -0.03200000151991844, 1.008000047877431, 0.0, 0.0, 0.0, 0.0, 0.0, 1.7063877789213572E9, 0.0, 2024-01-27 15:36:18.921
22.0, -460.9950281381607, -726.9168745875359, -552.4281022548676, -299.19199645519257, 0.09600000455975533, -0.03200000151991844, 1.008000047877431, 0.0, 0.0, 0.0, 0.0, 0.0, 1.70638777893633E9, 0.0, 2024-01-27 15:36:18.936
22.0, -559.1300029754639, -725.7201066017151, -547.8803839087486, -403.0714576244354, 0.09600000455975533, -0.03200000151991844, 1.008000047877431, 0.0, 0.0, 0.0, 0.0, 0.0, 1.70638777893633E9, 0.0, 2024-01-27 15:36:18.936
23.0, -577.5602299571037, -736.9697256684303, -553.6248702406883, -472.9627079963684, 0.09600000455975533, -0.03200000151991844, 1.008000047877431, 0.0, 0.0, 0.0, 0.0, 0.0, 1.7063877789370642E9, 0.0, 2024-01-27 15:36:18.937
23.0, -455.01118820905685, -727.8742889761925, -553.14616304636, -326.7176601290703, 0.09600000455975533, -0.03200000151991844, 1.008000047877431, 0.0, 0.0, 0.0, 0.0, 0.0, 1.7063877789370642E9, 0.0, 2024-01-27 15:36:18.937
24.0, -507.19027239084244, -715.4279019236565, -541.6571903824806, -348.02013027668, 0.09600000455975533, -0.03200000151991844, 1.008000047877431, 0.0, 0.0, 0.0, 0.0, 0.0, 1.70638777895136E9, 0.0, 2024-01-27 15:36:18.951
24.0, -591.921445786953, -736.7303720712662, -550.5132734775543, -477.98913353681564, 0.09600000455975533, -0.03200000151991844, 1.008000047877431, 0.0, 0.0, 0.0, 0.0, 0.0, 1.70638777895136E9, 0.0, 2024-01-27 15:36:18.951
25.0, -487.0845702290535, -729.5497641563416, -546.2049087285995, -371.9554899930954, 0.09600000455975533, -0.03200000151991844, 1.008000047877431, 0.0, 0.0, 0.0, 0.0, 0.0, 1.7063877789520793E9, 0.0, 2024-01-27 15:36:18.952
25.0, -473.4414151906967, -714.709841132164, -549.7952126860619, -314.0319194793701, 0.09600000455975533, -0.03200000151991844, 1.008000047877431, 0.0, 0.0, 0.0, 0.0, 0.0, 1.7063877789520793E9, 0.0, 2024-01-27 15:36:18.952
26.0, -588.5704954266548, -725.4807530045509, -543.3326655626297, -457.8834313750267, 0.09600000455975533, -0.03200000151991844, 1.008000047877431, 0.0, 0.0, 0.0, 0.0, 0.0, 1.7063877789656928E9, 0.0, 2024-01-27 15:36:18.965
26.0, -538.0668864250183, -737.6877864599228, -548.5984447002411, -426.0494029521942, 0.09600000455975533, -0.03200000151991844, 1.008000047877431, 0.0, 0.0, 0.0, 0.0, 0.0, 1.7063877789656928E9, 0.0, 2024-01-27 15:36:18.965
27.0, -452.37829864025116, -720.2149738669395, -552.1887486577034, -305.1758363842964, 0.09600000455975533, -0.03200000151991844, 1.008000047877431, 0.0, 0.0, 0.0, 0.0, 0.0, 1.7063877789813683E9, 0.0, 2024-01-27 15:36:18.981
27.0, -554.8216382265091, -717.1033771038055, -540.9391295909882, -398.28438568115234, 0.09600000455975533, -0.03200000151991844, 1.008000047877431, 0.0, 0.0, 0.0, 0.0, 0.0, 1.7063877789813683E9, 0.0, 2024-01-27 15:36:18.981
28.0, -570.140268445015, -732.4220073223114, -544.0507263541222, -459.5589065551758, 0.09600000455975533, -0.03200000151991844, 1.008000047877431, 0.0, 0.0, 0.0, 0.0, 0.0, 1.7063877789821498E9, 0.0, 2024-01-27 15:36:18.982
28.0, -443.52221554517746, -717.3427307009697, -543.5720191597939, -318.57963782548904, 0.09600000455975533, -0.03200000151991844, 1.008000047877431, 0.0, 0.0, 0.0, 0.0, 0.0, 1.7063877789821498E9, 0.0, 2024-01-27 15:36:18.982
29.0, -498.33418929576874, -705.375050842762, -539.7423616051674, -344.908533513546, 0.09600000455975533, -0.03200000151991844, 1.008000047877431, 0.0, 0.0, 0.0, 0.0, 0.0, 1.70638777899587E9, 0.0, 2024-01-27 15:36:18.995
29.0, -591.2033849954605, -729.7891177535057, -545.9655551314354, -479.1859015226364, 0.09600000455975533, -0.03200000151991844, 1.008000047877431, 0.0, 0.0, 0.0, 0.0, 0.0, 1.70638777899587E9, 0.0, 2024-01-27 15:36:18.995
30.0, -488.99939900636673, -732.4220073223114, -547.6410303115845, -371.9554899930954, 0.09600000455975533, -0.03200000151991844, 1.008000047877431, 0.0, 0.0, 0.0, 0.0, 0.0, 1.7063877790113208E9, 0.0, 2024-01-27 15:36:19.011
30.0, -472.4840008020401, -717.1033771038055, -544.7687871456146, -308.7661403417587, 0.09600000455975533, -0.03200000151991844, 1.008000047877431, 0.0, 0.0, 0.0, 0.0, 0.0, 1.7063877790113208E9, 0.0, 2024-01-27 15:36:19.011
31.0, -591.4427385926247, -729.7891177535057, -548.3590911030769, -455.96860259771347, 0.09600000455975533, -0.03200000151991844, 1.008000047877431, 0.0, 0.0, 0.0, 0.0, 0.0, 1.7063877790120528E9, 0.0, 2024-01-27 15:36:19.012
31.0, -538.0668864250183, -736.9697256684303, -557.2151741981506, -432.9906572699547, 0.09600000455975533, -0.03200000151991844, 1.008000047877431, 0.0, 0.0, 0.0, 0.0, 0.0, 1.7063877790120528E9, 0.0, 2024-01-27 15:36:19.012
32.0, -452.6176522374153, -720.2149738669395, -554.1035774350166, -302.7823004126549, 0.09600000455975533, -0.03200000151991844, 1.008000047877431, 0.0, 0.0, 0.0, 0.0, 0.0, 1.7063877790256515E9, 0.0, 2024-01-27 15:36:19.025
32.0, -550.034566283226, -722.6085098385811, -545.2474943399429, -403.7895184159279, 0.09600000455975533, -0.03200000151991844, 1.008000047877431, 0.0, 0.0, 0.0, 0.0, 0.0, 1.7063877790256515E9, 0.0, 2024-01-27 15:36:19.025
33.0, -575.4060475826263, -740.3206760287285, -554.5822846293449, -467.45757526159286, 0.09600000455975533, -0.03200000151991844, 1.008000047877431, 0.0, 0.0, 0.0, 0.0, 0.0, 1.7063877790413694E9, 0.0, 2024-01-27 15:36:19.041
33.0, -455.01118820905685, -724.044631421566, -553.6248702406883, -323.12735617160797, 0.09600000455975533, -0.03200000151991844, 1.008000047877431, 0.0, 0.0, 0.0, 0.0, 0.0, 1.7063877790413694E9, 0.0, 2024-01-27 15:36:19.041
34.0, -510.5412227511406, -715.1885483264923, -547.4016767144203, -348.02013027668, 0.09600000455975533, -0.03200000151991844, 1.008000047877431, 0.0, 0.0, 0.0, 0.0, 0.0, 1.7063877790420964E9, 0.0, 2024-01-27 15:36:19.042
34.0, -601.9742968678474, -737.927140057087, -545.2474943399429, -478.7071943283081, 0.09600000455975533, -0.03200000151991844, 1.008000047877431, 0.0, 0.0, 0.0, 0.0, 0.0, 1.7063877790420964E9, 0.0, 2024-01-27 15:36:19.042
35.0, -499.5309572815895, -741.038736820221, -554.8216382265091, -373.3916115760803, 0.09600000455975533, -0.03200000151991844, 1.008000047877431, 0.0, 0.0, 0.0, 0.0, 0.0, 1.706387779055858E9, 0.0, 2024-01-27 15:36:19.055
35.0, -481.8187910914421, -725.4807530045509, -553.3855166435242, -319.05834501981735, 0.09600000455975533, -0.03200000151991844, 1.008000047877431, 0.0, 0.0, 0.0, 0.0, 0.0, 1.706387779055858E9, 0.0, 2024-01-27 15:36:19.055
36.0, -593.8362745642662, -729.5497641563416, -553.8642238378525, -464.1066249012947, 0.09600000455975533, -0.03200000151991844, 1.008000047877431, 0.0, 0.0, 0.0, 0.0, 0.0, 1.7063877790714164E9, 0.0, 2024-01-27 15:36:19.071
36.0, -538.5455936193466, -736.491018474102, -552.9068094491959, -432.5119500756264, 0.09600000455975533, -0.03200000151991844, 1.008000047877431, 0.0, 0.0, 0.0, 0.0, 0.0, 1.7063877790714164E9, 0.0, 2024-01-27 15:36:19.071
37.0, -458.60149216651917, -719.0182058811188, -554.8216382265091, -304.93648278713226, 0.09600000455975533, -0.03200000151991844, 1.008000047877431, 0.0, 0.0, 0.0, 0.0, 0.0, 1.7063877790721204E9, 0.0, 2024-01-27 15:36:19.072
37.0, -554.3429310321808, -715.4279019236565, -544.5294335484505, -404.02887201309204, 0.09600000455975533, -0.03200000151991844, 1.008000047877431, 0.0, 0.0, 0.0, 0.0, 0.0, 1.7063877790721204E9, 0.0, 2024-01-27 15:36:19.072
38.0, -573.251865208149, -736.491018474102, -553.14616304636, -472.72335439920425, 0.09600000455975533, -0.03200000151991844, 1.008000047877431, 0.0, 0.0, 0.0, 0.0, 0.0, 1.7063877790860925E9, 0.0, 2024-01-27 15:36:19.086
38.0, -451.89959144592285, -720.933034658432, -548.3590911030769, -320.4944666028023, 0.09600000455975533, -0.03200000151991844, 1.008000047877431, 0.0, 0.0, 0.0, 0.0, 0.0, 1.7063877790860925E9, 0.0, 2024-01-27 15:36:19.086
39.0, -501.2064324617386, -709.2047083973885, -538.5455936193466, -340.1214615702629, 0.09600000455975533, -0.03200000151991844, 1.008000047877431, 0.0, 0.0, 0.0, 0.0, 0.0, 1.706387779101436E9, 0.0, 2024-01-27 15:36:19.101
39.0, -584.7408378720284, -716.8640235066414, -533.2798144817352, -465.54274648427963, 0.09600000455975533, -0.03200000151991844, 1.008000047877431, 0.0, 0.0, 0.0, 0.0, 0.0, 1.706387779101436E9, 0.0, 2024-01-27 15:36:19.101
40.0, -481.8187910914421, -718.0607914924622, -541.4178367853165, -363.33876049518585, 0.09600000455975533, -0.03200000151991844, 1.008000047877431, 0.0, 0.0, 0.0, 0.0, 0.0, 1.7063877791021163E9, 0.0, 2024-01-27 15:36:19.102
40.0, -454.2931274175644, -697.4763821363449, -535.9127040505409, -301.82488602399826, 0.09600000455975533, -0.03200000151991844, 1.008000047877431, 0.0, 0.0, 0.0, 0.0, 0.0, 1.7063877791021163E9, 0.0, 2024-01-27 15:36:19.102
41.0, -578.7569979429245, -715.9066091179848, -535.1946432590485, -449.027348279953, 0.09600000455975533, -0.03200000151991844, 1.008000047877431, 0.0, 0.0, 0.0, 0.0, 0.0, 1.706387779115648E9, 0.0, 2024-01-27 15:36:19.115
41.0, -527.7746817469597, -723.0872170329094, -549.3165054917336, -424.134574174881, 0.09600000455975533, -0.03200000151991844, 1.008000047877431, 0.0, 0.0, 0.0, 0.0, 0.0, 1.706387779115648E9, 0.0, 2024-01-27 15:36:19.115
42.0, -447.3518730998039, -712.0769515633583, -550.034566283226, -298.71328926086426, 0.09600000455975533, -0.03200000151991844, 1.008000047877431, 0.0, 0.0, 0.0, 0.0, 0.0, 1.7063877791314209E9, 0.0, 2024-01-27 15:36:19.131
42.0, -548.8377982974052, -715.9066091179848, -538.7849472165108, -397.80567848682404, 0.09600000455975533, -0.03200000151991844, 1.008000047877431, 0.0, 0.0, 0.0, 0.0, 0.0, 1.7063877791314209E9, 0.0, 2024-01-27 15:36:19.131
43.0, -565.1138429045677, -732.1826537251472, -547.4016767144203, -458.60149216651917, 0.09600000455975533, -0.03200000151991844, 1.008000047877431, 0.0, 0.0, 0.0, 0.0, 0.0, 1.7063877791321144E9, 0.0, 2024-01-27 15:36:19.132
43.0, -447.5912266969681, -723.5659242272377, -550.034566283226, -321.9305881857872, 0.09600000455975533, -0.03200000151991844, 1.008000047877431, 0.0, 0.0, 0.0, 0.0, 0.0, 1.7063877791321144E9, 0.0, 2024-01-27 15:36:19.132
44.0, -501.92449325323105, -713.7524267435074, -541.4178367853165, -342.2756439447403, 0.09600000455975533, -0.03200000151991844, 1.008000047877431, 0.0, 0.0, 0.0, 0.0, 0.0, 1.7063877791457388E9, 0.0, 2024-01-27 15:36:19.145
44.0, -591.921445786953, -732.6613609194756, -546.922969520092, -474.87753677368164, 0.09600000455975533, -0.03200000151991844, 1.008000047877431, 0.0, 0.0, 0.0, 0.0, 0.0, 1.7063877791457388E9, 0.0, 2024-01-27 15:36:19.145
45.0, -478.7071943283081, -724.5233386158943, -544.5294335484505, -362.1419925093651, 0.09600000455975533, -0.03200000151991844, 1.008000047877431, 0.0, 0.0, 0.0, 0.0, 0.0, 1.7063877791614287E9, 0.0, 2024-01-27 15:36:19.161
45.0, -460.5163209438324, -703.4602220654488, -537.1094720363617, -300.6281180381775, 0.09600000455975533, -0.03200000151991844, 1.008000047877431, 0.0, 0.0, 0.0, 0.0, 0.0, 1.7063877791614287E9, 0.0, 2024-01-27 15:36:19.161
46.0, -576.363461971283, -715.4279019236565, -539.7423616051674, -446.8731659054756, 0.09600000455975533, -0.03200000151991844, 1.008000047877431, 0.0, 0.0, 0.0, 0.0, 0.0, 1.7063877791621296E9, 0.0, 2024-01-27 15:36:19.162
46.0, -523.9450241923332, -726.4381673932076, -543.811372756958, -415.7571982741356, 0.09600000455975533, -0.03200000151991844, 1.008000047877431, 0.0, 0.0, 0.0, 0.0, 0.0, 1.7063877791621296E9, 0.0, 2024-01-27 15:36:19.162
47.0, -444.71898353099823, -711.3588907718658, -540.699775993824, -286.5062558054924, 0.09600000455975533, -0.03200000151991844, 1.008000047877431, 0.0, 0.0, 0.0, 0.0, 0.0, 1.7063877791756494E9, 0.0, 2024-01-27 15:36:19.175
47.0, -548.1197375059128, -713.2737195491791, -535.4339968562126, -391.58248496055603, 0.09600000455975533, -0.03200000151991844, 1.008000047877431, 0.0, 0.0, 0.0, 0.0, 0.0, 1.7063877791756494E9, 0.0, 2024-01-27 15:36:19.175
48.0, -569.1828540563583, -730.267824947834, -549.5558590888977, -458.60149216651917, 0.09600000455975533, -0.03200000151991844, 1.008000047877431, 0.0, 0.0, 0.0, 0.0, 0.0, 1.7063877791916957E9, 0.0, 2024-01-27 15:36:19.191
48.0, -449.9847626686096, -720.4543274641037, -544.7687871456146, -314.7499802708626, 0.09600000455975533, -0.03200000151991844, 1.008000047877431, 0.0, 0.0, 0.0, 0.0, 0.0, 1.7063877791916957E9, 0.0, 2024-01-27 15:36:19.191
49.0, -503.5999684333801, -711.59824436903, -548.3590911030769, -344.4298263192177, 0.09600000455975533, -0.03200000151991844, 1.008000047877431, 0.0, 0.0, 0.0, 0.0, 0.0, 1.7063877791921942E9, 0.0, 2024-01-27 15:36:19.192
49.0, -590.7246778011322, -729.3104105591774, -550.9919806718826, -470.808525621891, 0.09600000455975533, -0.03200000151991844, 1.008000047877431, 0.0, 0.0, 0.0, 0.0, 0.0, 1.7063877791921942E9, 0.0, 2024-01-27 15:36:19.192
50.0, -486.84521663188934, -733.8581289052963, -559.1300029754639, -367.6471252441406, 0.09600000455975533, -0.03200000151991844, 1.008000047877431, 0.0, 0.0, 0.0, 0.0, 0.0, 1.7063877792056684E9, 0.0, 2024-01-27 15:36:19.205
50.0, -464.1066249012947, -711.8375979661942, -544.5294335484505, -301.82488602399826, 0.09600000455975533, -0.03200000151991844, 1.008000047877431, 0.0, 0.0, 0.0, 0.0, 0.0, 1.7063877792056684E9, 0.0, 2024-01-27 15:36:19.205
51.0, -576.1241083741188, -716.8640235066414, -543.3326655626297, -443.2828619480133, 0.09600000455975533, -0.03200000151991844, 1.008000047877431, 0.0, 0.0, 0.0, 0.0, 0.0, 1.7063877792213972E9, 0.0, 2024-01-27 15:36:19.221
51.0, -526.3385601639748, -726.1988137960434, -550.5132734775543, -418.8687950372696, 0.09600000455975533, -0.03200000151991844, 1.008000047877431, 0.0, 0.0, 0.0, 0.0, 0.0, 1.7063877792213972E9, 0.0, 2024-01-27 15:36:19.221
52.0, -442.56480115652084, -710.1621227860451, -550.034566283226, -292.01138854026794, 0.09600000455975533, -0.03200000151991844, 1.008000047877431, 0.0, 0.0, 0.0, 0.0, 0.0, 1.7063877792221224E9, 0.0, 2024-01-27 15:36:19.222
52.0, -543.0933119654655, -712.0769515633583, -539.2636544108391, -393.49731373786926, 0.09600000455975533, -0.03200000151991844, 1.008000047877431, 0.0, 0.0, 0.0, 0.0, 0.0, 1.7063877792221224E9, 0.0, 2024-01-27 15:36:19.222
53.0, -562.0022461414337, -725.0020458102226, -545.4868479371071, -454.05377382040024, 0.09600000455975533, -0.03200000151991844, 1.008000047877431, 0.0, 0.0, 0.0, 0.0, 0.0, 1.7063877792356963E9, 0.0, 2024-01-27 15:36:19.235
53.0, -452.6176522374153, -722.8478634357452, -549.7952126860619, -317.1435162425041, 0.09600000455975533, -0.03200000151991844, 1.008000047877431, 0.0, 0.0, 0.0, 0.0, 0.0, 1.7063877792356963E9, 0.0, 2024-01-27 15:36:19.235
54.0, -508.62639397382736, -714.9491947293282, -550.7526270747185, -340.1214615702629, 0.09600000455975533, -0.03200000151991844, 1.008000047877431, 0.0, 0.0, 0.0, 0.0, 0.0, 1.706387779251397E9, 0.0, 2024-01-27 15:36:19.251
54.0, -589.0492026209831, -731.2252393364906, -545.2474943399429, -471.76594001054764, 0.09600000455975533, -0.03200000151991844, 1.008000047877431, 0.0, 0.0, 0.0, 0.0, 0.0, 1.706387779251397E9, 0.0, 2024-01-27 15:36:19.251
55.0, -484.9303878545761, -730.267824947834, -552.4281022548676, -365.01423567533493, 0.09600000455975533, -0.03200000151991844, 1.008000047877431, 0.0, 0.0, 0.0, 0.0, 0.0, 1.7063877792520845E9, 0.0, 2024-01-27 15:36:19.252
55.0, -469.8511112332344, -709.9227691888809, -544.5294335484505, -303.02165400981903, 0.09600000455975533, -0.03200000151991844, 1.008000047877431, 0.0, 0.0, 0.0, 0.0, 0.0, 1.7063877792520845E9, 0.0, 2024-01-27 15:36:19.252
56.0, -592.1607993841171, -728.3529961705208, -548.3590911030769, -449.9847626686096, 0.09600000455975533, -0.03200000151991844, 1.008000047877431, 0.0, 0.0, 0.0, 0.0, 0.0, 1.7063877792657156E9, 0.0, 2024-01-27 15:36:19.265
56.0, -537.8275328278542, -743.1929191946983, -560.3267709612846, -425.5706957578659, 0.09600000455975533, -0.03200000151991844, 1.008000047877431, 0.0, 0.0, 0.0, 0.0, 0.0, 1.7063877792657156E9, 0.0, 2024-01-27 15:36:19.265
57.0, -457.4047241806984, -724.2839850187302, -559.8480637669563, -300.1494108438492, 0.09600000455975533, -0.03200000151991844, 1.008000047877431, 0.0, 0.0, 0.0, 0.0, 0.0, 1.706387779281382E9, 0.0, 2024-01-27 15:36:19.281
57.0, -560.3267709612846, -720.6936810612679, -551.9493950605392, -400.6779216527939, 0.09600000455975533, -0.03200000151991844, 1.008000047877431, 0.0, 0.0, 0.0, 0.0, 0.0, 1.706387779281382E9, 0.0, 2024-01-27 15:36:19.281
58.0, -583.5440698862076, -743.9109799861908, -554.1035774350166, -464.585332095623, 0.09600000455975533, -0.03200000151991844, 1.008000047877431, 0.0, 0.0, 0.0, 0.0, 0.0, 1.7063877792820685E9, 0.0, 2024-01-27 15:36:19.282
58.0, -467.696928858757, -733.6187753081322, -558.6512957811356, -324.5634777545929, 0.09600000455975533, -0.03200000151991844, 1.008000047877431, 0.0, 0.0, 0.0, 0.0, 0.0, 1.7063877792820685E9, 0.0, 2024-01-27 15:36:19.282
59.0, -519.3973058462143, -725.4807530045509, -558.1725885868073, -350.41366624832153, 0.09600000455975533, -0.03200000151991844, 1.008000047877431, 0.0, 0.0, 0.0, 0.0, 0.0, 1.7063877792957582E9, 0.0, 2024-01-27 15:36:19.295
59.0, -605.5646008253098, -740.5600296258926, -556.257759809494, -474.1594759821892, 0.09600000455975533, -0.03200000151991844, 1.008000047877431, 0.0, 0.0, 0.0, 0.0, 0.0, 1.7063877792957582E9, 0.0, 2024-01-27 15:36:19.295
60.0, -493.7864709496498, -736.9697256684303, -557.6938813924789, -369.801307618618, 0.09600000455975533, -0.03200000151991844, 1.008000047877431, 0.0, 0.0, 0.0, 0.0, 0.0, 1.7063877793113692E9, 0.0, 2024-01-27 15:36:19.311
60.0, -475.5955975651741, -715.9066091179848, -550.5132734775543, -306.3726043701172, 0.09600000455975533, -0.03200000151991844, 1.008000047877431, 0.0, 0.0, 0.0, 0.0, 0.0, 1.7063877793113692E9, 0.0, 2024-01-27 15:36:19.311
61.0, -596.2298105359077, -730.0284713506699, -552.9068094491959, -454.05377382040024, 0.09600000455975533, -0.03200000151991844, 1.008000047877431, 0.0, 0.0, 0.0, 0.0, 0.0, 1.7063877793120766E9, 0.0, 2024-01-27 15:36:19.312
61.0, -529.2108033299446, -728.5923497676849, -553.3855166435242, -420.7836238145828, 0.09600000455975533, -0.03200000151991844, 1.008000047877431, 0.0, 0.0, 0.0, 0.0, 0.0, 1.7063877793120766E9, 0.0, 2024-01-27 15:36:19.312
62.0, -452.6176522374153, -718.5394986867905, -551.9493950605392, -296.798460483551, 0.09600000455975533, -0.03200000151991844, 1.008000047877431, 0.0, 0.0, 0.0, 0.0, 0.0, 1.7063877793259492E9, 0.0, 2024-01-27 15:36:19.325
62.0, -553.3855166435242, -723.0872170329094, -549.3165054917336, -397.3269712924957, 0.09600000455975533, -0.03200000151991844, 1.008000047877431, 0.0, 0.0, 0.0, 0.0, 0.0, 1.7063877793259492E9, 0.0, 2024-01-27 15:36:19.325
63.0, -572.2944508194923, -734.8155432939529, -554.3429310321808, -468.1756360530853, 0.09600000455975533, -0.03200000151991844, 1.008000047877431, 0.0, 0.0, 0.0, 0.0, 0.0, 1.7063877793413985E9, 0.0, 2024-01-27 15:36:19.341
63.0, -457.4047241806984, -724.5233386158943, -557.4545277953148, -320.2551130056381, 0.09600000455975533, -0.03200000151991844, 1.008000047877431, 0.0, 0.0, 0.0, 0.0, 0.0, 1.7063877793413985E9, 0.0, 2024-01-27 15:36:19.341
64.0, -513.6528195142746, -717.5820842981339, -553.6248702406883, -348.73819106817245, 0.09600000455975533, -0.03200000151991844, 1.008000047877431, 0.0, 0.0, 0.0, 0.0, 0.0, 1.7063877793420906E9, 0.0, 2024-01-27 15:36:19.342
64.0, -598.8627001047134, -741.2780904173851, -553.6248702406883, -479.42525511980057, 0.09600000455975533, -0.03200000151991844, 1.008000047877431, 0.0, 0.0, 0.0, 0.0, 0.0, 1.7063877793420906E9, 0.0, 2024-01-27 15:36:19.342
65.0, -490.91422778367996, -735.5336040854454, -556.9758206009865, -370.04066121578217, 0.09600000455975533, -0.03200000151991844, 1.008000047877431, 0.0, 0.0, 0.0, 0.0, 0.0, 1.7063877793559136E9, 0.0, 2024-01-27 15:36:19.355
65.0, -476.5530119538307, -719.7362666726112, -550.2739198803902, -309.72355473041534, 0.09600000455975533, -0.03200000151991844, 1.008000047877431, 0.0, 0.0, 0.0, 0.0, 0.0, 1.7063877793559136E9, 0.0, 2024-01-27 15:36:19.355
66.0, -594.0756281614304, -728.5923497676849, -549.7952126860619, -449.5060554742813, 0.09600000455975533, -0.03200000151991844, 1.008000047877431, 0.0, 0.0, 0.0, 0.0, 0.0, 1.706387779371349E9, 0.0, 2024-01-27 15:36:19.371
66.0, -530.4075713157654, -731.9433001279831, -552.4281022548676, -417.6720270514488, 0.09600000455975533, -0.03200000151991844, 1.008000047877431, 0.0, 0.0, 0.0, 0.0, 0.0, 1.706387779371349E9, 0.0, 2024-01-27 15:36:19.371
67.0, -449.5060554742813, -719.2575594782829, -544.7687871456146, -292.7294493317604, 0.09600000455975533, -0.03200000151991844, 1.008000047877431, 0.0, 0.0, 0.0, 0.0, 0.0, 1.7063877793720756E9, 0.0, 2024-01-27 15:36:19.372
67.0, -554.8216382265091, -717.821437895298, -540.2210687994957, -400.1992144584656, 0.09600000455975533, -0.03200000151991844, 1.008000047877431, 0.0, 0.0, 0.0, 0.0, 0.0, 1.7063877793720756E9, 0.0, 2024-01-27 15:36:19.372
68.0, -573.7305724024773, -737.2090792655945, -551.9493950605392, -458.8408457636833, 0.09600000455975533, -0.03200000151991844, 1.008000047877431, 0.0, 0.0, 0.0, 0.0, 0.0, 1.7063877793857481E9, 0.0, 2024-01-27 15:36:19.385
68.0, -455.96860259771347, -729.3104105591774, -553.8642238378525, -320.2551130056381, 0.09600000455975533, -0.03200000151991844, 1.008000047877431, 0.0, 0.0, 0.0, 0.0, 0.0, 1.7063877793857481E9, 0.0, 2024-01-27 15:36:19.385
69.0, -505.2754436135292, -715.1885483264923, -546.4442623257637, -342.51499754190445, 0.09600000455975533, -0.03200000151991844, 1.008000047877431, 0.0, 0.0, 0.0, 0.0, 0.0, 1.706387779401694E9, 0.0, 2024-01-27 15:36:19.401
69.0, -596.708517730236, -739.1239080429077, -551.9493950605392, -473.920122385025, 0.09600000455975533, -0.03200000151991844, 1.008000047877431, 0.0, 0.0, 0.0, 0.0, 0.0, 1.706387779401694E9, 0.0, 2024-01-27 15:36:19.401
70.0, -492.58970296382904, -734.3368360996246, -555.0609918236732, -367.6471252441406, 0.09600000455975533, -0.03200000151991844, 1.008000047877431, 0.0, 0.0, 0.0, 0.0, 0.0, 1.7063877794020936E9, 0.0, 2024-01-27 15:36:19.402
70.0, -472.72335439920425, -715.4279019236565, -545.0081407427788, -307.56937235593796, 0.09600000455975533, -0.03200000151991844, 1.008000047877431, 0.0, 0.0, 0.0, 0.0, 0.0, 1.7063877794020936E9, 0.0, 2024-01-27 15:36:19.402
71.0, -588.3311418294907, -726.4381673932076, -551.7100414633751, -451.6602378487587, 0.09600000455975533, -0.03200000151991844, 1.008000047877431, 0.0, 0.0, 0.0, 0.0, 0.0, 1.706387779415741E9, 0.0, 2024-01-27 15:36:19.415
71.0, -532.8011072874069, -733.6187753081322, -554.3429310321808, -425.0919885635376, 0.09600000455975533, -0.03200000151991844, 1.008000047877431, 0.0, 0.0, 0.0, 0.0, 0.0, 1.706387779415741E9, 0.0, 2024-01-27 15:36:19.415
72.0, -450.4634698629379, -713.9917803406715, -549.0771518945694, -295.3623389005661, 0.09600000455975533, -0.03200000151991844, 1.008000047877431, 0.0, 0.0, 0.0, 0.0, 0.0, 1.7063877794314404E9, 0.0, 2024-01-27 15:36:19.431
72.0, -555.3003454208374, -714.2311339378357, -546.922969520092, -400.91727524995804, 0.09600000455975533, -0.03200000151991844, 1.008000047877431, 0.0, 0.0, 0.0, 0.0, 0.0, 1.7063877794314404E9, 0.0, 2024-01-27 15:36:19.431
73.0, -568.70414686203, -729.0710569620132, -550.9919806718826, -460.75567454099655, 0.09600000455975533, -0.03200000151991844, 1.008000047877431, 0.0, 0.0, 0.0, 0.0, 0.0, 1.7063877794321854E9, 0.0, 2024-01-27 15:36:19.432
73.0, -457.8834313750267, -727.6349353790283, -558.8906493782997, -320.9731737971306, 0.09600000455975533, -0.03200000151991844, 1.008000047877431, 0.0, 0.0, 0.0, 0.0, 0.0, 1.7063877794321854E9, 0.0, 2024-01-27 15:36:19.432
74.0, -505.51479721069336, -709.4440619945526, -546.922969520092, -345.8659479022026, 0.09600000455975533, -0.03200000151991844, 1.008000047877431, 0.0, 0.0, 0.0, 0.0, 0.0, 1.706387779445718E9, 0.0, 2024-01-27 15:36:19.445
74.0, -597.6659321188927, -734.8155432939529, -549.3165054917336, -475.5955975651741, 0.09600000455975533, -0.03200000151991844, 1.008000047877431, 0.0, 0.0, 0.0, 0.0, 0.0, 1.706387779445718E9, 0.0, 2024-01-27 15:36:19.445
75.0, -495.22259253263474, -734.3368360996246, -551.7100414633751, -369.801307618618, 0.09600000455975533, -0.03200000151991844, 1.008000047877431, 0.0, 0.0, 0.0, 0.0, 0.0, 1.7063877794614384E9, 0.0, 2024-01-27 15:36:19.461
75.0, -482.2974982857704, -724.7626922130585, -556.4971134066582, -312.83515149354935, 0.09600000455975533, -0.03200000151991844, 1.008000047877431, 0.0, 0.0, 0.0, 0.0, 0.0, 1.7063877794614384E9, 0.0, 2024-01-27 15:36:19.461
76.0, -604.367832839489, -736.7303720712662, -556.4971134066582, -459.5589065551758, 0.09600000455975533, -0.03200000151991844, 1.008000047877431, 0.0, 0.0, 0.0, 0.0, 0.0, 1.706387779462083E9, 0.0, 2024-01-27 15:36:19.462
76.0, -545.4868479371071, -748.6980519294739, -562.2415997385979, -425.33134216070175, 0.09600000455975533, -0.03200000151991844, 1.008000047877431, 0.0, 0.0, 0.0, 0.0, 0.0, 1.706387779462083E9, 0.0, 2024-01-27 15:36:19.462
77.0, -463.6279177069664, -720.6936810612679, -561.2841853499413, -299.19199645519257, 0.09600000455975533, -0.03200000151991844, 1.008000047877431, 0.0, 0.0, 0.0, 0.0, 0.0, 1.7063877794756873E9, 0.0, 2024-01-27 15:36:19.475
77.0, -564.3957821130753, -728.1136425733566, -548.1197375059128, -399.72050726413727, 0.09600000455975533, -0.03200000151991844, 1.008000047877431, 0.0, 0.0, 0.0, 0.0, 0.0, 1.7063877794756873E9, 0.0, 2024-01-27 15:36:19.475
78.0, -582.3473019003868, -739.602615237236, -552.4281022548676, -458.12278497219086, 0.09600000455975533, -0.03200000151991844, 1.008000047877431, 0.0, 0.0, 0.0, 0.0, 0.0, 1.7063877794913485E9, 0.0, 2024-01-27 15:36:19.491
78.0, -465.0640392899513, -729.5497641563416, -555.5396990180016, -318.8189914226532, 0.09600000455975533, -0.03200000151991844, 1.008000047877431, 0.0, 0.0, 0.0, 0.0, 0.0, 1.7063877794913485E9, 0.0, 2024-01-27 15:36:19.491
79.0, -509.583808362484, -713.2737195491791, -556.257759809494, -343.9511191248894, 0.09600000455975533, -0.03200000151991844, 1.008000047877431, 0.0, 0.0, 0.0, 0.0, 0.0, 1.7063877794920807E9, 0.0, 2024-01-27 15:36:19.492
79.0, -600.7775288820267, -738.4058472514153, -554.5822846293449, -474.39882957935333, 0.09600000455975533, -0.03200000151991844, 1.008000047877431, 0.0, 0.0, 0.0, 0.0, 0.0, 1.7063877794920807E9, 0.0, 2024-01-27 15:36:19.492
80.0, -493.06841015815735, -736.2516648769379, -559.1300029754639, -362.1419925093651, 0.09600000455975533, -0.03200000151991844, 1.008000047877431, 0.0, 0.0, 0.0, 0.0, 0.0, 1.7063877795062027E9, 0.0, 2024-01-27 15:36:19.506
80.0, -478.7071943283081, -717.5820842981339, -553.3855166435242, -307.8087259531021, 0.09600000455975533, -0.03200000151991844, 1.008000047877431, 0.0, 0.0, 0.0, 0.0, 0.0, 1.7063877795062027E9, 0.0, 2024-01-27 15:36:19.506
81.0, -598.8627001047134, -731.7039465308189, -548.5984447002411, -453.8144202232361, 0.09600000455975533, -0.03200000151991844, 1.008000047877431, 0.0, 0.0, 0.0, 0.0, 0.0, 1.7063877795215733E9, 0.0, 2024-01-27 15:36:19.521
81.0, -534.7159360647202, -735.7729576826096, -547.1623231172562, -420.3049166202545, 0.09600000455975533, -0.03200000151991844, 1.008000047877431, 0.0, 0.0, 0.0, 0.0, 0.0, 1.7063877795215733E9, 0.0, 2024-01-27 15:36:19.521
82.0, -456.68666338920593, -722.3691562414169, -550.7526270747185, -296.55910688638687, 0.09600000455975533, -0.03200000151991844, 1.008000047877431, 0.0, 0.0, 0.0, 0.0, 0.0, 1.706387779522092E9, 0.0, 2024-01-27 15:36:19.522
82.0, -563.1990141272545, -725.0020458102226, -552.1887486577034, -400.6779216527939, 0.09600000455975533, -0.03200000151991844, 1.008000047877431, 0.0, 0.0, 0.0, 0.0, 0.0, 1.706387779522092E9, 0.0, 2024-01-27 15:36:19.522
83.0, -573.0125116109848, -735.5336040854454, -551.4706878662109, -458.8408457636833, 0.09600000455975533, -0.03200000151991844, 1.008000047877431, 0.0, 0.0, 0.0, 0.0, 0.0, 1.7063877795356896E9, 0.0, 2024-01-27 15:36:19.535
83.0, -457.16537058353424, -724.7626922130585, -556.257759809494, -316.1861018538475, 0.09600000455975533, -0.03200000151991844, 1.008000047877431, 0.0, 0.0, 0.0, 0.0, 0.0, 1.7063877795356896E9, 0.0, 2024-01-27 15:36:19.535
84.0, -509.3444547653198, -711.1195371747017, -543.3326655626297, -338.685339987278, 0.09600000455975533, -0.03200000151991844, 1.008000047877431, 0.0, 0.0, 0.0, 0.0, 0.0, 1.706387779551411E9, 0.0, 2024-01-27 15:36:19.551
84.0, -593.8362745642662, -731.9433001279831, -545.9655551314354, -468.65434324741364, 0.09600000455975533, -0.03200000151991844, 1.008000047877431, 0.0, 0.0, 0.0, 0.0, 0.0, 1.706387779551411E9, 0.0, 2024-01-27 15:36:19.551
85.0, -488.5206918120384, -727.3955817818642, -541.8965439796448, -351.6104342341423, 0.09600000455975533, -0.03200000151991844, 1.008000047877431, 0.0, 0.0, 0.0, 0.0, 0.0, 1.7063877795520694E9, 0.0, 2024-01-27 15:36:19.552
85.0, -475.1168903708458, -718.0607914924622, -551.4706878662109, -297.5165212750435, 0.09600000455975533, -0.03200000151991844, 1.008000047877431, 0.0, 0.0, 0.0, 0.0, 0.0, 1.7063877795520694E9, 0.0, 2024-01-27 15:36:19.552
86.0, -597.9052857160568, -731.4645929336548, -543.3326655626297, -446.8731659054756, 0.09600000455975533, -0.03200000151991844, 1.008000047877431, 0.0, 0.0, 0.0, 0.0, 0.0, 1.7063877795657055E9, 0.0, 2024-01-27 15:36:19.565
86.0, -542.1358975768089, -742.4748584032059, -549.3165054917336, -417.1933198571205, 0.09600000455975533, -0.03200000151991844, 1.008000047877431, 0.0, 0.0, 0.0, 0.0, 0.0, 1.7063877795657055E9, 0.0, 2024-01-27 15:36:19.565
87.0, -469.8511112332344, -730.5071785449982, -555.5396990180016, -299.4313500523567, 0.09600000455975533, -0.03200000151991844, 1.008000047877431, 0.0, 0.0, 0.0, 0.0, 0.0, 1.706387779581348E9, 0.0, 2024-01-27 15:36:19.581
87.0, -573.251865208149, -729.0710569620132, -556.7364670038223, -404.7469328045845, 0.09600000455975533, -0.03200000151991844, 1.008000047877431, 0.0, 0.0, 0.0, 0.0, 0.0, 1.706387779581348E9, 0.0, 2024-01-27 15:36:19.581
88.0, -584.0227770805359, -746.0651623606682, -556.4971134066582, -464.34597849845886, 0.09600000455975533, -0.03200000151991844, 1.008000047877431, 0.0, 0.0, 0.0, 0.0, 0.0, 1.7063877795820844E9, 0.0, 2024-01-27 15:36:19.582
88.0, -461.23438173532486, -727.8742889761925, -556.9758206009865, -317.6222234368324, 0.09600000455975533, -0.03200000151991844, 1.008000047877431, 0.0, 0.0, 0.0, 0.0, 0.0, 1.7063877795820844E9, 0.0, 2024-01-27 15:36:19.582
89.0, -521.0727810263634, -725.0020458102226, -551.9493950605392, -346.58400869369507, 0.09600000455975533, -0.03200000151991844, 1.008000047877431, 0.0, 0.0, 0.0, 0.0, 0.0, 1.7063877795960553E9, 0.0, 2024-01-27 15:36:19.596
89.0, -598.6233465075493, -734.5761896967888, -550.7526270747185, -474.1594759821892, 0.09600000455975533, -0.03200000151991844, 1.008000047877431, 0.0, 0.0, 0.0, 0.0, 0.0, 1.7063877795960553E9, 0.0, 2024-01-27 15:36:19.596
90.0, -486.6058630347252, -731.4645929336548, -553.6248702406883, -365.97165006399155, 0.09600000455975533, -0.03200000151991844, 1.008000047877431, 0.0, 0.0, 0.0, 0.0, 0.0, 1.7063877796113548E9, 0.0, 2024-01-27 15:36:19.611
90.0, -472.24464720487595, -716.6246699094772, -552.9068094491959, -301.34617882966995, 0.09600000455975533, -0.03200000151991844, 1.008000047877431, 0.0, 0.0, 0.0, 0.0, 0.0, 1.7063877796113548E9, 0.0, 2024-01-27 15:36:19.611
91.0, -591.4427385926247, -730.0284713506699, -543.5720191597939, -451.89959144592285, 0.09600000455975533, -0.03200000151991844, 1.008000047877431, 0.0, 0.0, 0.0, 0.0, 0.0, 1.7063877796121137E9, 0.0, 2024-01-27 15:36:19.612
91.0, -547.1623231172562, -746.0651623606682, -559.1300029754639, -428.44293892383575, 0.09600000455975533, -0.03200000151991844, 1.008000047877431, 0.0, 0.0, 0.0, 0.0, 0.0, 1.7063877796121137E9, 0.0, 2024-01-27 15:36:19.612
92.0, -450.94217705726624, -711.3588907718658, -545.9655551314354, -287.70302379131317, 0.09600000455975533, -0.03200000151991844, 1.008000047877431, 0.0, 0.0, 0.0, 0.0, 0.0, 1.7063877796257403E9, 0.0, 2024-01-27 15:36:19.625
92.0, -539.9817152023315, -701.5453932881355, -516.2857090830803, -372.912904381752, 0.09600000455975533, -0.03200000151991844, 1.008000047877431, 0.0, 0.0, 0.0, 0.0, 0.0, 1.7063877796257403E9, 0.0, 2024-01-27 15:36:19.625
93.0, -578.9963515400887, -742.2355048060417, -548.8377982974052, -451.42088425159454, 0.09600000455975533, -0.03200000151991844, 1.008000047877431, 0.0, 0.0, 0.0, 0.0, 0.0, 1.7063877796413827E9, 0.0, 2024-01-27 15:36:19.641
93.0, -446.8731659054756, -706.0931116342545, -526.3385601639748, -286.9849629998207, 0.09600000455975533, -0.03200000151991844, 1.008000047877431, 0.0, 0.0, 0.0, 0.0, 0.0, 1.7063877796413827E9, 0.0, 2024-01-27 15:36:19.641
94.0, -511.4986371397972, -708.9653548002243, -534.9552896618843, -330.3079640865326, 0.09600000455975533, -0.03200000151991844, 1.008000047877431, 0.0, 0.0, 0.0, 0.0, 0.0, 1.7063877796420813E9, 0.0, 2024-01-27 15:36:19.642
94.0, -587.1343738436699, -715.1885483264923, -527.5353281497955, -450.4634698629379, 0.09600000455975533, -0.03200000151991844, 1.008000047877431, 0.0, 0.0, 0.0, 0.0, 0.0, 1.7063877796420813E9, 0.0, 2024-01-27 15:36:19.642
95.0, -492.58970296382904, -722.1298026442528, -540.2210687994957, -345.3872407078743, 0.09600000455975533, -0.03200000151991844, 1.008000047877431, 0.0, 0.0, 0.0, 0.0, 0.0, 1.7063877796559567E9, 0.0, 2024-01-27 15:36:19.655
95.0, -463.1492105126381, -693.4073709845543, -528.253388941288, -275.9746975302696, 0.09600000455975533, -0.03200000151991844, 1.008000047877431, 0.0, 0.0, 0.0, 0.0, 0.0, 1.7063877796559567E9, 0.0, 2024-01-27 15:36:19.655
96.0, -591.2033849954605, -722.1298026442528, -540.699775993824, -438.7351436018944, 0.09600000455975533, -0.03200000151991844, 1.008000047877431, 0.0, 0.0, 0.0, 0.0, 0.0, 1.7063877796772418E9, 0.0, 2024-01-27 15:36:19.677
96.0, -534.9552896618843, -725.9594601988792, -542.3752511739731, -400.91727524995804, 0.09600000455975533, -0.03200000151991844, 1.008000047877431, 0.0, 0.0, 0.0, 0.0, 0.0, 1.7063877796772418E9, 0.0, 2024-01-27 15:36:19.677
97.0, -452.6176522374153, -708.0079404115677, -543.811372756958, -275.4959903359413, 0.09600000455975533, -0.03200000151991844, 1.008000047877431, 0.0, 0.0, 0.0, 0.0, 0.0, 1.7063877796775432E9, 0.0, 2024-01-27 15:36:19.677
97.0, -555.3003454208374, -712.5556587576866, -536.8701184391975, -380.57221949100494, 0.09600000455975533, -0.03200000151991844, 1.008000047877431, 0.0, 0.0, 0.0, 0.0, 0.0, 1.7063877796775432E9, 0.0, 2024-01-27 15:36:19.677
98.0, -574.6879867911339, -730.5071785449982, -541.6571903824806, -447.5912266969681, 0.09600000455975533, -0.03200000151991844, 1.008000047877431, 0.0, 0.0, 0.0, 0.0, 0.0, 1.7063877796857312E9, 0.0, 2024-01-27 15:36:19.685
98.0, -456.68666338920593, -720.933034658432, -542.6146047711372, -302.0642396211624, 0.09600000455975533, -0.03200000151991844, 1.008000047877431, 0.0, 0.0, 0.0, 0.0, 0.0, 1.7063877796857312E9, 0.0, 2024-01-27 15:36:19.685
99.0, -515.0889410972595, -712.5556587576866, -539.7423616051674, -332.9408536553383, 0.09600000455975533, -0.03200000151991844, 1.008000047877431, 0.0, 0.0, 0.0, 0.0, 0.0, 1.7063877797042408E9, 0.0, 2024-01-27 15:36:19.704
99.0, -596.4691641330719, -725.9594601988792, -540.2210687994957, -459.3195529580116, 0.09600000455975533, -0.03200000151991844, 1.008000047877431, 0.0, 0.0, 0.0, 0.0, 0.0, 1.7063877797042408E9, 0.0, 2024-01-27 15:36:19.704
0.0, -473.68076878786087, -709.4440619945526, -537.8275328278542, -285.30948781967163, 0.09600000455975533, -0.03200000151991844, 1.008000047877431, 0.0, 0.0, 0.0, 0.0, 0.0, 1.7063877797164311E9, 0.0, 2024-01-27 15:36:19.716
0.0, -593.3575673699379, -724.044631421566, -539.7423616051674, -436.34160763025284, 0.09600000455975533, -0.03200000151991844, 1.008000047877431, 0.0, 0.0, 0.0, 0.0, 0.0, 1.7063877797164311E9, 0.0, 2024-01-27 15:36:19.716
1.0, -540.2210687994957, -733.6187753081322, -544.5294335484505, -410.0127119421959, 0.09600000455975533, -0.03200000151991844, 1.008000047877431, 0.0, 0.0, 0.0, 0.0, 0.0, 1.706387779717137E9, 0.0, 2024-01-27 15:36:19.717
1.0, -456.4473097920418, -719.7362666726112, -548.1197375059128, -282.4372446537018, 0.09600000455975533, -0.03200000151991844, 1.008000047877431, 0.0, 0.0, 0.0, 0.0, 0.0, 1.706387779717137E9, 0.0, 2024-01-27 15:36:19.717
2.0, -564.6351357102394, -722.8478634357452, -541.6571903824806, -387.27412021160126, 0.09600000455975533, -0.03200000151991844, 1.008000047877431, 0.0, 0.0, 0.0, 0.0, 0.0, 1.706387779730761E9, 0.0, 2024-01-27 15:36:19.730
2.0, -579.9537659287453, -734.3368360996246, -545.2474943399429, -449.9847626686096, 0.09600000455975533, -0.03200000151991844, 1.008000047877431, 0.0, 0.0, 0.0, 0.0, 0.0, 1.706387779730761E9, 0.0, 2024-01-27 15:36:19.730
3.0, -459.0801993608475, -722.8478634357452, -548.5984447002411, -306.8513115644455, 0.09600000455975533, -0.03200000151991844, 1.008000047877431, 0.0, 0.0, 0.0, 0.0, 0.0, 1.7063877797463713E9, 0.0, 2024-01-27 15:36:19.746
3.0, -519.6366594433784, -719.4969130754471, -545.9655551314354, -342.51499754190445, 0.09600000455975533, -0.03200000151991844, 1.008000047877431, 0.0, 0.0, 0.0, 0.0, 0.0, 1.7063877797463713E9, 0.0, 2024-01-27 15:36:19.746
4.0, -598.144639313221, -734.8155432939529, -545.2474943399429, -460.75567454099655, 0.09600000455975533, -0.03200000151991844, 1.008000047877431, 0.0, 0.0, 0.0, 0.0, 0.0, 1.7063877797471485E9, 0.0, 2024-01-27 15:36:19.747
4.0, -494.2651781439781, -733.6187753081322, -542.8539583683014, -355.44009178876877, 0.09600000455975533, -0.03200000151991844, 1.008000047877431, 0.0, 0.0, 0.0, 0.0, 0.0, 1.7063877797471485E9, 0.0, 2024-01-27 15:36:19.747
5.0, -477.7497799396515, -715.1885483264923, -547.6410303115845, -300.38876444101334, 0.09600000455975533, -0.03200000151991844, 1.008000047877431, 0.0, 0.0, 0.0, 0.0, 0.0, 1.7063877797607093E9, 0.0, 2024-01-27 15:36:19.760
5.0, -597.9052857160568, -730.7465321421623, -542.3752511739731, -446.15510511398315, 0.09600000455975533, -0.03200000151991844, 1.008000047877431, 0.0, 0.0, 0.0, 0.0, 0.0, 1.7063877797607093E9, 0.0, 2024-01-27 15:36:19.760
6.0, -531.8436928987503, -732.9007145166397, -547.8803839087486, -408.57659035921097, 0.09600000455975533, -0.03200000151991844, 1.008000047877431, 0.0, 0.0, 0.0, 0.0, 0.0, 1.7063877797763512E9, 0.0, 2024-01-27 15:36:19.776
6.0, -452.37829864025116, -714.9491947293282, -539.0243008136749, -286.9849629998207, 0.09600000455975533, -0.03200000151991844, 1.008000047877431, 0.0, 0.0, 0.0, 0.0, 0.0, 1.7063877797763512E9, 0.0, 2024-01-27 15:36:19.776
7.0, -552.6674558520317, -711.1195371747017, -533.5191680788994, -388.470888197422, 0.09600000455975533, -0.03200000151991844, 1.008000047877431, 0.0, 0.0, 0.0, 0.0, 0.0, 1.7063877797770567E9, 0.0, 2024-01-27 15:36:19.777
7.0, -568.9435004591942, -726.1988137960434, -540.9391295909882, -449.74540907144547, 0.09600000455975533, -0.03200000151991844, 1.008000047877431, 0.0, 0.0, 0.0, 0.0, 0.0, 1.7063877797770567E9, 0.0, 2024-01-27 15:36:19.777
8.0, -451.42088425159454, -720.4543274641037, -546.2049087285995, -305.1758363842964, 0.09600000455975533, -0.03200000151991844, 1.008000047877431, 0.0, 0.0, 0.0, 0.0, 0.0, 1.7063877797908525E9, 0.0, 2024-01-27 15:36:19.790
8.0, -519.1579522490501, -723.0872170329094, -546.922969520092, -342.03629034757614, 0.09600000455975533, -0.03200000151991844, 1.008000047877431, 0.0, 0.0, 0.0, 0.0, 0.0, 1.7063877797908525E9, 0.0, 2024-01-27 15:36:19.790
9.0, -606.5220152139664, -743.1929191946983, -547.4016767144203, -471.76594001054764, 0.09600000455975533, -0.03200000151991844, 1.008000047877431, 0.0, 0.0, 0.0, 0.0, 0.0, 1.706387779806631E9, 0.0, 2024-01-27 15:36:19.806
9.0, -502.40320044755936, -739.3632616400719, -550.2739198803902, -361.6632853150368, 0.09600000455975533, -0.03200000151991844, 1.008000047877431, 0.0, 0.0, 0.0, 0.0, 0.0, 1.706387779806631E9, 0.0, 2024-01-27 15:36:19.806
10.0, -488.99939900636673, -724.7626922130585, -551.4706878662109, -309.24484753608704, 0.09600000455975533, -0.03200000151991844, 0.9920000471174717, 0.0, 0.0, 0.0, 0.0, 0.0, 1.7063877798071392E9, 0.0, 2024-01-27 15:36:19.807
10.0, -607.7187831997871, -742.71421200037, -552.9068094491959, -456.9260169863701, 0.09600000455975533, -0.03200000151991844, 0.9920000471174717, 0.0, 0.0, 0.0, 0.0, 0.0, 1.7063877798071392E9, 0.0, 2024-01-27 15:36:19.807
11.0, -553.3855166435242, -748.6980519294739, -562.7203069329262, -425.33134216070175, 0.09600000455975533, -0.03200000151991844, 0.9920000471174717, 0.0, 0.0, 0.0, 0.0, 0.0, 1.706387779832164E9, 0.0, 2024-01-27 15:36:19.832
11.0, -464.585332095623, -727.6349353790283, -555.3003454208374, -298.9526428580284, 0.09600000455975533, -0.03200000151991844, 0.9920000471174717, 0.0, 0.0, 0.0, 0.0, 0.0, 1.706387779832164E9, 0.0, 2024-01-27 15:36:19.832
12.0, -566.5499644875526, -726.6775209903717, -545.9655551314354, -399.24180006980896, 0.09600000455975533, -0.03200000151991844, 0.9920000471174717, 0.0, 0.0, 0.0, 0.0, 0.0, 1.7063877798363647E9, 0.0, 2024-01-27 15:36:19.836
12.0, -578.7569979429245, -740.3206760287285, -554.1035774350166, -460.27696734666824, 0.09600000455975533, -0.03200000151991844, 0.9920000471174717, 0.0, 0.0, 0.0, 0.0, 0.0, 1.7063877798363647E9, 0.0, 2024-01-27 15:36:19.836
13.0, -461.23438173532486, -725.7201066017151, -553.14616304636, -311.6383835077286, 0.09600000455975533, -0.03200000151991844, 0.9920000471174717, 0.0, 0.0, 0.0, 0.0, 0.0, 1.7063877798370676E9, 0.0, 2024-01-27 15:36:19.837
13.0, -517.7218306660652, -717.5820842981339, -541.4178367853165, -336.29180401563644, 0.09600000455975533, -0.03200000151991844, 0.9920000471174717, 0.0, 0.0, 0.0, 0.0, 0.0, 1.7063877798370676E9, 0.0, 2024-01-27 15:36:19.837
14.0, -602.9317112565041, -734.8155432939529, -546.6836159229279, -466.7395144701004, 0.09600000455975533, -0.03200000151991844, 0.9920000471174717, 0.0, 0.0, 0.0, 0.0, 0.0, 1.7063877798510363E9, 0.0, 2024-01-27 15:36:19.851
14.0, -495.22259253263474, -734.5761896967888, -550.5132734775543, -357.11556696891785, 0.09600000455975533, -0.03200000151991844, 0.9920000471174717, 0.0, 0.0, 0.0, 0.0, 0.0, 1.7063877798510363E9, 0.0, 2024-01-27 15:36:19.851
15.0, -475.5955975651741, -713.5130731463432, -539.5030080080032, -299.4313500523567, 0.09600000455975533, -0.03200000151991844, 0.9920000471174717, 0.0, 0.0, 0.0, 0.0, 0.0, 1.706387779882725E9, 0.0, 2024-01-27 15:36:19.882
15.0, -593.8362745642662, -727.8742889761925, -543.811372756958, -447.83058029413223, 0.09600000455975533, -0.03200000151991844, 0.9920000471174717, 0.0, 0.0, 0.0, 0.0, 0.0, 1.706387779882725E9, 0.0, 2024-01-27 15:36:19.882
16.0, -537.3488256335258, -739.8419688344002, -550.034566283226, -410.73077273368835, 0.09600000455975533, -0.03200000151991844, 0.9920000471174717, 0.0, 0.0, 0.0, 0.0, 0.0, 1.7063877798834548E9, 0.0, 2024-01-27 15:36:19.883
16.0, -454.2931274175644, -715.6672555208206, -538.5455936193466, -281.9585374593735, 0.09600000455975533, -0.03200000151991844, 0.9920000471174717, 0.0, 0.0, 0.0, 0.0, 0.0, 1.7063877798834548E9, 0.0, 2024-01-27 15:36:19.883
17.0, -556.0184062123299, -719.2575594782829, -536.8701184391975, -388.94959539175034, 0.09600000455975533, -0.03200000151991844, 0.9920000471174717, 0.0, 0.0, 0.0, 0.0, 0.0, 1.706387779884188E9, 0.0, 2024-01-27 15:36:19.884
17.0, -567.5073788762093, -729.7891177535057, -539.5030080080032, -446.3944587111473, 0.09600000455975533, -0.03200000151991844, 0.9920000471174717, 0.0, 0.0, 0.0, 0.0, 0.0, 1.706387779884188E9, 0.0, 2024-01-27 15:36:19.884
18.0, -452.37829864025116, -720.6936810612679, -541.1784831881523, -303.02165400981903, 0.09600000455975533, -0.03200000151991844, 0.9920000471174717, 0.0, 0.0, 0.0, 0.0, 0.0, 1.7063877798849702E9, 0.0, 2024-01-27 15:36:19.884
18.0, -505.99350440502167, -711.8375979661942, -537.58817923069, -336.29180401563644, 0.09600000455975533, -0.03200000151991844, 0.9920000471174717, 0.0, 0.0, 0.0, 0.0, 0.0, 1.7063877798849702E9, 0.0, 2024-01-27 15:36:19.884
19.0, -594.0756281614304, -731.7039465308189, -544.2900799512863, -465.7821000814438, 0.09600000455975533, -0.03200000151991844, 0.9920000471174717, 0.0, 0.0, 0.0, 0.0, 0.0, 1.7063877798957028E9, 0.0, 2024-01-27 15:36:19.895
19.0, -487.32392382621765, -727.6349353790283, -545.9655551314354, -360.22716373205185, 0.09600000455975533, -0.03200000151991844, 0.9920000471174717, 0.0, 0.0, 0.0, 0.0, 0.0, 1.7063877798957028E9, 0.0, 2024-01-27 15:36:19.895
20.0, -477.2710727453232, -715.9066091179848, -547.4016767144203, -299.19199645519257, 0.09600000455975533, -0.03200000151991844, 1.008000047877431, 0.0, 0.0, 0.0, 0.0, 0.0, 1.7063877799107535E9, 0.0, 2024-01-27 15:36:19.910
20.0, -589.5279098153114, -722.1298026442528, -533.5191680788994, -441.3680331707001, 0.09600000455975533, -0.03200000151991844, 1.008000047877431, 0.0, 0.0, 0.0, 0.0, 0.0, 1.7063877799107535E9, 0.0, 2024-01-27 15:36:19.910
21.0, -530.1682177186012, -734.8155432939529, -537.8275328278542, -403.3108112215996, 0.09600000455975533, -0.03200000151991844, 1.008000047877431, 0.0, 0.0, 0.0, 0.0, 0.0, 1.7063877799264188E9, 0.0, 2024-01-27 15:36:19.926
21.0, -444.71898353099823, -714.4704875349998, -541.1784831881523, -281.7191838622093, 0.09600000455975533, -0.03200000151991844, 1.008000047877431, 0.0, 0.0, 0.0, 0.0, 0.0, 1.7063877799264188E9, 0.0, 2024-01-27 15:36:19.926
22.0, -558.1725885868073, -722.3691562414169, -541.1784831881523, -395.4121425151825, 0.11200000531971455, -0.03200000151991844, 1.008000047877431, 0.0, 0.0, 0.0, 0.0, 0.0, 1.706387779927112E9, 0.0, 2024-01-27 15:36:19.927
22.0, -570.6189756393433, -730.0284713506699, -544.5294335484505, -449.26670187711716, 0.11200000531971455, -0.03200000151991844, 1.008000047877431, 0.0, 0.0, 0.0, 0.0, 0.0, 1.706387779927112E9, 0.0, 2024-01-27 15:36:19.927
23.0, -458.60149216651917, -727.8742889761925, -548.8377982974052, -312.5957978963852, 0.11200000531971455, -0.03200000151991844, 1.008000047877431, 0.0, 0.0, 0.0, 0.0, 0.0, 1.7063877799408777E9, 0.0, 2024-01-27 15:36:19.940
23.0, -507.9083331823349, -714.2311339378357, -539.7423616051674, -342.99370473623276, 0.11200000531971455, -0.03200000151991844, 1.008000047877431, 0.0, 0.0, 0.0, 0.0, 0.0, 1.7063877799408777E9, 0.0, 2024-01-27 15:36:19.940
24.0, -592.6395065784454, -730.5071785449982, -547.8803839087486, -469.13305044174194, 0.11200000531971455, -0.03200000151991844, 1.008000047877431, 0.0, 0.0, 0.0, 0.0, 0.0, 1.7063877799565573E9, 0.0, 2024-01-27 15:36:19.956
24.0, -490.43552058935165, -729.5497641563416, -547.8803839087486, -358.3123349547386, 0.11200000531971455, -0.03200000151991844, 1.008000047877431, 0.0, 0.0, 0.0, 0.0, 0.0, 1.7063877799565573E9, 0.0, 2024-01-27 15:36:19.956
25.0, -473.4414151906967, -714.4704875349998, -547.8803839087486, -302.30359321832657, 0.11200000531971455, -0.03200000151991844, 1.008000047877431, 0.0, 0.0, 0.0, 0.0, 0.0, 1.7063877799571645E9, 0.0, 2024-01-27 15:36:19.957
25.0, -591.6820921897888, -726.9168745875359, -541.8965439796448, -444.9583371281624, 0.11200000531971455, -0.03200000151991844, 1.008000047877431, 0.0, 0.0, 0.0, 0.0, 0.0, 1.7063877799571645E9, 0.0, 2024-01-27 15:36:19.957
26.0, -531.1256321072578, -737.4484328627586, -549.3165054917336, -408.8159439563751, 0.11200000531971455, -0.03200000151991844, 1.008000047877431, 0.0, 0.0, 0.0, 0.0, 0.0, 1.7063877799711647E9, 0.0, 2024-01-27 15:36:19.971
26.0, -447.5912266969681, -717.3427307009697, -552.4281022548676, -293.686863720417, 0.11200000531971455, -0.03200000151991844, 1.008000047877431, 0.0, 0.0, 0.0, 0.0, 0.0, 1.7063877799711647E9, 0.0, 2024-01-27 15:36:19.971
27.0, -553.3855166435242, -719.4969130754471, -545.2474943399429, -398.76309287548065, 0.11200000531971455, -0.03200000151991844, 1.008000047877431, 0.0, 0.0, 0.0, 0.0, 0.0, 1.7063877799863784E9, 0.0, 2024-01-27 15:36:19.986
27.0, -565.592550098896, -730.0284713506699, -544.2900799512863, -455.250541806221, 0.11200000531971455, -0.03200000151991844, 1.008000047877431, 0.0, 0.0, 0.0, 0.0, 0.0, 1.7063877799863784E9, 0.0, 2024-01-27 15:36:19.986
28.0, -443.52221554517746, -714.709841132164, -548.5984447002411, -307.3300187587738, 0.11200000531971455, -0.03200000151991844, 1.008000047877431, 0.0, 0.0, 0.0, 0.0, 0.0, 1.7063877799871213E9, 0.0, 2024-01-27 15:36:19.987
28.0, -506.71156519651413, -706.3324652314186, -537.8275328278542, -334.8556824326515, 0.11200000531971455, -0.03200000151991844, 1.008000047877431, 0.0, 0.0, 0.0, 0.0, 0.0, 1.7063877799871213E9, 0.0, 2024-01-27 15:36:19.987
29.0, -576.1241083741188, -718.3001450896263, -535.6733504533768, -459.3195529580116, 0.11200000531971455, -0.03200000151991844, 1.008000047877431, 0.0, 0.0, 0.0, 0.0, 0.0, 1.7063877800008636E9, 0.0, 2024-01-27 15:36:20.000
29.0, -477.031719148159, -718.7788522839546, -546.4442623257637, -354.00397020578384, 0.11200000531971455, -0.03200000151991844, 1.008000047877431, 0.0, 0.0, 0.0, 0.0, 0.0, 1.7063877800008636E9, 0.0, 2024-01-27 15:36:20.000
30.0, -470.56917202472687, -710.8801835775375, -542.8539583683014, -302.30359321832657, 0.11200000531971455, -0.03200000151991844, 0.9920000471174717, 0.0, 0.0, 0.0, 0.0, 0.0, 1.7063877800164473E9, 0.0, 2024-01-27 15:36:20.016
30.0, -590.9640313982964, -726.6775209903717, -542.8539583683014, -448.78799468278885, 0.11200000531971455, -0.03200000151991844, 0.9920000471174717, 0.0, 0.0, 0.0, 0.0, 0.0, 1.7063877800164473E9, 0.0, 2024-01-27 15:36:20.016
31.0, -532.3224000930786, -737.927140057087, -550.7526270747185, -412.40624791383743, 0.11200000531971455, -0.01600000075995922, 0.9920000471174717, 0.0, 0.0, 0.0, 0.0, 0.0, 1.706387780017115E9, 0.0, 2024-01-27 15:36:20.017
31.0, -455.250541806221, -719.4969130754471, -556.4971134066582, -294.16557091474533, 0.11200000531971455, -0.01600000075995922, 0.9920000471174717, 0.0, 0.0, 0.0, 0.0, 0.0, 1.706387780017115E9, 0.0, 2024-01-27 15:36:20.017
32.0, -565.8319036960602, -727.6349353790283, -548.8377982974052, -405.7043471932411, 0.11200000531971455, -0.01600000075995922, 0.9920000471174717, 0.0, 0.0, 0.0, 0.0, 0.0, 1.7063877800306902E9, 0.0, 2024-01-27 15:36:20.030
32.0, -573.7305724024773, -742.9535655975342, -555.5396990180016, -463.86727130413055, 0.11200000531971455, -0.01600000075995922, 0.9920000471174717, 0.0, 0.0, 0.0, 0.0, 0.0, 1.7063877800306902E9, 0.0, 2024-01-27 15:36:20.030
33.0, -457.4047241806984, -725.9594601988792, -557.6938813924789, -314.98933386802673, 0.11200000531971455, -0.01600000075995922, 0.9920000471174717, 0.0, 0.0, 0.0, 0.0, 0.0, 1.7063877800464728E9, 0.0, 2024-01-27 15:36:20.046
33.0, -515.807001888752, -716.3853163123131, -547.8803839087486, -347.0627158880234, 0.11200000531971455, -0.01600000075995922, 0.9920000471174717, 0.0, 0.0, 0.0, 0.0, 0.0, 1.7063877800464728E9, 0.0, 2024-01-27 15:36:20.046
34.0, -595.5117497444153, -731.7039465308189, -548.3590911030769, -473.20206159353256, 0.11200000531971455, -0.01600000075995922, 0.9920000471174717, 0.0, 0.0, 0.0, 0.0, 0.0, 1.7063877800470965E9, 0.0, 2024-01-27 15:36:20.047
34.0, -490.43552058935165, -735.5336040854454, -558.8906493782997, -367.1684180498123, 0.11200000531971455, -0.01600000075995922, 0.9920000471174717, 0.0, 0.0, 0.0, 0.0, 0.0, 1.7063877800470965E9, 0.0, 2024-01-27 15:36:20.047
35.0, -476.31365835666656, -715.9066091179848, -546.4442623257637, -307.8087259531021, 0.11200000531971455, -0.01600000075995922, 0.9920000471174717, 0.0, 0.0, 0.0, 0.0, 0.0, 1.7063877800608757E9, 0.0, 2024-01-27 15:36:20.060
35.0, -599.5807608962059, -732.4220073223114, -553.3855166435242, -455.48989540338516, 0.11200000531971455, -0.01600000075995922, 0.9920000471174717, 0.0, 0.0, 0.0, 0.0, 0.0, 1.7063877800608757E9, 0.0, 2024-01-27 15:36:20.060
36.0, -539.9817152023315, -737.4484328627586, -557.6938813924789, -417.43267345428467, 0.11200000531971455, -0.01600000075995922, 0.9920000471174717, 0.0, 0.0, 0.0, 0.0, 0.0, 1.7063877800764415E9, 0.0, 2024-01-27 15:36:20.076
36.0, -458.60149216651917, -713.5130731463432, -548.8377982974052, -292.01138854026794, 0.11200000531971455, -0.01600000075995922, 0.9920000471174717, 0.0, 0.0, 0.0, 0.0, 0.0, 1.7063877800764415E9, 0.0, 2024-01-27 15:36:20.076
37.0, -557.9332349896431, -715.4279019236565, -543.5720191597939, -405.2256399989128, 0.11200000531971455, -0.01600000075995922, 0.9920000471174717, 0.0, 0.0, 0.0, 0.0, 0.0, 1.7063877800771043E9, 0.0, 2024-01-27 15:36:20.077
37.0, -566.0712572932243, -730.0284713506699, -546.922969520092, -458.362138569355, 0.11200000531971455, -0.01600000075995922, 0.9920000471174717, 0.0, 0.0, 0.0, 0.0, 0.0, 1.7063877800771043E9, 0.0, 2024-01-27 15:36:20.077
38.0, -453.3357130289078, -721.8904490470886, -550.7526270747185, -317.8615770339966, 0.11200000531971455, -0.01600000075995922, 0.9920000471174717, 0.0, 0.0, 0.0, 0.0, 0.0, 1.706387780090813E9, 0.0, 2024-01-27 15:36:20.090
38.0, -515.5676482915878, -712.7950123548508, -550.2739198803902, -350.6530198454857, 0.11200000531971455, -0.01600000075995922, 0.9920000471174717, 0.0, 0.0, 0.0, 0.0, 0.0, 1.706387780090813E9, 0.0, 2024-01-27 15:36:20.090
39.0, -597.6659321188927, -735.0548968911171, -553.6248702406883, -472.72335439920425, 0.11200000531971455, -0.01600000075995922, 0.9920000471174717, 0.0, 0.0, 0.0, 0.0, 0.0, 1.7063877801064584E9, 0.0, 2024-01-27 15:36:20.106
39.0, -493.54711735248566, -732.1826537251472, -553.3855166435242, -364.0568212866783, 0.11200000531971455, -0.01600000075995922, 0.9920000471174717, 0.0, 0.0, 0.0, 0.0, 0.0, 1.7063877801064584E9, 0.0, 2024-01-27 15:36:20.106
40.0, -478.94654792547226, -715.9066091179848, -546.2049087285995, -307.3300187587738, 0.11200000531971455, -0.01600000075995922, 0.9920000471174717, 0.0, 0.0, 0.0, 0.0, 0.0, 1.706387780107126E9, 0.0, 2024-01-27 15:36:20.107
40.0, -599.3414072990417, -731.4645929336548, -550.2739198803902, -452.6176522374153, 0.11200000531971455, -0.01600000075995922, 0.9920000471174717, 0.0, 0.0, 0.0, 0.0, 0.0, 1.706387780107126E9, 0.0, 2024-01-27 15:36:20.107
41.0, -541.4178367853165, -744.8683943748474, -557.2151741981506, -421.022977411747, 0.11200000531971455, -0.03200000151991844, 0.9920000471174717, 0.0, 0.0, 0.0, 0.0, 0.0, 1.7063877801209445E9, 0.0, 2024-01-27 15:36:20.120
41.0, -463.1492105126381, -727.3955817818642, -558.8906493782997, -300.38876444101334, 0.11200000531971455, -0.03200000151991844, 0.9920000471174717, 0.0, 0.0, 0.0, 0.0, 0.0, 1.7063877801209445E9, 0.0, 2024-01-27 15:36:20.120
42.0, -569.4222076535225, -724.5233386158943, -549.5558590888977, -405.7043471932411, 0.11200000531971455, -0.03200000151991844, 0.9920000471174717, 0.0, 0.0, 0.0, 0.0, 0.0, 1.7063877801364267E9, 0.0, 2024-01-27 15:36:20.136
42.0, -578.038937151432, -742.2355048060417, -555.3003454208374, -460.75567454099655, 0.11200000531971455, -0.03200000151991844, 0.9920000471174717, 0.0, 0.0, 0.0, 0.0, 0.0, 1.7063877801364267E9, 0.0, 2024-01-27 15:36:20.136
43.0, -461.473735332489, -726.4381673932076, -550.2739198803902, -307.8087259531021, 0.11200000531971455, -0.03200000151991844, 0.9920000471174717, 0.0, 0.0, 0.0, 0.0, 0.0, 1.7063877801370964E9, 0.0, 2024-01-27 15:36:20.137
43.0, -521.7908418178558, -714.9491947293282, -548.1197375059128, -347.5414230823517, 0.11200000531971455, -0.03200000151991844, 0.9920000471174717, 0.0, 0.0, 0.0, 0.0, 0.0, 1.7063877801370964E9, 0.0, 2024-01-27 15:36:20.137
44.0, -599.1020537018776, -733.8581289052963, -545.0081407427788, -469.8511112332344, 0.11200000531971455, -0.03200000151991844, 0.9920000471174717, 0.0, 0.0, 0.0, 0.0, 0.0, 1.7063877801507092E9, 0.0, 2024-01-27 15:36:20.150
44.0, -492.8290565609932, -730.9858857393265, -547.6410303115845, -359.26974934339523, 0.11200000531971455, -0.03200000151991844, 0.9920000471174717, 0.0, 0.0, 0.0, 0.0, 0.0, 1.7063877801507092E9, 0.0, 2024-01-27 15:36:20.150
45.0, -485.6484486460686, -726.4381673932076, -552.6674558520317, -306.3726043701172, 0.11200000531971455, -0.03200000151991844, 0.9920000471174717, 0.0, 0.0, 0.0, 0.0, 0.0, 1.706387780166682E9, 0.0, 2024-01-27 15:36:20.166
45.0, -593.596920967102, -725.9594601988792, -545.9655551314354, -448.5486410856247, 0.11200000531971455, -0.03200000151991844, 0.9920000471174717, 0.0, 0.0, 0.0, 0.0, 0.0, 1.706387780166682E9, 0.0, 2024-01-27 15:36:20.166
46.0, -536.3914112448692, -732.4220073223114, -547.8803839087486, -412.1668943166733, 0.11200000531971455, -0.03200000151991844, 0.9920000471174717, 0.0, 0.0, 0.0, 0.0, 0.0, 1.706387780167159E9, 0.0, 2024-01-27 15:36:20.167
46.0, -458.362138569355, -716.8640235066414, -545.2474943399429, -288.6604381799698, 0.11200000531971455, -0.03200000151991844, 0.9920000471174717, 0.0, 0.0, 0.0, 0.0, 0.0, 1.706387780167159E9, 0.0, 2024-01-27 15:36:20.167
47.0, -563.4383677244186, -720.933034658432, -540.699775993824, -399.0024464726448, 0.11200000531971455, -0.03200000151991844, 0.9920000471174717, 0.0, 0.0, 0.0, 0.0, 0.0, 1.7063877801808758E9, 0.0, 2024-01-27 15:36:20.180
47.0, -578.7569979429245, -734.8155432939529, -548.3590911030769, -457.16537058353424, 0.11200000531971455, -0.03200000151991844, 0.9920000471174717, 0.0, 0.0, 0.0, 0.0, 0.0, 1.7063877801808758E9, 0.0, 2024-01-27 15:36:20.180
48.0, -456.2079561948776, -725.2413994073868, -554.3429310321808, -312.35644429922104, 0.11200000531971455, -0.03200000151991844, 0.9920000471174717, 0.0, 0.0, 0.0, 0.0, 0.0, 1.7063877801963692E9, 0.0, 2024-01-27 15:36:20.196
48.0, -517.4824770689011, -718.0607914924622, -545.7262015342712, -346.10530149936676, 0.11200000531971455, -0.03200000151991844, 0.9920000471174717, 0.0, 0.0, 0.0, 0.0, 0.0, 1.7063877801963692E9, 0.0, 2024-01-27 15:36:20.196
49.0, -604.6071864366531, -738.6452008485794, -545.9655551314354, -477.031719148159, 0.11200000531971455, -0.03200000151991844, 0.9920000471174717, 0.0, 0.0, 0.0, 0.0, 0.0, 1.7063877801970692E9, 0.0, 2024-01-27 15:36:20.197
49.0, -496.18000692129135, -735.5336040854454, -554.3429310321808, -366.2110036611557, 0.11200000531971455, -0.03200000151991844, 0.9920000471174717, 0.0, 0.0, 0.0, 0.0, 0.0, 1.7063877801970692E9, 0.0, 2024-01-27 15:36:20.197
50.0, -484.9303878545761, -723.5659242272377, -551.9493950605392, -315.46804106235504, 0.11200000531971455, -0.03200000151991844, 1.008000047877431, 0.0, 0.0, 0.0, 0.0, 0.0, 1.706387780210694E9, 0.0, 2024-01-27 15:36:20.210
50.0, -604.367832839489, -735.2942504882812, -547.8803839087486, -453.0963594317436, 0.11200000531971455, -0.03200000151991844, 1.008000047877431, 0.0, 0.0, 0.0, 0.0, 0.0, 1.706387780210694E9, 0.0, 2024-01-27 15:36:20.210
51.0, -545.0081407427788, -743.1929191946983, -550.7526270747185, -416.47525906562805, 0.11200000531971455, -0.03200000151991844, 1.008000047877431, 0.0, 0.0, 0.0, 0.0, 0.0, 1.7063877802263467E9, 0.0, 2024-01-27 15:36:20.226
51.0, -469.13305044174194, -730.7465321421623, -556.0184062123299, -298.71328926086426, 0.11200000531971455, -0.03200000151991844, 1.008000047877431, 0.0, 0.0, 0.0, 0.0, 0.0, 1.7063877802263467E9, 0.0, 2024-01-27 15:36:20.226
52.0, -569.9009148478508, -730.9858857393265, -549.7952126860619, -406.9011151790619, 0.11200000531971455, -0.03200000151991844, 1.008000047877431, 0.0, 0.0, 0.0, 0.0, 0.0, 1.706387780227078E9, 0.0, 2024-01-27 15:36:20.227
52.0, -582.8260090947151, -745.3471015691757, -560.3267709612846, -460.9950281381607, 0.11200000531971455, -0.03200000151991844, 1.008000047877431, 0.0, 0.0, 0.0, 0.0, 0.0, 1.706387780227078E9, 0.0, 2024-01-27 15:36:20.227
53.0, -462.90985691547394, -729.5497641563416, -553.3855166435242, -316.1861018538475, 0.11200000531971455, -0.03200000151991844, 1.008000047877431, 0.0, 0.0, 0.0, 0.0, 0.0, 1.706387780240806E9, 0.0, 2024-01-27 15:36:20.240
53.0, -527.2959745526314, -723.3265706300735, -548.8377982974052, -350.89237344264984, 0.11200000531971455, -0.03200000151991844, 1.008000047877431, 0.0, 0.0, 0.0, 0.0, 0.0, 1.706387780240806E9, 0.0, 2024-01-27 15:36:20.240
54.0, -609.3942583799362, -745.3471015691757, -549.5558590888977, -473.920122385025, 0.11200000531971455, -0.03200000151991844, 1.008000047877431, 0.0, 0.0, 0.0, 0.0, 0.0, 1.706387780256498E9, 0.0, 2024-01-27 15:36:20.256
54.0, -504.07867562770844, -741.038736820221, -555.7790526151657, -364.29617488384247, 0.11200000531971455, -0.03200000151991844, 1.008000047877431, 0.0, 0.0, 0.0, 0.0, 0.0, 1.706387780256498E9, 0.0, 2024-01-27 15:36:20.256
55.0, -492.11099576950073, -724.044631421566, -554.8216382265091, -312.83515149354935, 0.11200000531971455, -0.03200000151991844, 1.008000047877431, 0.0, 0.0, 0.0, 0.0, 0.0, 1.7063877802570872E9, 0.0, 2024-01-27 15:36:20.257
55.0, -604.367832839489, -734.3368360996246, -548.5984447002411, -454.7718346118927, 0.11200000531971455, -0.03200000151991844, 1.008000047877431, 0.0, 0.0, 0.0, 0.0, 0.0, 1.7063877802570872E9, 0.0, 2024-01-27 15:36:20.257
56.0, -541.4178367853165, -738.4058472514153, -553.3855166435242, -414.0817230939865, 0.11200000531971455, -0.03200000151991844, 1.008000047877431, 0.0, 0.0, 0.0, 0.0, 0.0, 1.7063877802706923E9, 0.0, 2024-01-27 15:36:20.270
56.0, -464.82468569278717, -725.4807530045509, -547.1623231172562, -292.2507421374321, 0.11200000531971455, -0.03200000151991844, 1.008000047877431, 0.0, 0.0, 0.0, 0.0, 0.0, 1.7063877802706923E9, 0.0, 2024-01-27 15:36:20.270
57.0, -575.8847547769547, -733.379421710968, -554.3429310321808, -409.5340047478676, 0.11200000531971455, -0.03200000151991844, 1.008000047877431, 0.0, 0.0, 0.0, 0.0, 0.0, 1.7063877802865648E9, 0.0, 2024-01-27 15:36:20.286
57.0, -582.586655497551, -746.7832231521606, -559.6087101697922, -466.2608072757721, 0.11200000531971455, -0.03200000151991844, 1.008000047877431, 0.0, 0.0, 0.0, 0.0, 0.0, 1.7063877802865648E9, 0.0, 2024-01-27 15:36:20.286
58.0, -466.7395144701004, -731.7039465308189, -559.6087101697922, -320.01575940847397, 0.11200000531971455, -0.03200000151991844, 1.008000047877431, 0.0, 0.0, 0.0, 0.0, 0.0, 1.7063877802872772E9, 0.0, 2024-01-27 15:36:20.287
58.0, -519.8760130405426, -719.4969130754471, -555.0609918236732, -352.0891414284706, 0.11200000531971455, -0.03200000151991844, 1.008000047877431, 0.0, 0.0, 0.0, 0.0, 0.0, 1.7063877802872772E9, 0.0, 2024-01-27 15:36:20.287
59.0, -597.6659321188927, -736.0123112797737, -551.7100414633751, -477.98913353681564, 0.11200000531971455, -0.03200000151991844, 1.008000047877431, 0.0, 0.0, 0.0, 0.0, 0.0, 1.7063877803006985E9, 0.0, 2024-01-27 15:36:20.300
59.0, -490.91422778367996, -731.9433001279831, -556.9758206009865, -364.29617488384247, 0.11200000531971455, -0.03200000151991844, 1.008000047877431, 0.0, 0.0, 0.0, 0.0, 0.0, 1.7063877803006985E9, 0.0, 2024-01-27 15:36:20.300
60.0, -477.51042634248734, -716.8640235066414, -546.4442623257637, -306.3726043701172, 0.11200000531971455, -0.03200000151991844, 1.008000047877431, 0.0, 0.0, 0.0, 0.0, 0.0, 1.706387780316636E9, 0.0, 2024-01-27 15:36:20.316
60.0, -594.3149817585945, -730.0284713506699, -546.2049087285995, -460.0376137495041, 0.11200000531971455, -0.03200000151991844, 1.008000047877431, 0.0, 0.0, 0.0, 0.0, 0.0, 1.706387780316636E9, 0.0, 2024-01-27 15:36:20.316
61.0, -532.3224000930786, -736.0123112797737, -552.4281022548676, -418.3900878429413, 0.11200000531971455, -0.01600000075995922, 1.008000047877431, 0.0, 0.0, 0.0, 0.0, 0.0, 1.706387780317139E9, 0.0, 2024-01-27 15:36:20.317
61.0, -459.79826015233994, -720.2149738669395, -552.6674558520317, -301.82488602399826, 0.11200000531971455, -0.01600000075995922, 1.008000047877431, 0.0, 0.0, 0.0, 0.0, 0.0, 1.706387780317139E9, 0.0, 2024-01-27 15:36:20.317
62.0, -557.6938813924789, -715.1885483264923, -548.8377982974052, -403.3108112215996, 0.11200000531971455, -0.01600000075995922, 1.008000047877431, 0.0, 0.0, 0.0, 0.0, 0.0, 1.706387780330686E9, 0.0, 2024-01-27 15:36:20.330
62.0, -566.0712572932243, -730.9858857393265, -548.5984447002411, -457.16537058353424, 0.11200000531971455, -0.01600000075995922, 1.008000047877431, 0.0, 0.0, 0.0, 0.0, 0.0, 1.706387780330686E9, 0.0, 2024-01-27 15:36:20.330
63.0, -449.74540907144547, -724.7626922130585, -554.3429310321808, -318.3402842283249, 0.11200000531971455, -0.01600000075995922, 1.008000047877431, 0.0, 0.0, 0.0, 0.0, 0.0, 1.7063877803463564E9, 0.0, 2024-01-27 15:36:20.346
63.0, -513.1741123199463, -712.5556587576866, -545.9655551314354, -347.0627158880234, 0.11200000531971455, -0.01600000075995922, 1.008000047877431, 0.0, 0.0, 0.0, 0.0, 0.0, 1.7063877803463564E9, 0.0, 2024-01-27 15:36:20.346
64.0, -591.921445786953, -732.6613609194756, -545.4868479371071, -472.0052936077118, 0.11200000531971455, -0.01600000075995922, 1.008000047877431, 0.0, 0.0, 0.0, 0.0, 0.0, 1.7063877803470864E9, 0.0, 2024-01-27 15:36:20.347
64.0, -486.6058630347252, -729.5497641563416, -550.2739198803902, -358.3123349547386, 0.11200000531971455, -0.01600000075995922, 1.008000047877431, 0.0, 0.0, 0.0, 0.0, 0.0, 1.7063877803470864E9, 0.0, 2024-01-27 15:36:20.347
65.0, -474.39882957935333, -711.3588907718658, -544.7687871456146, -306.3726043701172, 0.11200000531971455, -0.01600000075995922, 1.008000047877431, 0.0, 0.0, 0.0, 0.0, 0.0, 1.7063877803610651E9, 0.0, 2024-01-27 15:36:20.361
65.0, -592.6395065784454, -727.8742889761925, -545.7262015342712, -451.1815306544304, 0.11200000531971455, -0.01600000075995922, 1.008000047877431, 0.0, 0.0, 0.0, 0.0, 0.0, 1.7063877803610651E9, 0.0, 2024-01-27 15:36:20.361
66.0, -530.8862785100937, -734.5761896967888, -552.4281022548676, -422.69845259189606, 0.11200000531971455, -0.01600000075995922, 1.008000047877431, 0.0, 0.0, 0.0, 0.0, 0.0, 1.7063877803766413E9, 0.0, 2024-01-27 15:36:20.376
66.0, -449.74540907144547, -713.5130731463432, -543.5720191597939, -291.2933277487755, 0.11200000531971455, -0.01600000075995922, 1.008000047877431, 0.0, 0.0, 0.0, 0.0, 0.0, 1.7063877803766413E9, 0.0, 2024-01-27 15:36:20.376
