%OpenBCI Raw EXG Data
%Number of channels = 4
%Sample Rate = 200 Hz
%Board = OpenBCI_GUI$BoardGanglionBLE
Sample Index, EXG Channel 0, EXG Channel 1, EXG Channel 2, EXG Channel 3, Accel Channel 0, Accel Channel 1, Accel Channel 2, Other, Other, Other, Other, Other, Timestamp, Other, Timestamp (Formatted)
0.0, -477.51042634248734, -413.36366230249405, -330.06861048936844, -265.2037856578827, 0.0, 0.0, -0.11200000531971455, 0.0, 0.0, 0.0, 0.0, 0.0, 1.7063890308954265E9, 0.0, 2024-01-27 15:57:10.895
0.0, -357.59427416324615, -413.36366230249405, -362.6206997036934, -200.5783144235611, 0.0, 0.0, -0.11200000531971455, 0.0, 0.0, 0.0, 0.0, 0.0, 1.7063890308954265E9, 0.0, 2024-01-27 15:57:10.895
1.0, -381.2902802824974, -416.7146126627922, -369.08324682712555, -174.24941873550415, 0.0, 0.11200000531971455, -0.11200000531971455, 0.0, 0.0, 0.0, 0.0, 0.0, 1.706389030909305E9, 0.0, 2024-01-27 15:57:10.909
1.0, -476.5530119538307, -401.39598244428635, -319.53705221414566, -243.18325471878052, 0.0, 0.11200000531971455, -0.11200000531971455, 0.0, 0.0, 0.0, 0.0, 0.0, 1.706389030909305E9, 0.0, 2024-01-27 15:57:10.909
2.0, -391.3431313633919, -404.2682256102562, -339.1640471816063, -219.96595579385757, 0.11200000531971455, 0.11200000531971455, -0.11200000531971455, 0.0, 0.0, 0.0, 0.0, 0.0, 1.7063890309235287E9, 0.0, 2024-01-27 15:57:10.923
2.0, -353.0465558171272, -416.2359054684639, -371.71613639593124, -159.64884930849075, 0.11200000531971455, 0.11200000531971455, -0.11200000531971455, 0.0, 0.0, 0.0, 0.0, 0.0, 1.7063890309235287E9, 0.0, 2024-01-27 15:57:10.923
3.0, -457.4047241806984, -403.7895184159279, -333.8982680439949, -219.72660219669342, 0.11200000531971455, 0.11200000531971455, -0.11200000531971455, 0.0, 0.0, 0.0, 0.0, 0.0, 1.7063890309390929E9, 0.0, 2024-01-27 15:57:10.939
3.0, -420.54427021741867, -386.31670582294464, -310.68096911907196, -234.08781802654266, 0.11200000531971455, 0.11200000531971455, -0.11200000531971455, 0.0, 0.0, 0.0, 0.0, 0.0, 1.7063890309390929E9, 0.0, 2024-01-27 15:57:10.939
4.0, -319.2976986169815, -397.3269712924957, -352.0891414284706, -154.38307017087936, 0.11200000531971455, 0.11200000531971455, -0.11200000531971455, 0.0, 0.0, 0.0, 0.0, 0.0, 1.7063890309396155E9, 0.0, 2024-01-27 15:57:10.939
4.0, -407.14046877622604, -397.80567848682404, -339.40340077877045, -180.233258664608, 0.11200000531971455, 0.11200000531971455, -0.11200000531971455, 0.0, 0.0, 0.0, 0.0, 0.0, 1.7063890309396155E9, 0.0, 2024-01-27 15:57:10.939
5.0, -451.6602378487587, -389.6676561832428, -306.3726043701172, -241.50777953863144, 0.11200000531971455, 0.11200000531971455, -0.11200000531971455, 0.0, 0.0, 0.0, 0.0, 0.0, 1.7063890309538405E9, 0.0, 2024-01-27 15:57:10.953
5.0, -329.58990329504013, -388.94959539175034, -342.2756439447403, -179.27584427595139, 0.11200000531971455, 0.11200000531971455, -0.11200000531971455, 0.0, 0.0, 0.0, 0.0, 0.0, 1.7063890309538405E9, 0.0, 2024-01-27 15:57:10.953
6.0, -363.0994068980217, -405.7043471932411, -355.9187989830971, -164.675274848938, 0.11200000531971455, 0.11200000531971455, -0.11200000531971455, 0.0, 0.0, 0.0, 0.0, 0.0, 1.7063890309546068E9, 0.0, 2024-01-27 15:57:10.954
6.0, -474.6381831765175, -401.87468963861465, -321.4518809914589, -244.61937630176544, 0.11200000531971455, 0.11200000531971455, -0.11200000531971455, 0.0, 0.0, 0.0, 0.0, 0.0, 1.7063890309546068E9, 0.0, 2024-01-27 15:57:10.954
7.0, -376.98191553354263, -398.0450320839882, -342.2756439447403, -220.44466298818588, 0.11200000531971455, 0.11200000531971455, -0.11200000531971455, 0.0, 0.0, 0.0, 0.0, 0.0, 1.7063890309682884E9, 0.0, 2024-01-27 15:57:10.968
7.0, -340.83952236175537, -409.0552975535393, -367.1684180498123, -153.90436297655106, 0.11200000531971455, 0.11200000531971455, -0.11200000531971455, 0.0, 0.0, 0.0, 0.0, 0.0, 1.7063890309682884E9, 0.0, 2024-01-27 15:57:10.968
8.0, -467.9362824559212, -418.3900878429413, -342.2756439447403, -230.2581604719162, 0.11200000531971455, 0.11200000531971455, -0.11200000531971455, 0.0, 0.0, 0.0, 0.0, 0.0, 1.70638903098441E9, 0.0, 2024-01-27 15:57:10.984
8.0, -444.00092273950577, -414.0817230939865, -334.13762164115906, -250.36386263370514, 0.11200000531971455, 0.11200000531971455, -0.11200000531971455, 0.0, 0.0, 0.0, 0.0, 0.0, 1.70638903098441E9, 0.0, 2024-01-27 15:57:10.984
9.0, -332.46214646101, -421.5016846060753, -377.6999763250351, -179.03649067878723, 0.11200000531971455, 0.11200000531971455, -0.11200000531971455, 0.0, 0.0, 0.0, 0.0, 0.0, 1.7063890309845269E9, 0.0, 2024-01-27 15:57:10.984
9.0, -419.10814863443375, -422.69845259189606, -358.7910421490669, -200.81766802072525, 0.11200000531971455, 0.11200000531971455, -0.11200000531971455, 0.0, 0.0, 0.0, 0.0, 0.0, 1.7063890309845269E9, 0.0, 2024-01-27 15:57:10.984
10.0, -462.90985691547394, -404.98628640174866, -319.53705221414566, -255.15093457698822, 0.11200000531971455, 0.11200000531971455, 0.5600000265985727, 0.0, 0.0, 0.0, 0.0, 0.0, 1.7063890309981425E9, 0.0, 2024-01-27 15:57:10.998
10.0, -335.3343896269798, -393.01860654354095, -343.9511191248894, -177.83972269296646, 0.11200000531971455, 0.11200000531971455, 0.5600000265985727, 0.0, 0.0, 0.0, 0.0, 0.0, 1.7063890309981425E9, 0.0, 2024-01-27 15:57:10.998
11.0, -368.3651860356331, -405.46499359607697, -357.354920566082, -167.786871612072, 0.11200000531971455, -0.5600000265985727, 0.5600000265985727, 0.0, 0.0, 0.0, 0.0, 0.0, 1.706389031013804E9, 0.0, 2024-01-27 15:57:11.013
11.0, -477.031719148159, -394.2153745293617, -310.68096911907196, -241.50777953863144, 0.11200000531971455, -0.5600000265985727, 0.5600000265985727, 0.0, 0.0, 0.0, 0.0, 0.0, 1.706389031013804E9, 0.0, 2024-01-27 15:57:11.013
12.0, -371.23742920160294, -385.359291434288, -320.2551130056381, -207.2802151441574, -0.5600000265985727, -0.5600000265985727, 0.5600000265985727, 0.0, 0.0, 0.0, 0.0, 0.0, 1.7063890310145016E9, 0.0, 2024-01-27 15:57:11.014
12.0, -319.05834501981735, -390.6250705718994, -350.41366624832153, -152.94694858789444, -0.5600000265985727, -0.5600000265985727, 0.5600000265985727, 0.0, 0.0, 0.0, 0.0, 0.0, 1.7063890310145016E9, 0.0, 2024-01-27 15:57:11.014
13.0, -438.25643640756607, -390.1463633775711, -319.53705221414566, -219.2478950023651, -0.5600000265985727, -0.5600000265985727, 0.5600000265985727, 0.0, 0.0, 0.0, 0.0, 0.0, 1.7063890310281465E9, 0.0, 2024-01-27 15:57:11.028
13.0, -405.7043471932411, -378.89674431085587, -307.09066516160965, -229.06139248609543, -0.5600000265985727, -0.5600000265985727, 0.5600000265985727, 0.0, 0.0, 0.0, 0.0, 0.0, 1.7063890310281465E9, 0.0, 2024-01-27 15:57:11.028
14.0, -313.0745050907135, -396.3695569038391, -365.01423567533493, -163.71786046028137, -0.5600000265985727, -0.5600000265985727, 0.5600000265985727, 0.0, 0.0, 0.0, 0.0, 0.0, 1.7063890310442257E9, 0.0, 2024-01-27 15:57:11.044
14.0, -403.0714576244354, -400.91727524995804, -348.73819106817245, -198.90283924341202, -0.5600000265985727, -0.5600000265985727, 0.5600000265985727, 0.0, 0.0, 0.0, 0.0, 0.0, 1.7063890310442257E9, 0.0, 2024-01-27 15:57:11.044
15.0, -455.01118820905685, -397.80567848682404, -318.10093063116074, -255.62964177131653, -0.5600000265985727, -0.5600000265985727, 0.5600000265985727, 0.0, 0.0, 0.0, 0.0, 0.0, 1.7063890310587873E9, 0.0, 2024-01-27 15:57:11.058
15.0, -330.54731768369675, -389.42830258607864, -337.72792559862137, -178.31842988729477, -0.5600000265985727, -0.5600000265985727, 0.5600000265985727, 0.0, 0.0, 0.0, 0.0, 0.0, 1.7063890310587873E9, 0.0, 2024-01-27 15:57:11.058
16.0, -370.9980756044388, -412.1668943166733, -366.45035725831985, -167.06881082057953, -0.5600000265985727, -0.5600000265985727, 0.5600000265985727, 0.0, 0.0, 0.0, 0.0, 0.0, 1.70638903105952E9, 0.0, 2024-01-27 15:57:11.059
16.0, -464.585332095623, -394.4547281265259, -316.42545545101166, -242.7045475244522, -0.5600000265985727, -0.5600000265985727, 0.5600000265985727, 0.0, 0.0, 0.0, 0.0, 0.0, 1.70638903105952E9, 0.0, 2024-01-27 15:57:11.059
17.0, -371.9554899930954, -389.1889489889145, -337.4885720014572, -221.8807845711708, -0.5600000265985727, -0.5600000265985727, 0.5600000265985727, 0.0, 0.0, 0.0, 0.0, 0.0, 1.706389031074182E9, 0.0, 2024-01-27 15:57:11.074
17.0, -341.796936750412, -410.0127119421959, -369.801307618618, -165.39333564043045, -0.5600000265985727, -0.5600000265985727, 0.5600000265985727, 0.0, 0.0, 0.0, 0.0, 0.0, 1.706389031074182E9, 0.0, 2024-01-27 15:57:11.074
18.0, -453.57506662607193, -403.7895184159279, -340.1214615702629, -230.2581604719162, -0.5600000265985727, -0.5600000265985727, 0.5600000265985727, 0.0, 0.0, 0.0, 0.0, 0.0, 1.7063890310745642E9, 0.0, 2024-01-27 15:57:11.074
18.0, -427.96423172950745, -401.6353360414505, -331.50473207235336, -249.40644824504852, -0.5600000265985727, -0.5600000265985727, 0.5600000265985727, 0.0, 0.0, 0.0, 0.0, 0.0, 1.7063890310745642E9, 0.0, 2024-01-27 15:57:11.074
19.0, -322.8880025744438, -406.1830543875694, -367.40777164697647, -167.786871612072, -0.5600000265985727, -0.5600000265985727, 0.5600000265985727, 0.0, 0.0, 0.0, 0.0, 0.0, 1.7063890310885272E9, 0.0, 2024-01-27 15:57:11.088
19.0, -411.20947992801666, -404.98628640174866, -350.1743126511574, -192.91899931430817, -0.5600000265985727, -0.5600000265985727, 0.5600000265985727, 0.0, 0.0, 0.0, 0.0, 0.0, 1.7063890310885272E9, 0.0, 2024-01-27 15:57:11.088
20.0, -465.7821000814438, -399.9598608613014, -320.73382019996643, -257.3051169514656, -0.5600000265985727, -0.5600000265985727, 0.7840000372380018, 0.0, 0.0, 0.0, 0.0, 0.0, 1.7063890311038268E9, 0.0, 2024-01-27 15:57:11.103
20.0, -341.55758315324783, -400.43856805562973, -354.243323802948, -192.2009385228157, -0.5600000265985727, -0.5600000265985727, 0.7840000372380018, 0.0, 0.0, 0.0, 0.0, 0.0, 1.7063890311038268E9, 0.0, 2024-01-27 15:57:11.103
21.0, -363.0994068980217, -403.0714576244354, -357.354920566082, -167.54751801490784, -0.5600000265985727, -0.7840000372380018, 0.7840000372380018, 0.0, 0.0, 0.0, 0.0, 0.0, 1.7063890311048276E9, 0.0, 2024-01-27 15:57:11.104
21.0, -462.43114972114563, -390.6250705718994, -320.4944666028023, -247.73097306489944, -0.5600000265985727, -0.7840000372380018, 0.7840000372380018, 0.0, 0.0, 0.0, 0.0, 0.0, 1.7063890311048276E9, 0.0, 2024-01-27 15:57:11.104
22.0, -360.70587092638016, -383.9231698513031, -333.18020725250244, -219.2478950023651, -0.7840000372380018, -0.7840000372380018, 0.7840000372380018, 0.0, 0.0, 0.0, 0.0, 0.0, 1.7063890311180646E9, 0.0, 2024-01-27 15:57:11.118
22.0, -323.12735617160797, -393.01860654354095, -360.9452245235443, -158.45208132266998, -0.7840000372380018, -0.7840000372380018, 0.7840000372380018, 0.0, 0.0, 0.0, 0.0, 0.0, 1.7063890311180646E9, 0.0, 2024-01-27 15:57:11.118
23.0, -449.027348279953, -400.1992144584656, -332.9408536553383, -219.72660219669342, -0.7840000372380018, -0.7840000372380018, 0.7840000372380018, 0.0, 0.0, 0.0, 0.0, 0.0, 1.7063890311344736E9, 0.0, 2024-01-27 15:57:11.134
23.0, -414.5604302883148, -378.41803711652756, -311.3990299105644, -227.6252709031105, -0.7840000372380018, -0.7840000372380018, 0.7840000372380018, 0.0, 0.0, 0.0, 0.0, 0.0, 1.7063890311344736E9, 0.0, 2024-01-27 15:57:11.134
24.0, -313.31385868787766, -391.3431313633919, -359.5091029405594, -160.12755650281906, -0.7840000372380018, -0.7840000372380018, 0.7840000372380018, 0.0, 0.0, 0.0, 0.0, 0.0, 1.7063890311351757E9, 0.0, 2024-01-27 15:57:11.135
24.0, -414.799783885479, -403.7895184159279, -347.78077667951584, -190.76481693983078, -0.7840000372380018, -0.7840000372380018, 0.7840000372380018, 0.0, 0.0, 0.0, 0.0, 0.0, 1.7063890311351757E9, 0.0, 2024-01-27 15:57:11.135
25.0, -449.027348279953, -393.49731373786926, -311.6383835077286, -248.20968025922775, -0.7840000372380018, -0.7840000372380018, 0.7840000372380018, 0.0, 0.0, 0.0, 0.0, 0.0, 1.7063890311480415E9, 0.0, 2024-01-27 15:57:11.148
25.0, -337.72792559862137, -399.9598608613014, -346.3446550965309, -180.95131945610046, -0.7840000372380018, -0.7840000372380018, 0.7840000372380018, 0.0, 0.0, 0.0, 0.0, 0.0, 1.7063890311480415E9, 0.0, 2024-01-27 15:57:11.148
26.0, -372.4341971874237, -409.29465115070343, -364.0568212866783, -170.65911477804184, -0.7840000372380018, -0.7840000372380018, 0.7840000372380018, 0.0, 0.0, 0.0, 0.0, 0.0, 1.706389031163844E9, 0.0, 2024-01-27 15:57:11.163
26.0, -466.02145367860794, -389.1889489889145, -322.8880025744438, -248.92774105072021, -0.7840000372380018, -0.7840000372380018, 0.7840000372380018, 0.0, 0.0, 0.0, 0.0, 0.0, 1.706389031163844E9, 0.0, 2024-01-27 15:57:11.163
27.0, -372.19484359025955, -396.60891050100327, -337.9672791957855, -215.6575910449028, -0.7840000372380018, -0.7840000372380018, 0.7840000372380018, 0.0, 0.0, 0.0, 0.0, 0.0, 1.706389031164523E9, 0.0, 2024-01-27 15:57:11.164
27.0, -331.2653784751892, -402.1140432357788, -357.8336277604103, -151.51082700490952, -0.7840000372380018, -0.7840000372380018, 0.7840000372380018, 0.0, 0.0, 0.0, 0.0, 0.0, 1.706389031164523E9, 0.0, 2024-01-27 15:57:11.164
28.0, -455.48989540338516, -403.7895184159279, -342.51499754190445, -230.01880687475204, -0.7840000372380018, -0.7840000372380018, 0.7840000372380018, 0.0, 0.0, 0.0, 0.0, 0.0, 1.706389031178464E9, 0.0, 2024-01-27 15:57:11.178
28.0, -428.2035853266716, -396.3695569038391, -323.3667097687721, -240.31101155281067, -0.7840000372380018, -0.7840000372380018, 0.7840000372380018, 0.0, 0.0, 0.0, 0.0, 0.0, 1.706389031178464E9, 0.0, 2024-01-27 15:57:11.178
29.0, -333.65891444683075, -415.51784467697144, -375.5457939505577, -170.41976118087769, -0.7840000372380018, -0.7840000372380018, 0.7840000372380018, 0.0, 0.0, 0.0, 0.0, 0.0, 1.7063890311939964E9, 0.0, 2024-01-27 15:57:11.193
29.0, -427.96423172950745, -419.8262094259262, -358.07298135757446, -202.01443600654602, -0.7840000372380018, -0.7840000372380018, 0.7840000372380018, 0.0, 0.0, 0.0, 0.0, 0.0, 1.7063890311939964E9, 0.0, 2024-01-27 15:57:11.193
30.0, -450.7028234601021, -394.9334353208542, -316.90416264533997, -258.02317774295807, -0.7840000372380018, -0.7840000372380018, 0.8800000417977571, 0.0, 0.0, 0.0, 0.0, 0.0, 1.7063890311947072E9, 0.0, 2024-01-27 15:57:11.194
30.0, -341.3182295560837, -407.8585295677185, -359.26974934339523, -196.26994967460632, -0.7840000372380018, -0.7840000372380018, 0.8800000417977571, 0.0, 0.0, 0.0, 0.0, 0.0, 1.7063890311947072E9, 0.0, 2024-01-27 15:57:11.194
31.0, -377.2212691307068, -411.4488335251808, -366.2110036611557, -172.57394355535507, -0.7840000372380018, -0.8800000417977571, 0.8800000417977571, 0.0, 0.0, 0.0, 0.0, 0.0, 1.7063890312080832E9, 0.0, 2024-01-27 15:57:11.208
31.0, -482.53685188293457, -407.8585295677185, -334.8556824326515, -257.06576335430145, -0.7840000372380018, -0.8800000417977571, 0.8800000417977571, 0.0, 0.0, 0.0, 0.0, 0.0, 1.7063890312080832E9, 0.0, 2024-01-27 15:57:11.208
32.0, -389.6676561832428, -409.5340047478676, -352.32849502563477, -231.21557486057281, -0.8800000417977571, -0.8800000417977571, 0.8800000417977571, 0.0, 0.0, 0.0, 0.0, 0.0, 1.7063890312238228E9, 0.0, 2024-01-27 15:57:11.223
32.0, -346.10530149936676, -413.6030158996582, -374.1096723675728, -168.50493240356445, -0.8800000417977571, -0.8800000417977571, 0.8800000417977571, 0.0, 0.0, 0.0, 0.0, 0.0, 1.7063890312238228E9, 0.0, 2024-01-27 15:57:11.223
33.0, -459.3195529580116, -403.0714576244354, -330.7866712808609, -218.05112701654434, -0.8800000417977571, -0.8800000417977571, 0.8800000417977571, 0.0, 0.0, 0.0, 0.0, 0.0, 1.7063890312245383E9, 0.0, 2024-01-27 15:57:11.224
33.0, -427.96423172950745, -400.91727524995804, -323.6060633659363, -237.91747558116913, -0.8800000417977571, -0.8800000417977571, 0.8800000417977571, 0.0, 0.0, 0.0, 0.0, 0.0, 1.7063890312245383E9, 0.0, 2024-01-27 15:57:11.224
34.0, -320.01575940847397, -406.9011151790619, -365.97165006399155, -167.30816441774368, -0.8800000417977571, -0.8800000417977571, 0.8800000417977571, 0.0, 0.0, 0.0, 0.0, 0.0, 1.7063890312384508E9, 0.0, 2024-01-27 15:57:11.238
34.0, -413.1243087053299, -406.66176158189774, -345.3872407078743, -192.679645717144, -0.8800000417977571, -0.8800000417977571, 0.8800000417977571, 0.0, 0.0, 0.0, 0.0, 0.0, 1.7063890312384508E9, 0.0, 2024-01-27 15:57:11.238
35.0, -460.27696734666824, -395.8908497095108, -317.6222234368324, -249.40644824504852, -0.8800000417977571, -0.8800000417977571, 0.8800000417977571, 0.0, 0.0, 0.0, 0.0, 0.0, 1.7063890312538753E9, 0.0, 2024-01-27 15:57:11.253
35.0, -337.72792559862137, -402.83210402727127, -354.48267740011215, -185.25968420505524, -0.8800000417977571, -0.8800000417977571, 0.8800000417977571, 0.0, 0.0, 0.0, 0.0, 0.0, 1.7063890312538753E9, 0.0, 2024-01-27 15:57:11.253
36.0, -371.23742920160294, -406.1830543875694, -360.9452245235443, -169.46234679222107, -0.8800000417977571, -0.8800000417977571, 0.8800000417977571, 0.0, 0.0, 0.0, 0.0, 0.0, 1.7063890312545545E9, 0.0, 2024-01-27 15:57:11.254
36.0, -469.13305044174194, -396.13020330667496, -320.2551130056381, -250.36386263370514, -0.8800000417977571, -0.8800000417977571, 0.8800000417977571, 0.0, 0.0, 0.0, 0.0, 0.0, 1.7063890312545545E9, 0.0, 2024-01-27 15:57:11.254
37.0, -387.75282740592957, -415.0391374826431, -355.2007381916046, -235.04523241519928, -0.8800000417977571, -0.8800000417977571, 0.8800000417977571, 0.0, 0.0, 0.0, 0.0, 0.0, 1.706389031268247E9, 0.0, 2024-01-27 15:57:11.268
37.0, -374.1096723675728, -440.41061878204346, -393.97602093219757, -185.25968420505524, -0.8800000417977571, -0.8800000417977571, 0.8800000417977571, 0.0, 0.0, 0.0, 0.0, 0.0, 1.706389031268247E9, 0.0, 2024-01-27 15:57:11.268
38.0, -482.05814468860626, -430.59712129831314, -356.3975061774254, -247.73097306489944, -0.8800000417977571, -0.8800000417977571, 0.8800000417977571, 0.0, 0.0, 0.0, 0.0, 0.0, 1.7063890312839696E9, 0.0, 2024-01-27 15:57:11.283
38.0, -444.9583371281624, -419.8262094259262, -349.21689826250076, -264.7250784635544, -0.8800000417977571, -0.8800000417977571, 0.8800000417977571, 0.0, 0.0, 0.0, 0.0, 0.0, 1.7063890312839696E9, 0.0, 2024-01-27 15:57:11.283
39.0, -350.41366624832153, -430.357767701149, -388.2315346002579, -193.39770650863647, -0.8800000417977571, -0.8800000417977571, 0.8800000417977571, 0.0, 0.0, 0.0, 0.0, 0.0, 1.7063890312845376E9, 0.0, 2024-01-27 15:57:11.284
39.0, -449.74540907144547, -441.6073867678642, -376.98191553354263, -230.2581604719162, -0.8800000417977571, -0.8800000417977571, 0.8800000417977571, 0.0, 0.0, 0.0, 0.0, 0.0, 1.7063890312845376E9, 0.0, 2024-01-27 15:57:11.284
40.0, -486.6058630347252, -428.6822925209999, -345.14788711071014, -280.52241587638855, -0.8800000417977571, -0.8800000417977571, 0.944000044837594, 0.0, 0.0, 0.0, 0.0, 0.0, 1.7063890312983465E9, 0.0, 2024-01-27 15:57:11.298
40.0, -368.60453963279724, -430.357767701149, -380.3328658938408, -208.23762953281403, -0.8800000417977571, -0.8800000417977571, 0.944000044837594, 0.0, 0.0, 0.0, 0.0, 0.0, 1.7063890312983465E9, 0.0, 2024-01-27 15:57:11.298
41.0, -406.1830543875694, -443.2828619480133, -387.9921810030937, -199.14219284057617, -0.8800000417977571, -0.944000044837594, 0.944000044837594, 0.0, 0.0, 0.0, 0.0, 0.0, 1.7063890313137932E9, 0.0, 2024-01-27 15:57:11.313
41.0, -511.0199299454689, -432.2725964784622, -345.14788711071014, -274.29922235012054, -0.8800000417977571, -0.944000044837594, 0.944000044837594, 0.0, 0.0, 0.0, 0.0, 0.0, 1.7063890313137932E9, 0.0, 2024-01-27 15:57:11.313
42.0, -405.2256399989128, -424.37392777204514, -354.96138459444046, -230.2581604719162, -0.944000044837594, -0.944000044837594, 0.944000044837594, 0.0, 0.0, 0.0, 0.0, 0.0, 1.7063890313146496E9, 0.0, 2024-01-27 15:57:11.314
42.0, -369.56195402145386, -433.70871806144714, -384.16252344846725, -168.7442860007286, -0.944000044837594, -0.944000044837594, 0.944000044837594, 0.0, 0.0, 0.0, 0.0, 0.0, 1.7063890313146496E9, 0.0, 2024-01-27 15:57:11.314
43.0, -475.83495116233826, -417.43267345428467, -347.0627158880234, -236.4813539981842, -0.944000044837594, -0.944000044837594, 0.944000044837594, 0.0, 0.0, 0.0, 0.0, 0.0, 1.7063890313281555E9, 0.0, 2024-01-27 15:57:11.328
43.0, -439.45320439338684, -413.6030158996582, -341.796936750412, -262.33154249191284, -0.944000044837594, -0.944000044837594, 0.944000044837594, 0.0, 0.0, 0.0, 0.0, 0.0, 1.7063890313281555E9, 0.0, 2024-01-27 15:57:11.328
44.0, -345.14788711071014, -429.6397069096565, -381.2902802824974, -185.02033060789108, -0.944000044837594, -0.944000044837594, 0.944000044837594, 0.0, 0.0, 0.0, 0.0, 0.0, 1.7063890313437996E9, 0.0, 2024-01-27 15:57:11.343
44.0, -439.692557990551, -436.1022540330887, -368.3651860356331, -221.64143097400665, -0.944000044837594, -0.944000044837594, 0.944000044837594, 0.0, 0.0, 0.0, 0.0, 0.0, 1.7063890313437996E9, 0.0, 2024-01-27 15:57:11.343
45.0, -488.7600454092026, -427.48552453517914, -342.2756439447403, -281.240476667881, -0.944000044837594, -0.944000044837594, 0.944000044837594, 0.0, 0.0, 0.0, 0.0, 0.0, 1.7063890313445306E9, 0.0, 2024-01-27 15:57:11.344
45.0, -369.801307618618, -432.5119500756264, -375.30644035339355, -203.92926478385925, -0.944000044837594, -0.944000044837594, 0.944000044837594, 0.0, 0.0, 0.0, 0.0, 0.0, 1.7063890313445306E9, 0.0, 2024-01-27 15:57:11.344
46.0, -405.7043471932411, -440.1712651848793, -389.42830258607864, -197.22736406326294, -0.944000044837594, -0.944000044837594, 0.944000044837594, 0.0, 0.0, 0.0, 0.0, 0.0, 1.7063890313582523E9, 0.0, 2024-01-27 15:57:11.358
46.0, -500.0096644759178, -427.246170938015, -344.4298263192177, -271.66633278131485, -0.944000044837594, -0.944000044837594, 0.944000044837594, 0.0, 0.0, 0.0, 0.0, 0.0, 1.7063890313582523E9, 0.0, 2024-01-27 15:57:11.358
47.0, -404.7469328045845, -433.469364464283, -361.9026389122009, -240.55036514997482, -0.944000044837594, -0.944000044837594, 0.944000044837594, 0.0, 0.0, 0.0, 0.0, 0.0, 1.7063890313739617E9, 0.0, 2024-01-27 15:57:11.373
47.0, -380.8115730881691, -451.42088425159454, -404.02887201309204, -194.11576730012894, -0.944000044837594, -0.944000044837594, 0.944000044837594, 0.0, 0.0, 0.0, 0.0, 0.0, 1.7063890313739617E9, 0.0, 2024-01-27 15:57:11.373
48.0, -488.7600454092026, -436.580961227417, -365.7322964668274, -263.28895688056946, -0.944000044837594, -0.944000044837594, 0.944000044837594, 0.0, 0.0, 0.0, 0.0, 0.0, 1.7063890313748097E9, 0.0, 2024-01-27 15:57:11.374
48.0, -455.01118820905685, -434.4267788529396, -357.11556696891785, -275.9746975302696, -0.944000044837594, -0.944000044837594, 0.944000044837594, 0.0, 0.0, 0.0, 0.0, 0.0, 1.7063890313748097E9, 0.0, 2024-01-27 15:57:11.374
49.0, -365.97165006399155, -445.67639791965485, -402.5927504301071, -202.25378960371017, -0.944000044837594, -0.944000044837594, 0.944000044837594, 0.0, 0.0, 0.0, 0.0, 0.0, 1.7063890313882132E9, 0.0, 2024-01-27 15:57:11.388
49.0, -463.86727130413055, -452.138945043087, -384.8805842399597, -235.5239396095276, -0.944000044837594, -0.944000044837594, 0.944000044837594, 0.0, 0.0, 0.0, 0.0, 0.0, 1.7063890313882132E9, 0.0, 2024-01-27 15:57:11.388
50.0, -509.82316195964813, -452.138945043087, -360.70587092638016, -297.9952284693718, -0.944000044837594, -0.944000044837594, 0.9760000463575125, 0.0, 0.0, 0.0, 0.0, 0.0, 1.7063890314039304E9, 0.0, 2024-01-27 15:57:11.403
50.0, -381.05092668533325, -442.08609396219254, -386.31670582294464, -223.07755255699158, -0.944000044837594, -0.944000044837594, 0.9760000463575125, 0.0, 0.0, 0.0, 0.0, 0.0, 1.7063890314039304E9, 0.0, 2024-01-27 15:57:11.403
51.0, -401.39598244428635, -437.0596684217453, -387.9921810030937, -197.70607125759125, -0.944000044837594, -0.9760000463575125, 0.9760000463575125, 0.0, 0.0, 0.0, 0.0, 0.0, 1.706389031404729E9, 0.0, 2024-01-27 15:57:11.404
51.0, -497.3767749071121, -423.4165133833885, -334.61632883548737, -266.40055364370346, -0.944000044837594, -0.9760000463575125, 0.9760000463575125, 0.0, 0.0, 0.0, 0.0, 0.0, 1.706389031404729E9, 0.0, 2024-01-27 15:57:11.404
52.0, -396.13020330667496, -419.8262094259262, -350.89237344264984, -232.17298924922943, -0.9760000463575125, -0.9760000463575125, 0.9760000463575125, 0.0, 0.0, 0.0, 0.0, 0.0, 1.7063890314181705E9, 0.0, 2024-01-27 15:57:11.418
52.0, -371.4767827987671, -439.93191158771515, -391.8218385577202, -182.3874410390854, -0.9760000463575125, -0.9760000463575125, 0.9760000463575125, 0.0, 0.0, 0.0, 0.0, 0.0, 1.7063890314181705E9, 0.0, 2024-01-27 15:57:11.418
53.0, -483.73361986875534, -421.74103820323944, -338.92469358444214, -232.41234284639359, -0.9760000463575125, -0.9760000463575125, 0.9760000463575125, 0.0, 0.0, 0.0, 0.0, 0.0, 1.7063890314337957E9, 0.0, 2024-01-27 15:57:11.433
53.0, -455.96860259771347, -425.5706957578659, -340.1214615702629, -256.347702562809, -0.9760000463575125, -0.9760000463575125, 0.9760000463575125, 0.0, 0.0, 0.0, 0.0, 0.0, 1.7063890314337957E9, 0.0, 2024-01-27 15:57:11.433
54.0, -357.59427416324615, -436.1022540330887, -377.6999763250351, -173.77071154117584, -0.9760000463575125, -0.9760000463575125, 0.9760000463575125, 0.0, 0.0, 0.0, 0.0, 0.0, 1.7063890314345424E9, 0.0, 2024-01-27 15:57:11.434
54.0, -431.55453568696976, -422.4590989947319, -360.9452245235443, -204.40797197818756, -0.9760000463575125, -0.9760000463575125, 0.9760000463575125, 0.0, 0.0, 0.0, 0.0, 0.0, 1.7063890314345424E9, 0.0, 2024-01-27 15:57:11.434
55.0, -475.83495116233826, -422.4590989947319, -334.8556824326515, -269.7515040040016, -0.9760000463575125, -0.9760000463575125, 0.9760000463575125, 0.0, 0.0, 0.0, 0.0, 0.0, 1.7063890314483058E9, 0.0, 2024-01-27 15:57:11.448
55.0, -370.04066121578217, -436.580961227417, -371.9554899930954, -201.29637521505356, -0.9760000463575125, -0.9760000463575125, 0.9760000463575125, 0.0, 0.0, 0.0, 0.0, 0.0, 1.7063890314483058E9, 0.0, 2024-01-27 15:57:11.448
56.0, -408.3372367620468, -441.6073867678642, -379.3754515051842, -188.84998816251755, -0.9760000463575125, -0.9760000463575125, 0.9760000463575125, 0.0, 0.0, 0.0, 0.0, 0.0, 1.7063890314637492E9, 0.0, 2024-01-27 15:57:11.463
56.0, -499.29160368442535, -429.8790605068207, -339.1640471816063, -274.0598687529564, -0.9760000463575125, -0.9760000463575125, 0.9760000463575125, 0.0, 0.0, 0.0, 0.0, 0.0, 1.7063890314637492E9, 0.0, 2024-01-27 15:57:11.463
57.0, -404.02887201309204, -434.4267788529396, -366.92906445264816, -245.3374370932579, -0.9760000463575125, -0.9760000463575125, 0.9760000463575125, 0.0, 0.0, 0.0, 0.0, 0.0, 1.7063890314645085E9, 0.0, 2024-01-27 15:57:11.464
57.0, -371.4767827987671, -443.52221554517746, -397.0876176953316, -187.89257377386093, -0.9760000463575125, -0.9760000463575125, 0.9760000463575125, 0.0, 0.0, 0.0, 0.0, 0.0, 1.7063890314645085E9, 0.0, 2024-01-27 15:57:11.464
58.0, -494.5045317411423, -439.93191158771515, -360.22716373205185, -255.86899536848068, -0.9760000463575125, -0.9760000463575125, 0.9760000463575125, 0.0, 0.0, 0.0, 0.0, 0.0, 1.7063890314947295E9, 0.0, 2024-01-27 15:57:11.494
58.0, -463.86727130413055, -440.1712651848793, -353.7646166086197, -268.3153824210167, -0.9760000463575125, -0.9760000463575125, 0.9760000463575125, 0.0, 0.0, 0.0, 0.0, 0.0, 1.7063890314947295E9, 0.0, 2024-01-27 15:57:11.494
59.0, -358.7910421490669, -447.83058029413223, -400.43856805562973, -196.50930327177048, -0.9760000463575125, -0.9760000463575125, 0.9760000463575125, 0.0, 0.0, 0.0, 0.0, 0.0, 1.7063890314953103E9, 0.0, 2024-01-27 15:57:11.495
59.0, -451.1815306544304, -447.83058029413223, -378.89674431085587, -227.1465637087822, -0.9760000463575125, -0.9760000463575125, 0.9760000463575125, 0.0, 0.0, 0.0, 0.0, 0.0, 1.7063890314953103E9, 0.0, 2024-01-27 15:57:11.495
60.0, -494.7438853383064, -436.34160763025284, -352.32849502563477, -289.85720616579056, -0.9760000463575125, -0.9760000463575125, 0.9920000471174717, 0.0, 0.0, 0.0, 0.0, 0.0, 1.706389031496099E9, 0.0, 2024-01-27 15:57:11.496
60.0, -382.247694671154, -442.3254475593567, -380.8115730881691, -214.70017665624619, -0.9760000463575125, -0.9760000463575125, 0.9920000471174717, 0.0, 0.0, 0.0, 0.0, 0.0, 1.706389031496099E9, 0.0, 2024-01-27 15:57:11.496
61.0, -421.26233100891113, -454.05377382040024, -392.3005457520485, -202.73249679803848, -0.9760000463575125, -0.9920000471174717, 0.9920000471174717, 0.0, 0.0, 0.0, 0.0, 0.0, 1.7063890315081263E9, 0.0, 2024-01-27 15:57:11.508
61.0, -505.2754436135292, -434.66613245010376, -349.4562518596649, -276.45340472459793, -0.9760000463575125, -0.9920000471174717, 0.9920000471174717, 0.0, 0.0, 0.0, 0.0, 0.0, 1.7063890315081263E9, 0.0, 2024-01-27 15:57:11.508
62.0, -407.8585295677185, -432.03324288129807, -359.74845653772354, -232.17298924922943, -0.9920000471174717, -0.9920000471174717, 0.9920000471174717, 0.0, 0.0, 0.0, 0.0, 0.0, 1.706389031523793E9, 0.0, 2024-01-27 15:57:11.523
62.0, -383.4444626569748, -445.4370443224907, -389.1889489889145, -179.03649067878723, -0.9920000471174717, -0.9920000471174717, 0.9920000471174717, 0.0, 0.0, 0.0, 0.0, 0.0, 1.706389031523793E9, 0.0, 2024-01-27 15:57:11.523
63.0, -491.8716421723366, -433.469364464283, -345.8659479022026, -240.78971874713898, -0.9920000471174717, -0.9920000471174717, 0.9920000471174717, 0.0, 0.0, 0.0, 0.0, 0.0, 1.7063890315244968E9, 0.0, 2024-01-27 15:57:11.524
63.0, -449.5060554742813, -423.4165133833885, -338.44598639011383, -252.03933781385422, -0.9920000471174717, -0.9920000471174717, 0.9920000471174717, 0.0, 0.0, 0.0, 0.0, 0.0, 1.7063890315244968E9, 0.0, 2024-01-27 15:57:11.524
64.0, -353.2859094142914, -433.469364464283, -388.2315346002579, -183.344855427742, -0.9920000471174717, -0.9920000471174717, 0.9920000471174717, 0.0, 0.0, 0.0, 0.0, 0.0, 1.7063890315383573E9, 0.0, 2024-01-27 15:57:11.538
64.0, -451.6602378487587, -436.82031482458115, -363.57811409235, -213.26405507326126, -0.9920000471174717, -0.9920000471174717, 0.9920000471174717, 0.0, 0.0, 0.0, 0.0, 0.0, 1.7063890315383573E9, 0.0, 2024-01-27 15:57:11.538
65.0, -498.81289649009705, -436.1022540330887, -338.44598639011383, -278.84694069623947, -0.9920000471174717, -0.9920000471174717, 0.9920000471174717, 0.0, 0.0, 0.0, 0.0, 0.0, 1.706389031554119E9, 0.0, 2024-01-27 15:57:11.554
65.0, -367.6471252441406, -430.11841410398483, -370.9980756044388, -203.6899111866951, -0.9920000471174717, -0.9920000471174717, 0.9920000471174717, 0.0, 0.0, 0.0, 0.0, 0.0, 1.706389031554119E9, 0.0, 2024-01-27 15:57:11.554
66.0, -400.1992144584656, -436.34160763025284, -377.6999763250351, -194.3551208972931, -0.9920000471174717, -0.9920000471174717, 0.9920000471174717, 0.0, 0.0, 0.0, 0.0, 0.0, 1.7063890315545552E9, 0.0, 2024-01-27 15:57:11.554
66.0, -503.8393220305443, -433.469364464283, -340.6001687645912, -273.5811615586281, -0.9920000471174717, -0.9920000471174717, 0.9920000471174717, 0.0, 0.0, 0.0, 0.0, 0.0, 1.7063890315545552E9, 0.0, 2024-01-27 15:57:11.554
67.0, -409.77335834503174, -424.85263496637344, -354.7220309972763, -238.39618277549744, -0.9920000471174717, -0.9920000471174717, 0.9920000471174717, 0.0, 0.0, 0.0, 0.0, 0.0, 1.706389031568136E9, 0.0, 2024-01-27 15:57:11.568
67.0, -370.5193684101105, -434.9054860472679, -392.3005457520485, -188.84998816251755, -0.9920000471174717, -0.9920000471174717, 0.9920000471174717, 0.0, 0.0, 0.0, 0.0, 0.0, 1.706389031568136E9, 0.0, 2024-01-27 15:57:11.568
68.0, -494.5045317411423, -436.34160763025284, -357.59427416324615, -256.347702562809, -0.9920000471174717, -0.9920000471174717, 0.9920000471174717, 0.0, 0.0, 0.0, 0.0, 0.0, 1.7063890315839584E9, 0.0, 2024-01-27 15:57:11.583
68.0, -463.38856410980225, -434.9054860472679, -357.354920566082, -275.017283141613, -0.9920000471174717, -0.9920000471174717, 0.9920000471174717, 0.0, 0.0, 0.0, 0.0, 0.0, 1.7063890315839584E9, 0.0, 2024-01-27 15:57:11.583
69.0, -359.9878101348877, -446.63381230831146, -397.80567848682404, -203.6899111866951, -0.9920000471174717, -0.9920000471174717, 0.9920000471174717, 0.0, 0.0, 0.0, 0.0, 0.0, 1.7063890315845127E9, 0.0, 2024-01-27 15:57:11.584
69.0, -461.473735332489, -451.1815306544304, -377.46062272787094, -230.01880687475204, -0.9920000471174717, -0.9920000471174717, 0.9920000471174717, 0.0, 0.0, 0.0, 0.0, 0.0, 1.7063890315845127E9, 0.0, 2024-01-27 15:57:11.584
70.0, -486.84521663188934, -431.55453568696976, -346.58400869369507, -284.8307806253433, -0.9920000471174717, -0.9920000471174717, 1.008000047877431, 0.0, 0.0, 0.0, 0.0, 0.0, 1.7063890315982077E9, 0.0, 2024-01-27 15:57:11.598
70.0, -370.04066121578217, -433.9480716586113, -384.64123064279556, -219.2478950023651, -0.9920000471174717, -0.9920000471174717, 1.008000047877431, 0.0, 0.0, 0.0, 0.0, 0.0, 1.7063890315982077E9, 0.0, 2024-01-27 15:57:11.598
71.0, -417.43267345428467, -448.0699338912964, -393.49731373786926, -204.88667917251587, -0.9920000471174717, -1.008000047877431, 1.008000047877431, 0.0, 0.0, 0.0, 0.0, 0.0, 1.7063890316143312E9, 0.0, 2024-01-27 15:57:11.614
71.0, -512.9347587227821, -439.692557990551, -354.48267740011215, -286.9849629998207, -0.9920000471174717, -1.008000047877431, 1.008000047877431, 0.0, 0.0, 0.0, 0.0, 0.0, 1.7063890316143312E9, 0.0, 2024-01-27 15:57:11.614
72.0, -413.36366230249405, -438.4957900047302, -367.8864788413048, -247.25226587057114, -1.008000047877431, -1.008000047877431, 1.008000047877431, 0.0, 0.0, 0.0, 0.0, 0.0, 1.7063890316146383E9, 0.0, 2024-01-27 15:57:11.614
72.0, -382.4870482683182, -451.1815306544304, -403.0714576244354, -199.62090003490448, -1.008000047877431, -1.008000047877431, 1.008000047877431, 0.0, 0.0, 0.0, 0.0, 0.0, 1.7063890316146383E9, 0.0, 2024-01-27 15:57:11.614
73.0, -497.6161285042763, -443.2828619480133, -366.45035725831985, -269.51215040683746, -1.008000047877431, -1.008000047877431, 1.008000047877431, 0.0, 0.0, 0.0, 0.0, 0.0, 1.7063890316281264E9, 0.0, 2024-01-27 15:57:11.628
73.0, -459.3195529580116, -444.4796299338341, -360.22716373205185, -275.73534393310547, -1.008000047877431, -1.008000047877431, 1.008000047877431, 0.0, 0.0, 0.0, 0.0, 0.0, 1.7063890316281264E9, 0.0, 2024-01-27 15:57:11.628
74.0, -378.41803711652756, -460.5163209438324, -405.46499359607697, -202.25378960371017, -1.008000047877431, -1.008000047877431, 1.008000047877431, 0.0, 0.0, 0.0, 0.0, 0.0, 1.7063890316438365E9, 0.0, 2024-01-27 15:57:11.643
74.0, -464.585332095623, -446.63381230831146, -382.00834107398987, -235.5239396095276, -1.008000047877431, -1.008000047877431, 1.008000047877431, 0.0, 0.0, 0.0, 0.0, 0.0, 1.7063890316438365E9, 0.0, 2024-01-27 15:57:11.643
75.0, -493.54711735248566, -433.469364464283, -349.69560545682907, -286.0275486111641, -1.008000047877431, -1.008000047877431, 1.008000047877431, 0.0, 0.0, 0.0, 0.0, 0.0, 1.7063890316445236E9, 0.0, 2024-01-27 15:57:11.644
75.0, -375.30644035339355, -435.3841932415962, -379.6148051023483, -214.93953025341034, -1.008000047877431, -1.008000047877431, 1.008000047877431, 0.0, 0.0, 0.0, 0.0, 0.0, 1.7063890316445236E9, 0.0, 2024-01-27 15:57:11.644
76.0, -417.911380648613, -449.74540907144547, -397.80567848682404, -210.15245831012726, -1.008000047877431, -1.008000047877431, 1.008000047877431, 0.0, 0.0, 0.0, 0.0, 0.0, 1.7063890316583192E9, 0.0, 2024-01-27 15:57:11.658
76.0, -522.03019541502, -449.26670187711716, -358.3123349547386, -291.7720349431038, -1.008000047877431, -1.008000047877431, 1.008000047877431, 0.0, 0.0, 0.0, 0.0, 0.0, 1.7063890316583192E9, 0.0, 2024-01-27 15:57:11.658
77.0, -417.43267345428467, -443.2828619480133, -369.801307618618, -249.16709464788437, -1.008000047877431, -1.008000047877431, 1.008000047877431, 0.0, 0.0, 0.0, 0.0, 0.0, 1.7063890316741648E9, 0.0, 2024-01-27 15:57:11.674
77.0, -389.6676561832428, -455.01118820905685, -398.5237392783165, -196.03059607744217, -1.008000047877431, -1.008000047877431, 1.008000047877431, 0.0, 0.0, 0.0, 0.0, 0.0, 1.7063890316741648E9, 0.0, 2024-01-27 15:57:11.674
78.0, -498.33418929576874, -444.00092273950577, -365.01423567533493, -269.7515040040016, -1.008000047877431, -1.008000047877431, 1.008000047877431, 0.0, 0.0, 0.0, 0.0, 0.0, 1.706389031674736E9, 0.0, 2024-01-27 15:57:11.674
78.0, -456.4473097920418, -433.70871806144714, -357.59427416324615, -271.905686378479, -1.008000047877431, -1.008000047877431, 1.008000047877431, 0.0, 0.0, 0.0, 0.0, 0.0, 1.706389031674736E9, 0.0, 2024-01-27 15:57:11.674
79.0, -355.2007381916046, -437.77772921323776, -392.3005457520485, -196.26994967460632, -1.008000047877431, -1.008000047877431, 1.008000047877431, 0.0, 0.0, 0.0, 0.0, 0.0, 1.7063890316880991E9, 0.0, 2024-01-27 15:57:11.688
79.0, -450.4634698629379, -436.580961227417, -370.7587220072746, -225.94979572296143, -1.008000047877431, -1.008000047877431, 1.008000047877431, 0.0, 0.0, 0.0, 0.0, 0.0, 1.7063890316880991E9, 0.0, 2024-01-27 15:57:11.688
80.0, -477.2710727453232, -427.96423172950745, -344.66917991638184, -284.59142702817917, -1.008000047877431, -1.008000047877431, 1.008000047877431, 0.0, 0.0, 0.0, 0.0, 0.0, 1.7063890317039287E9, 0.0, 2024-01-27 15:57:11.703
80.0, -368.8438932299614, -430.11841410398483, -374.5883795619011, -218.2904806137085, -1.008000047877431, -1.008000047877431, 1.008000047877431, 0.0, 0.0, 0.0, 0.0, 0.0, 1.7063890317039287E9, 0.0, 2024-01-27 15:57:11.703
81.0, -398.76309287548065, -432.5119500756264, -375.30644035339355, -200.33896082639694, -1.008000047877431, -1.008000047877431, 1.008000047877431, 0.0, 0.0, 0.0, 0.0, 0.0, 1.7063890317045622E9, 0.0, 2024-01-27 15:57:11.704
81.0, -490.1961669921875, -419.8262094259262, -333.8982680439949, -269.51215040683746, -1.008000047877431, -1.008000047877431, 1.008000047877431, 0.0, 0.0, 0.0, 0.0, 0.0, 1.7063890317045622E9, 0.0, 2024-01-27 15:57:11.704
82.0, -392.3005457520485, -412.40624791383743, -353.7646166086197, -239.83230435848236, -1.008000047877431, -1.008000047877431, 1.008000047877431, 0.0, 0.0, 0.0, 0.0, 0.0, 1.706389031718186E9, 0.0, 2024-01-27 15:57:11.718
82.0, -365.97165006399155, -428.44293892383575, -382.72640186548233, -181.90873384475708, -1.008000047877431, -1.008000047877431, 1.008000047877431, 0.0, 0.0, 0.0, 0.0, 0.0, 1.706389031718186E9, 0.0, 2024-01-27 15:57:11.718
83.0, -490.91422778367996, -433.469364464283, -354.7220309972763, -254.1935201883316, -1.008000047877431, -1.008000047877431, 1.008000047877431, 0.0, 0.0, 0.0, 0.0, 0.0, 1.7063890317338557E9, 0.0, 2024-01-27 15:57:11.733
83.0, -435.14483964443207, -414.32107669115067, -337.72792559862137, -257.7838241457939, -1.008000047877431, -1.008000047877431, 1.008000047877431, 0.0, 0.0, 0.0, 0.0, 0.0, 1.7063890317338557E9, 0.0, 2024-01-27 15:57:11.733
84.0, -338.92469358444214, -419.8262094259262, -382.4870482683182, -179.27584427595139, -1.008000047877431, -1.008000047877431, 1.008000047877431, 0.0, 0.0, 0.0, 0.0, 0.0, 1.7063890317345507E9, 0.0, 2024-01-27 15:57:11.734
84.0, -434.4267788529396, -421.74103820323944, -359.74845653772354, -210.63116550445557, -1.008000047877431, -1.008000047877431, 1.008000047877431, 0.0, 0.0, 0.0, 0.0, 0.0, 1.7063890317345507E9, 0.0, 2024-01-27 15:57:11.734
85.0, -477.2710727453232, -414.5604302883148, -323.6060633659363, -267.1186144351959, -1.008000047877431, -1.008000047877431, 1.008000047877431, 0.0, 0.0, 0.0, 0.0, 0.0, 1.7063890317483392E9, 0.0, 2024-01-27 15:57:11.748
85.0, -357.8336277604103, -423.4165133833885, -367.1684180498123, -205.36538636684418, -1.008000047877431, -1.008000047877431, 1.008000047877431, 0.0, 0.0, 0.0, 0.0, 0.0, 1.7063890317483392E9, 0.0, 2024-01-27 15:57:11.748
86.0, -398.0450320839882, -428.2035853266716, -380.09351229667664, -194.59447449445724, -1.008000047877431, -1.008000047877431, 1.008000047877431, 0.0, 0.0, 0.0, 0.0, 0.0, 1.7063890317640202E9, 0.0, 2024-01-27 15:57:11.764
86.0, -508.3870403766632, -437.29902201890945, -353.52526301145554, -284.11271983385086, -1.008000047877431, -1.008000047877431, 1.008000047877431, 0.0, 0.0, 0.0, 0.0, 0.0, 1.7063890317640202E9, 0.0, 2024-01-27 15:57:11.764
87.0, -404.50757920742035, -427.00681734085083, -363.0994068980217, -244.61937630176544, -1.008000047877431, -1.008000047877431, 1.008000047877431, 0.0, 0.0, 0.0, 0.0, 0.0, 1.7063890317646687E9, 0.0, 2024-01-27 15:57:11.764
87.0, -366.45035725831985, -432.2725964784622, -383.4444626569748, -179.7545514702797, -1.008000047877431, -1.008000047877431, 1.008000047877431, 0.0, 0.0, 0.0, 0.0, 0.0, 1.7063890317646687E9, 0.0, 2024-01-27 15:57:11.764
88.0, -480.8613767027855, -419.10814863443375, -351.84978783130646, -253.47545939683914, -1.008000047877431, -1.008000047877431, 1.008000047877431, 0.0, 0.0, 0.0, 0.0, 0.0, 1.7063890317781887E9, 0.0, 2024-01-27 15:57:11.778
88.0, -453.8144202232361, -429.40035331249237, -359.74845653772354, -274.5385759472847, -1.008000047877431, -1.008000047877431, 1.008000047877431, 0.0, 0.0, 0.0, 0.0, 0.0, 1.7063890317781887E9, 0.0, 2024-01-27 15:57:11.778
89.0, -338.685339987278, -423.6558669805527, -382.72640186548233, -183.344855427742, -1.008000047877431, -1.008000047877431, 1.008000047877431, 0.0, 0.0, 0.0, 0.0, 0.0, 1.7063890317940702E9, 0.0, 2024-01-27 15:57:11.794
89.0, -440.6499723792076, -430.357767701149, -372.19484359025955, -231.69428205490112, -1.008000047877431, -1.008000047877431, 1.008000047877431, 0.0, 0.0, 0.0, 0.0, 0.0, 1.7063890317940702E9, 0.0, 2024-01-27 15:57:11.794
90.0, -488.5206918120384, -440.1712651848793, -349.9349590539932, -291.2933277487755, -1.008000047877431, -1.008000047877431, 1.008000047877431, 0.0, 0.0, 0.0, 0.0, 0.0, 1.7063890317945127E9, 0.0, 2024-01-27 15:57:11.794
90.0, -379.6148051023483, -440.1712651848793, -386.31670582294464, -222.83819895982742, -1.008000047877431, -1.008000047877431, 1.008000047877431, 0.0, 0.0, 0.0, 0.0, 0.0, 1.7063890317945127E9, 0.0, 2024-01-27 15:57:11.794
91.0, -406.9011151790619, -439.692557990551, -392.53989934921265, -206.8015079498291, -1.008000047877431, -1.008000047877431, 1.008000047877431, 0.0, 0.0, 0.0, 0.0, 0.0, 1.7063890318080657E9, 0.0, 2024-01-27 15:57:11.808
91.0, -506.47221159935, -434.66613245010376, -350.6530198454857, -291.0539741516113, -1.008000047877431, -1.008000047877431, 1.008000047877431, 0.0, 0.0, 0.0, 0.0, 0.0, 1.7063890318080657E9, 0.0, 2024-01-27 15:57:11.808
92.0, -400.1992144584656, -427.7248781323433, -366.92906445264816, -238.6355363726616, -1.008000047877431, -1.008000047877431, 1.008000047877431, 0.0, 0.0, 0.0, 0.0, 0.0, 1.7063890318242087E9, 0.0, 2024-01-27 15:57:11.824
92.0, -370.2800148129463, -441.3680331707001, -400.6779216527939, -196.98801046609879, -1.008000047877431, -1.008000047877431, 1.008000047877431, 0.0, 0.0, 0.0, 0.0, 0.0, 1.7063890318242087E9, 0.0, 2024-01-27 15:57:11.824
93.0, -489.95681339502335, -437.29902201890945, -362.1419925093651, -260.65606731176376, -1.008000047877431, -1.008000047877431, 1.008000047877431, 0.0, 0.0, 0.0, 0.0, 0.0, 1.7063890318245687E9, 0.0, 2024-01-27 15:57:11.824
93.0, -447.3518730998039, -428.92164611816406, -356.3975061774254, -267.1186144351959, -1.008000047877431, -1.008000047877431, 1.008000047877431, 0.0, 0.0, 0.0, 0.0, 0.0, 1.7063890318245687E9, 0.0, 2024-01-27 15:57:11.824
94.0, -345.8659479022026, -428.6822925209999, -393.01860654354095, -192.44029211997986, -1.008000047877431, -1.008000047877431, 1.008000047877431, 0.0, 0.0, 0.0, 0.0, 0.0, 1.7063890318384907E9, 0.0, 2024-01-27 15:57:11.838
94.0, -448.5486410856247, -435.3841932415962, -371.23742920160294, -229.7794532775879, -1.008000047877431, -1.008000047877431, 1.008000047877431, 0.0, 0.0, 0.0, 0.0, 0.0, 1.7063890318384907E9, 0.0, 2024-01-27 15:57:11.838
95.0, -484.69103425741196, -431.55453568696976, -341.55758315324783, -279.0862942934036, -1.008000047877431, -1.008000047877431, 1.008000047877431, 0.0, 0.0, 0.0, 0.0, 0.0, 1.7063890318539312E9, 0.0, 2024-01-27 15:57:11.853
95.0, -365.01423567533493, -432.9906572699547, -386.5560594201088, -218.05112701654434, -1.008000047877431, -1.008000047877431, 1.008000047877431, 0.0, 0.0, 0.0, 0.0, 0.0, 1.7063890318539312E9, 0.0, 2024-01-27 15:57:11.853
96.0, -408.57659035921097, -443.04350835084915, -396.13020330667496, -209.9131047129631, -1.008000047877431, -1.008000047877431, 1.008000047877431, 0.0, 0.0, 0.0, 0.0, 0.0, 1.7063890318546329E9, 0.0, 2024-01-27 15:57:11.854
96.0, -503.5999684333801, -439.2138507962227, -362.86005330085754, -294.64427810907364, -1.008000047877431, -1.008000047877431, 1.008000047877431, 0.0, 0.0, 0.0, 0.0, 0.0, 1.7063890318546329E9, 0.0, 2024-01-27 15:57:11.854
97.0, -412.88495510816574, -443.7615691423416, -381.2902802824974, -253.47545939683914, -1.008000047877431, -1.008000047877431, 1.008000047877431, 0.0, 0.0, 0.0, 0.0, 0.0, 1.706389031868144E9, 0.0, 2024-01-27 15:57:11.868
97.0, -385.359291434288, -454.05377382040024, -412.1668943166733, -201.0570216178894, -1.008000047877431, -1.008000047877431, 1.008000047877431, 0.0, 0.0, 0.0, 0.0, 0.0, 1.706389031868144E9, 0.0, 2024-01-27 15:57:11.868
98.0, -508.62639397382736, -459.0801993608475, -384.64123064279556, -274.77792954444885, -1.008000047877431, -1.008000047877431, 1.008000047877431, 0.0, 0.0, 0.0, 0.0, 0.0, 1.7063890318834195E9, 0.0, 2024-01-27 15:57:11.883
98.0, -465.3033928871155, -448.78799468278885, -371.71613639593124, -290.575266957283, -1.008000047877431, -1.008000047877431, 1.008000047877431, 0.0, 0.0, 0.0, 0.0, 0.0, 1.7063890318834195E9, 0.0, 2024-01-27 15:57:11.883
0.0, -465.7821000814438, -451.42088425159454, -389.42830258607864, -236.72070759534836, -1.008000047877431, -1.008000047877431, 1.008000047877431, 0.0, 0.0, 0.0, 0.0, 0.0, 1.7063890318988569E9, 0.0, 2024-01-27 15:57:11.898
0.0, -495.70129972696304, -442.804154753685, -360.70587092638016, -292.7294493317604, -1.008000047877431, -1.008000047877431, 1.008000047877431, 0.0, 0.0, 0.0, 0.0, 0.0, 1.7063890318988569E9, 0.0, 2024-01-27 15:57:11.898
1.0, -379.6148051023483, -444.71898353099823, -393.01860654354095, -220.44466298818588, -1.008000047877431, -0.04800000227987766, 1.008000047877431, 0.0, 0.0, 0.0, 0.0, 0.0, 1.7063890318995044E9, 0.0, 2024-01-27 15:57:11.899
1.0, -419.3475022315979, -455.250541806221, -401.87468963861465, -208.9556903243065, -1.008000047877431, -0.04800000227987766, 1.008000047877431, 0.0, 0.0, 0.0, 0.0, 0.0, 1.7063890318995044E9, 0.0, 2024-01-27 15:57:11.899
2.0, -512.695405125618, -440.88932597637177, -355.2007381916046, -287.70302379131317, 0.09600000455975533, -0.04800000227987766, 1.008000047877431, 0.0, 0.0, 0.0, 0.0, 0.0, 1.7063890319136205E9, 0.0, 2024-01-27 15:57:11.913
2.0, -407.8585295677185, -438.97449719905853, -374.1096723675728, -247.9703266620636, 0.09600000455975533, -0.04800000227987766, 1.008000047877431, 0.0, 0.0, 0.0, 0.0, 0.0, 1.7063890319136205E9, 0.0, 2024-01-27 15:57:11.913
3.0, -376.024501144886, -441.6073867678642, -398.0450320839882, -193.63706010580063, 0.09600000455975533, -0.04800000227987766, 1.008000047877431, 0.0, 0.0, 0.0, 0.0, 0.0, 1.7063890319289143E9, 0.0, 2024-01-27 15:57:11.928
3.0, -493.54711735248566, -435.86290043592453, -357.8336277604103, -263.28895688056946, 0.09600000455975533, -0.04800000227987766, 1.008000047877431, 0.0, 0.0, 0.0, 0.0, 0.0, 1.7063890319289143E9, 0.0, 2024-01-27 15:57:11.928
4.0, -449.26670187711716, -433.70871806144714, -355.9187989830971, -274.0598687529564, 0.09600000455975533, -0.04800000227987766, 1.008000047877431, 0.0, 0.0, 0.0, 0.0, 0.0, 1.706389031929602E9, 0.0, 2024-01-27 15:57:11.929
4.0, -342.99370473623276, -429.40035331249237, -393.7366673350334, -193.63706010580063, 0.09600000455975533, -0.04800000227987766, 1.008000047877431, 0.0, 0.0, 0.0, 0.0, 0.0, 1.706389031929602E9, 0.0, 2024-01-27 15:57:11.929
5.0, -444.00092273950577, -436.82031482458115, -372.4341971874237, -228.34333169460297, 0.09600000455975533, -0.04800000227987766, 1.008000047877431, 0.0, 0.0, 0.0, 0.0, 0.0, 1.7063890319431372E9, 0.0, 2024-01-27 15:57:11.943
5.0, -491.8716421723366, -432.2725964784622, -347.78077667951584, -283.15530544519424, 0.09600000455975533, -0.04800000227987766, 1.008000047877431, 0.0, 0.0, 0.0, 0.0, 0.0, 1.7063890319431372E9, 0.0, 2024-01-27 15:57:11.943
6.0, -360.70587092638016, -429.40035331249237, -389.6676561832428, -219.48724859952927, 0.09600000455975533, -0.04800000227987766, 1.008000047877431, 0.0, 0.0, 0.0, 0.0, 0.0, 1.706389031958824E9, 0.0, 2024-01-27 15:57:11.958
6.0, -414.32107669115067, -449.26670187711716, -404.02887201309204, -217.09371262788773, 0.09600000455975533, -0.04800000227987766, 1.008000047877431, 0.0, 0.0, 0.0, 0.0, 0.0, 1.706389031958824E9, 0.0, 2024-01-27 15:57:11.958
7.0, -496.65871411561966, -428.44293892383575, -348.4988374710083, -282.9159518480301, 0.09600000455975533, -0.04800000227987766, 1.008000047877431, 0.0, 0.0, 0.0, 0.0, 0.0, 1.7063890319595711E9, 0.0, 2024-01-27 15:57:11.959
7.0, -397.5663248896599, -433.70871806144714, -374.82773315906525, -251.79998421669006, 0.09600000455975533, -0.04800000227987766, 1.008000047877431, 0.0, 0.0, 0.0, 0.0, 0.0, 1.7063890319595711E9, 0.0, 2024-01-27 15:57:11.959
8.0, -374.34902596473694, -442.804154753685, -405.9437007904053, -201.5357288122177, 0.09600000455975533, -0.04800000227987766, 1.008000047877431, 0.0, 0.0, 0.0, 0.0, 0.0, 1.7063890319732666E9, 0.0, 2024-01-27 15:57:11.973
8.0, -491.1535813808441, -439.2138507962227, -370.7587220072746, -270.4695647954941, 0.09600000455975533, -0.04800000227987766, 1.008000047877431, 0.0, 0.0, 0.0, 0.0, 0.0, 1.7063890319732666E9, 0.0, 2024-01-27 15:57:11.973
9.0, -443.52221554517746, -424.37392777204514, -358.3123349547386, -275.25663673877716, 0.09600000455975533, -0.04800000227987766, 1.008000047877431, 0.0, 0.0, 0.0, 0.0, 0.0, 1.706389031989225E9, 0.0, 2024-01-27 15:57:11.989
9.0, -341.0788759589195, -431.07582849264145, -393.97602093219757, -196.26994967460632, 0.09600000455975533, -0.04800000227987766, 1.008000047877431, 0.0, 0.0, 0.0, 0.0, 0.0, 1.706389031989225E9, 0.0, 2024-01-27 15:57:11.989
10.0, -441.3680331707001, -427.96423172950745, -380.8115730881691, -234.56652522087097, 0.09600000455975533, -0.04800000227987766, 1.008000047877431, 0.0, 0.0, 0.0, 0.0, 0.0, 1.7063890319898677E9, 0.0, 2024-01-27 15:57:11.989
10.0, -481.8187910914421, -430.11841410398483, -355.2007381916046, -286.74560940265656, 0.09600000455975533, -0.04800000227987766, 1.008000047877431, 0.0, 0.0, 0.0, 0.0, 0.0, 1.7063890319898677E9, 0.0, 2024-01-27 15:57:11.989
11.0, -354.48267740011215, -426.7674637436867, -385.5986450314522, -207.51956874132156, 0.09600000455975533, -0.04800000227987766, 1.008000047877431, 0.0, 0.0, 0.0, 0.0, 0.0, 1.706389032003128E9, 0.0, 2024-01-27 15:57:12.003
11.0, -392.7792529463768, -429.40035331249237, -384.64123064279556, -201.5357288122177, 0.09600000455975533, -0.04800000227987766, 1.008000047877431, 0.0, 0.0, 0.0, 0.0, 0.0, 1.706389032003128E9, 0.0, 2024-01-27 15:57:12.003
12.0, -490.43552058935165, -418.3900878429413, -346.3446550965309, -279.0862942934036, 0.09600000455975533, -0.04800000227987766, 1.008000047877431, 0.0, 0.0, 0.0, 0.0, 0.0, 1.7063890320188475E9, 0.0, 2024-01-27 15:57:12.018
12.0, -384.16252344846725, -415.51784467697144, -353.0465558171272, -221.16272377967834, 0.09600000455975533, -0.04800000227987766, 1.008000047877431, 0.0, 0.0, 0.0, 0.0, 0.0, 1.7063890320188475E9, 0.0, 2024-01-27 15:57:12.018
13.0, -349.9349590539932, -415.99655187129974, -384.4018770456314, -174.01006513834, 0.09600000455975533, -0.04800000227987766, 1.008000047877431, 0.0, 0.0, 0.0, 0.0, 0.0, 1.70638903201956E9, 0.0, 2024-01-27 15:57:12.019
13.0, -457.16537058353424, -410.4914191365242, -344.908533513546, -238.39618277549744, 0.09600000455975533, -0.04800000227987766, 1.008000047877431, 0.0, 0.0, 0.0, 0.0, 0.0, 1.70638903201956E9, 0.0, 2024-01-27 15:57:12.019
14.0, -415.51784467697144, -396.3695569038391, -331.98343926668167, -251.0819234251976, 0.09600000455975533, -0.04800000227987766, 1.008000047877431, 0.0, 0.0, 0.0, 0.0, 0.0, 1.706389032049723E9, 0.0, 2024-01-27 15:57:12.049
14.0, -330.3079640865326, -417.911380648613, -389.6676561832428, -186.93515938520432, 0.09600000455975533, -0.04800000227987766, 1.008000047877431, 0.0, 0.0, 0.0, 0.0, 0.0, 1.706389032049723E9, 0.0, 2024-01-27 15:57:12.049
15.0, -426.0494029521942, -416.95396625995636, -363.57811409235, -218.05112701654434, 0.09600000455975533, -0.04800000227987766, 1.008000047877431, 0.0, 0.0, 0.0, 0.0, 0.0, 1.7063890320502567E9, 0.0, 2024-01-27 15:57:12.050
15.0, -462.43114972114563, -409.29465115070343, -335.0950360298157, -273.5811615586281, 0.09600000455975533, -0.04800000227987766, 1.008000047877431, 0.0, 0.0, 0.0, 0.0, 0.0, 1.7063890320502567E9, 0.0, 2024-01-27 15:57:12.050
16.0, -350.89237344264984, -415.51784467697144, -378.89674431085587, -212.0672870874405, 0.09600000455975533, -0.04800000227987766, 1.008000047877431, 0.0, 0.0, 0.0, 0.0, 0.0, 1.7063890320509377E9, 0.0, 2024-01-27 15:57:12.050
16.0, -400.1992144584656, -434.4267788529396, -388.470888197422, -205.60473996400833, 0.09600000455975533, -0.04800000227987766, 1.008000047877431, 0.0, 0.0, 0.0, 0.0, 0.0, 1.7063890320509377E9, 0.0, 2024-01-27 15:57:12.050
17.0, -506.9509187936783, -433.23001086711884, -349.4562518596649, -284.11271983385086, 0.09600000455975533, -0.04800000227987766, 1.008000047877431, 0.0, 0.0, 0.0, 0.0, 0.0, 1.7063890320633707E9, 0.0, 2024-01-27 15:57:12.063
17.0, -394.69408172369003, -430.11841410398483, -370.2800148129463, -245.09808349609375, 0.09600000455975533, -0.04800000227987766, 1.008000047877431, 0.0, 0.0, 0.0, 0.0, 0.0, 1.7063890320633707E9, 0.0, 2024-01-27 15:57:12.063
18.0, -361.9026389122009, -432.03324288129807, -398.28438568115234, -188.13192737102509, 0.09600000455975533, -0.04800000227987766, 1.008000047877431, 0.0, 0.0, 0.0, 0.0, 0.0, 1.7063890320791628E9, 0.0, 2024-01-27 15:57:12.079
18.0, -488.0419846177101, -433.469364464283, -365.97165006399155, -264.7250784635544, 0.09600000455975533, -0.04800000227987766, 1.008000047877431, 0.0, 0.0, 0.0, 0.0, 0.0, 1.7063890320791628E9, 0.0, 2024-01-27 15:57:12.079
19.0, -445.915751516819, -433.469364464283, -361.9026389122009, -276.93211191892624, 0.09600000455975533, -0.04800000227987766, 1.008000047877431, 0.0, 0.0, 0.0, 0.0, 0.0, 1.7063890320797288E9, 0.0, 2024-01-27 15:57:12.079
19.0, -349.9349590539932, -438.0170828104019, -402.5927504301071, -197.9454248547554, 0.09600000455975533, -0.04800000227987766, 1.008000047877431, 0.0, 0.0, 0.0, 0.0, 0.0, 1.7063890320797288E9, 0.0, 2024-01-27 15:57:12.079
20.0, -447.83058029413223, -431.3151820898056, -375.78514754772186, -230.97622126340866, 0.09600000455975533, -0.04800000227987766, 1.008000047877431, 0.0, 0.0, 0.0, 0.0, 0.0, 1.7063890320931933E9, 0.0, 2024-01-27 15:57:12.093
20.0, -478.7071943283081, -427.00681734085083, -345.8659479022026, -284.59142702817917, 0.09600000455975533, -0.04800000227987766, 1.008000047877431, 0.0, 0.0, 0.0, 0.0, 0.0, 1.7063890320931933E9, 0.0, 2024-01-27 15:57:12.093
21.0, -360.466517329216, -427.96423172950745, -378.41803711652756, -207.99827593564987, 0.09600000455975533, -0.04800000227987766, 1.008000047877431, 0.0, 0.0, 0.0, 0.0, 0.0, 1.706389032108929E9, 0.0, 2024-01-27 15:57:12.108
21.0, -392.7792529463768, -426.5281101465225, -373.3916115760803, -187.17451298236847, 0.09600000455975533, -0.04800000227987766, 1.008000047877431, 0.0, 0.0, 0.0, 0.0, 0.0, 1.706389032108929E9, 0.0, 2024-01-27 15:57:12.108
22.0, -486.1271558403969, -418.15073424577713, -330.7866712808609, -267.1186144351959, 0.09600000455975533, -0.04800000227987766, 1.008000047877431, 0.0, 0.0, 0.0, 0.0, 0.0, 1.706389032109545E9, 0.0, 2024-01-27 15:57:12.109
22.0, -383.20510905981064, -414.799783885479, -347.0627158880234, -223.07755255699158, 0.09600000455975533, -0.04800000227987766, 1.008000047877431, 0.0, 0.0, 0.0, 0.0, 0.0, 1.706389032109545E9, 0.0, 2024-01-27 15:57:12.109
23.0, -358.3123349547386, -423.8952205777168, -383.4444626569748, -175.20683312416077, 0.09600000455975533, -0.04800000227987766, 1.008000047877431, 0.0, 0.0, 0.0, 0.0, 0.0, 1.7063890321231935E9, 0.0, 2024-01-27 15:57:12.123
23.0, -444.2402763366699, -395.65149611234665, -325.28153854608536, -232.65169644355774, 0.09600000455975533, -0.04800000227987766, 1.008000047877431, 0.0, 0.0, 0.0, 0.0, 0.0, 1.7063890321231935E9, 0.0, 2024-01-27 15:57:12.123
24.0, -411.4488335251808, -397.5663248896599, -321.69123458862305, -243.66196191310883, 0.09600000455975533, -0.04800000227987766, 1.008000047877431, 0.0, 0.0, 0.0, 0.0, 0.0, 1.7063890321389697E9, 0.0, 2024-01-27 15:57:12.138
24.0, -331.50473207235336, -420.7836238145828, -382.247694671154, -181.19067305326462, 0.09600000455975533, -0.04800000227987766, 1.008000047877431, 0.0, 0.0, 0.0, 0.0, 0.0, 1.7063890321389697E9, 0.0, 2024-01-27 15:57:12.138
25.0, -428.6822925209999, -412.1668943166733, -351.131727039814, -208.71633672714233, 0.09600000455975533, -0.04800000227987766, 1.008000047877431, 0.0, 0.0, 0.0, 0.0, 0.0, 1.706389032139568E9, 0.0, 2024-01-27 15:57:12.139
25.0, -466.2608072757721, -413.6030158996582, -333.18020725250244, -268.794089615345, 0.09600000455975533, -0.04800000227987766, 1.008000047877431, 0.0, 0.0, 0.0, 0.0, 0.0, 1.706389032139568E9, 0.0, 2024-01-27 15:57:12.139
26.0, -363.57811409235, -434.18742525577545, -386.5560594201088, -205.84409356117249, 0.09600000455975533, -0.04800000227987766, 1.008000047877431, 0.0, 0.0, 0.0, 0.0, 0.0, 1.7063890321534057E9, 0.0, 2024-01-27 15:57:12.153
26.0, -393.7366673350334, -429.8790605068207, -382.4870482683182, -198.4241320490837, 0.09600000455975533, -0.04800000227987766, 1.008000047877431, 0.0, 0.0, 0.0, 0.0, 0.0, 1.7063890321534057E9, 0.0, 2024-01-27 15:57:12.153
27.0, -501.6851396560669, -435.3841932415962, -354.48267740011215, -282.1978910565376, 0.09600000455975533, -0.04800000227987766, 1.008000047877431, 0.0, 0.0, 0.0, 0.0, 0.0, 1.706389032168912E9, 0.0, 2024-01-27 15:57:12.168
27.0, -398.0450320839882, -435.6235468387604, -367.6471252441406, -237.91747558116913, 0.09600000455975533, -0.04800000227987766, 1.008000047877431, 0.0, 0.0, 0.0, 0.0, 0.0, 1.706389032168912E9, 0.0, 2024-01-27 15:57:12.168
28.0, -372.4341971874237, -441.6073867678642, -395.8908497095108, -188.6106345653534, 0.09600000455975533, -0.04800000227987766, 1.008000047877431, 0.0, 0.0, 0.0, 0.0, 0.0, 1.7063890321695127E9, 0.0, 2024-01-27 15:57:12.169
28.0, -487.0845702290535, -435.6235468387604, -359.9878101348877, -264.2463712692261, 0.09600000455975533, -0.04800000227987766, 1.008000047877431, 0.0, 0.0, 0.0, 0.0, 0.0, 1.7063890321695127E9, 0.0, 2024-01-27 15:57:12.169
29.0, -439.2138507962227, -429.8790605068207, -355.6794453859329, -273.3418079614639, 0.09600000455975533, -0.04800000227987766, 1.008000047877431, 0.0, 0.0, 0.0, 0.0, 0.0, 1.7063890321831646E9, 0.0, 2024-01-27 15:57:12.183
29.0, -353.2859094142914, -437.5383756160736, -395.65149611234665, -194.3551208972931, 0.09600000455975533, -0.04800000227987766, 1.008000047877431, 0.0, 0.0, 0.0, 0.0, 0.0, 1.7063890321831646E9, 0.0, 2024-01-27 15:57:12.183
30.0, -449.5060554742813, -437.29902201890945, -371.23742920160294, -224.27432054281235, 0.09600000455975533, -0.04800000227987766, 1.008000047877431, 0.0, 0.0, 0.0, 0.0, 0.0, 1.7063890321989708E9, 0.0, 2024-01-27 15:57:12.198
30.0, -480.14331591129303, -430.59712129831314, -347.5414230823517, -276.93211191892624, 0.09600000455975533, -0.04800000227987766, 1.008000047877431, 0.0, 0.0, 0.0, 0.0, 0.0, 1.7063890321989708E9, 0.0, 2024-01-27 15:57:12.198
31.0, -350.89237344264984, -425.33134216070175, -380.09351229667664, -206.3228007555008, 0.09600000455975533, -0.04800000227987766, 1.008000047877431, 0.0, 0.0, 0.0, 0.0, 0.0, 1.7063890321996484E9, 0.0, 2024-01-27 15:57:12.199
31.0, -399.72050726413727, -431.7938892841339, -378.89674431085587, -198.66348564624786, 0.09600000455975533, -0.04800000227987766, 1.008000047877431, 0.0, 0.0, 0.0, 0.0, 0.0, 1.7063890321996484E9, 0.0, 2024-01-27 15:57:12.199
32.0, -490.43552058935165, -418.15073424577713, -339.88210797309875, -278.128879904747, 0.09600000455975533, -0.04800000227987766, 1.008000047877431, 0.0, 0.0, 0.0, 0.0, 0.0, 1.7063890322131345E9, 0.0, 2024-01-27 15:57:12.213
32.0, -390.6250705718994, -418.8687950372696, -356.8762133717537, -231.93363565206528, 0.09600000455975533, -0.04800000227987766, 1.008000047877431, 0.0, 0.0, 0.0, 0.0, 0.0, 1.7063890322131345E9, 0.0, 2024-01-27 15:57:12.213
33.0, -351.37108063697815, -420.54427021741867, -378.89674431085587, -173.5313579440117, 0.09600000455975533, -0.04800000227987766, 1.008000047877431, 0.0, 0.0, 0.0, 0.0, 0.0, 1.706389032228812E9, 0.0, 2024-01-27 15:57:12.228
33.0, -464.34597849845886, -415.7571982741356, -339.88210797309875, -241.7471331357956, 0.09600000455975533, -0.04800000227987766, 1.008000047877431, 0.0, 0.0, 0.0, 0.0, 0.0, 1.706389032228812E9, 0.0, 2024-01-27 15:57:12.228
34.0, -424.6132813692093, -406.1830543875694, -336.0524504184723, -249.64580184221268, 0.09600000455975533, -0.04800000227987766, 1.008000047877431, 0.0, 0.0, 0.0, 0.0, 0.0, 1.7063890322294767E9, 0.0, 2024-01-27 15:57:12.229
34.0, -340.1214615702629, -427.00681734085083, -384.16252344846725, -182.8661482334137, 0.09600000455975533, -0.04800000227987766, 1.008000047877431, 0.0, 0.0, 0.0, 0.0, 0.0, 1.7063890322294767E9, 0.0, 2024-01-27 15:57:12.229
35.0, -422.9378061890602, -410.9701263308525, -345.8659479022026, -210.15245831012726, 0.09600000455975533, -0.04800000227987766, 1.008000047877431, 0.0, 0.0, 0.0, 0.0, 0.0, 1.7063890322595108E9, 0.0, 2024-01-27 15:57:12.259
35.0, -448.0699338912964, -401.1566288471222, -329.8292568922043, -264.96443206071854, 0.09600000455975533, -0.04800000227987766, 1.008000047877431, 0.0, 0.0, 0.0, 0.0, 0.0, 1.7063890322595108E9, 0.0, 2024-01-27 15:57:12.259
36.0, -339.6427543759346, -416.2359054684639, -375.0670867562294, -197.70607125759125, 0.09600000455975533, -0.04800000227987766, 1.008000047877431, 0.0, 0.0, 0.0, 0.0, 0.0, 1.706389032260281E9, 0.0, 2024-01-27 15:57:12.260
36.0, -383.4444626569748, -417.911380648613, -373.6309651732445, -198.66348564624786, 0.09600000455975533, -0.04800000227987766, 1.008000047877431, 0.0, 0.0, 0.0, 0.0, 0.0, 1.706389032260281E9, 0.0, 2024-01-27 15:57:12.260
37.0, -483.4942662715912, -420.3049166202545, -339.88210797309875, -284.11271983385086, 0.09600000455975533, -0.04800000227987766, 1.008000047877431, 0.0, 0.0, 0.0, 0.0, 0.0, 1.706389032260902E9, 0.0, 2024-01-27 15:57:12.260
37.0, -379.3754515051842, -417.6720270514488, -361.9026389122009, -231.69428205490112, 0.09600000455975533, -0.04800000227987766, 1.008000047877431, 0.0, 0.0, 0.0, 0.0, 0.0, 1.706389032260902E9, 0.0, 2024-01-27 15:57:12.260
38.0, -360.466517329216, -433.70871806144714, -390.86442416906357, -191.96158492565155, 0.09600000455975533, -0.04800000227987766, 1.008000047877431, 0.0, 0.0, 0.0, 0.0, 0.0, 1.7063890322733836E9, 0.0, 2024-01-27 15:57:12.273
38.0, -487.32392382621765, -437.29902201890945, -364.29617488384247, -265.682492852211, 0.09600000455975533, -0.04800000227987766, 1.008000047877431, 0.0, 0.0, 0.0, 0.0, 0.0, 1.7063890322733836E9, 0.0, 2024-01-27 15:57:12.273
39.0, -433.9480716586113, -432.03324288129807, -358.55168855190277, -265.44313925504684, 0.09600000455975533, -0.04800000227987766, 1.008000047877431, 0.0, 0.0, 0.0, 0.0, 0.0, 1.706389032289154E9, 0.0, 2024-01-27 15:57:12.289
39.0, -345.3872407078743, -434.9054860472679, -397.80567848682404, -189.56804895401, 0.09600000455975533, -0.04800000227987766, 1.008000047877431, 0.0, 0.0, 0.0, 0.0, 0.0, 1.706389032289154E9, 0.0, 2024-01-27 15:57:12.289
40.0, -447.5912266969681, -429.8790605068207, -364.0568212866783, -225.47108852863312, 0.09600000455975533, -0.04800000227987766, 1.008000047877431, 0.0, 0.0, 0.0, 0.0, 0.0, 1.70638903228964E9, 0.0, 2024-01-27 15:57:12.289
40.0, -474.87753677368164, -423.6558669805527, -346.58400869369507, -276.6927583217621, 0.09600000455975533, -0.04800000227987766, 1.008000047877431, 0.0, 0.0, 0.0, 0.0, 0.0, 1.70638903228964E9, 0.0, 2024-01-27 15:57:12.289
41.0, -357.354920566082, -428.2035853266716, -376.024501144886, -198.4241320490837, 0.09600000455975533, -0.04800000227987766, 1.008000047877431, 0.0, 0.0, 0.0, 0.0, 0.0, 1.7063890323031683E9, 0.0, 2024-01-27 15:57:12.303
41.0, -397.3269712924957, -426.0494029521942, -369.801307618618, -185.73839139938354, 0.09600000455975533, -0.04800000227987766, 1.008000047877431, 0.0, 0.0, 0.0, 0.0, 0.0, 1.7063890323031683E9, 0.0, 2024-01-27 15:57:12.303
42.0, -483.73361986875534, -410.9701263308525, -327.6750745177269, -258.2625313401222, 0.09600000455975533, -0.04800000227987766, 1.008000047877431, 0.0, 0.0, 0.0, 0.0, 0.0, 1.706389032318847E9, 0.0, 2024-01-27 15:57:12.318
42.0, -370.9980756044388, -404.2682256102562, -337.24921840429306, -211.10987269878387, 0.09600000455975533, -0.04800000227987766, 1.008000047877431, 0.0, 0.0, 0.0, 0.0, 0.0, 1.706389032318847E9, 0.0, 2024-01-27 15:57:12.318
43.0, -351.37108063697815, -420.7836238145828, -369.801307618618, -164.19656765460968, 0.09600000455975533, -0.04800000227987766, 1.008000047877431, 0.0, 0.0, 0.0, 0.0, 0.0, 1.7063890323195698E9, 0.0, 2024-01-27 15:57:12.319
43.0, -465.3033928871155, -407.3798223733902, -333.8982680439949, -228.82203888893127, 0.09600000455975533, -0.04800000227987766, 1.008000047877431, 0.0, 0.0, 0.0, 0.0, 0.0, 1.7063890323195698E9, 0.0, 2024-01-27 15:57:12.319
44.0, -406.66176158189774, -395.65149611234665, -320.4944666028023, -226.18914932012558, 0.09600000455975533, -0.04800000227987766, 1.008000047877431, 0.0, 0.0, 0.0, 0.0, 0.0, 1.70638903233335E9, 0.0, 2024-01-27 15:57:12.333
44.0, -317.6222234368324, -405.2256399989128, -363.33876049518585, -156.7766061425209, 0.09600000455975533, -0.04800000227987766, 1.008000047877431, 0.0, 0.0, 0.0, 0.0, 0.0, 1.70638903233335E9, 0.0, 2024-01-27 15:57:12.333
45.0, -425.5706957578659, -412.1668943166733, -353.7646166086197, -207.2802151441574, 0.09600000455975533, -0.04800000227987766, 1.008000047877431, 0.0, 0.0, 0.0, 0.0, 0.0, 1.7063890323488543E9, 0.0, 2024-01-27 15:57:12.348
45.0, -444.71898353099823, -401.87468963861465, -314.5106266736984, -246.53420507907867, 0.09600000455975533, -0.04800000227987766, 1.008000047877431, 0.0, 0.0, 0.0, 0.0, 0.0, 1.7063890323488543E9, 0.0, 2024-01-27 15:57:12.348
46.0, -320.73382019996643, -394.4547281265259, -343.7117655277252, -172.09523636102676, 0.09600000455975533, -0.04800000227987766, 1.008000047877431, 0.0, 0.0, 0.0, 0.0, 0.0, 1.7063890323495276E9, 0.0, 2024-01-27 15:57:12.349
46.0, -376.26385474205017, -406.1830543875694, -365.7322964668274, -181.43002665042877, 0.09600000455975533, -0.04800000227987766, 1.008000047877431, 0.0, 0.0, 0.0, 0.0, 0.0, 1.7063890323495276E9, 0.0, 2024-01-27 15:57:12.349
47.0, -470.808525621891, -394.2153745293617, -319.7764058113098, -257.7838241457939, 0.09600000455975533, -0.04800000227987766, 1.008000047877431, 0.0, 0.0, 0.0, 0.0, 0.0, 1.7063890323634543E9, 0.0, 2024-01-27 15:57:12.363
47.0, -378.41803711652756, -411.9275407195091, -348.25948387384415, -215.6575910449028, 0.09600000455975533, -0.04800000227987766, 1.008000047877431, 0.0, 0.0, 0.0, 0.0, 0.0, 1.7063890323634543E9, 0.0, 2024-01-27 15:57:12.363
48.0, -363.57811409235, -420.7836238145828, -368.8438932299614, -168.50493240356445, 0.09600000455975533, -0.04800000227987766, 1.008000047877431, 0.0, 0.0, 0.0, 0.0, 0.0, 1.7063890323789783E9, 0.0, 2024-01-27 15:57:12.378
48.0, -477.98913353681564, -415.2784910798073, -329.58990329504013, -235.5239396095276, 0.09600000455975533, -0.04800000227987766, 1.008000047877431, 0.0, 0.0, 0.0, 0.0, 0.0, 1.7063890323789783E9, 0.0, 2024-01-27 15:57:12.378
49.0, -441.8467403650284, -422.9378061890602, -344.908533513546, -250.12450903654099, 0.09600000455975533, -0.04800000227987766, 1.008000047877431, 0.0, 0.0, 0.0, 0.0, 0.0, 1.7063890323795805E9, 0.0, 2024-01-27 15:57:12.379
49.0, -337.72792559862137, -420.3049166202545, -373.6309651732445, -175.44618672132492, 0.09600000455975533, -0.04800000227987766, 1.008000047877431, 0.0, 0.0, 0.0, 0.0, 0.0, 1.7063890323795805E9, 0.0, 2024-01-27 15:57:12.379
50.0, -435.86290043592453, -418.62944144010544, -353.52526301145554, -214.46082305908203, 0.09600000455975533, -0.04800000227987766, 1.008000047877431, 0.0, 0.0, 0.0, 0.0, 0.0, 1.7063890323931384E9, 0.0, 2024-01-27 15:57:12.393
50.0, -468.65434324741364, -408.57659035921097, -322.16994178295135, -258.5018849372864, 0.09600000455975533, -0.04800000227987766, 1.008000047877431, 0.0, 0.0, 0.0, 0.0, 0.0, 1.7063890323931384E9, 0.0, 2024-01-27 15:57:12.393
51.0, -362.6206997036934, -425.81004935503006, -369.56195402145386, -198.66348564624786, 0.09600000455975533, -0.04800000227987766, 1.008000047877431, 0.0, 0.0, 0.0, 0.0, 0.0, 1.7063890324088116E9, 0.0, 2024-01-27 15:57:12.408
51.0, -415.2784910798073, -433.9480716586113, -369.56195402145386, -189.56804895401, 0.09600000455975533, -0.04800000227987766, 1.008000047877431, 0.0, 0.0, 0.0, 0.0, 0.0, 1.7063890324088116E9, 0.0, 2024-01-27 15:57:12.408
52.0, -493.7864709496498, -421.9803918004036, -327.91442811489105, -262.81024968624115, 0.09600000455975533, -0.04800000227987766, 1.008000047877431, 0.0, 0.0, 0.0, 0.0, 0.0, 1.7063890324095497E9, 0.0, 2024-01-27 15:57:12.409
52.0, -383.20510905981064, -417.43267345428467, -351.131727039814, -221.4020773768425, 0.09600000455975533, -0.04800000227987766, 1.008000047877431, 0.0, 0.0, 0.0, 0.0, 0.0, 1.7063890324095497E9, 0.0, 2024-01-27 15:57:12.409
53.0, -351.131727039814, -413.36366230249405, -371.23742920160294, -158.45208132266998, 0.09600000455975533, -0.04800000227987766, 1.008000047877431, 0.0, 0.0, 0.0, 0.0, 0.0, 1.7063890324235628E9, 0.0, 2024-01-27 15:57:12.423
53.0, -465.7821000814438, -413.84236949682236, -331.02602487802505, -236.24200040102005, 0.09600000455975533, -0.04800000227987766, 1.008000047877431, 0.0, 0.0, 0.0, 0.0, 0.0, 1.7063890324235628E9, 0.0, 2024-01-27 15:57:12.423
54.0, -412.88495510816574, -401.87468963861465, -322.4092953801155, -239.1142435669899, 0.09600000455975533, -0.04800000227987766, 1.008000047877431, 0.0, 0.0, 0.0, 0.0, 0.0, 1.706389032439045E9, 0.0, 2024-01-27 15:57:12.439
54.0, -337.0098648071289, -418.62944144010544, -376.5032083392143, -174.24941873550415, 0.09600000455975533, -0.04800000227987766, 1.008000047877431, 0.0, 0.0, 0.0, 0.0, 0.0, 1.706389032439045E9, 0.0, 2024-01-27 15:57:12.439
55.0, -433.70871806144714, -418.15073424577713, -349.9349590539932, -210.63116550445557, 0.09600000455975533, -0.04800000227987766, 1.008000047877431, 0.0, 0.0, 0.0, 0.0, 0.0, 1.706389032439571E9, 0.0, 2024-01-27 15:57:12.439
55.0, -460.75567454099655, -410.0127119421959, -319.53705221414566, -256.8264097571373, 0.09600000455975533, -0.04800000227987766, 1.008000047877431, 0.0, 0.0, 0.0, 0.0, 0.0, 1.706389032439571E9, 0.0, 2024-01-27 15:57:12.439
56.0, -354.7220309972763, -423.17715978622437, -369.3226004242897, -195.79124248027802, 0.09600000455975533, -0.04800000227987766, 1.008000047877431, 0.0, 0.0, 0.0, 0.0, 0.0, 1.7063890324532328E9, 0.0, 2024-01-27 15:57:12.453
56.0, -398.0450320839882, -428.6822925209999, -380.8115730881691, -202.25378960371017, 0.09600000455975533, -0.04800000227987766, 1.008000047877431, 0.0, 0.0, 0.0, 0.0, 0.0, 1.7063890324532328E9, 0.0, 2024-01-27 15:57:12.453
57.0, -493.7864709496498, -425.33134216070175, -344.1904727220535, -276.6927583217621, 0.09600000455975533, -0.04800000227987766, 1.008000047877431, 0.0, 0.0, 0.0, 0.0, 0.0, 1.7063890324688313E9, 0.0, 2024-01-27 15:57:12.468
57.0, -400.43856805562973, -438.97449719905853, -367.8864788413048, -233.60911083221436, 0.09600000455975533, -0.04800000227987766, 1.008000047877431, 0.0, 0.0, 0.0, 0.0, 0.0, 1.7063890324688313E9, 0.0, 2024-01-27 15:57:12.468
58.0, -386.79541301727295, -449.9847626686096, -396.8482640981674, -186.456452190876, 0.09600000455975533, -0.04800000227987766, 1.008000047877431, 0.0, 0.0, 0.0, 0.0, 0.0, 1.7063890324695778E9, 0.0, 2024-01-27 15:57:12.469
58.0, -494.2651781439781, -437.0596684217453, -353.0465558171272, -254.43287378549576, 0.09600000455975533, -0.04800000227987766, 1.008000047877431, 0.0, 0.0, 0.0, 0.0, 0.0, 1.7063890324695778E9, 0.0, 2024-01-27 15:57:12.469
59.0, -449.74540907144547, -434.4267788529396, -350.1743126511574, -254.6722273826599, 0.09600000455975533, -0.04800000227987766, 1.008000047877431, 0.0, 0.0, 0.0, 0.0, 0.0, 1.7063890324836235E9, 0.0, 2024-01-27 15:57:12.483
59.0, -359.74845653772354, -441.6073867678642, -389.6676561832428, -184.78097701072693, 0.09600000455975533, -0.04800000227987766, 1.008000047877431, 0.0, 0.0, 0.0, 0.0, 0.0, 1.7063890324836235E9, 0.0, 2024-01-27 15:57:12.483
60.0, -448.5486410856247, -434.9054860472679, -370.5193684101105, -227.1465637087822, 0.09600000455975533, -0.04800000227987766, 0.9920000471174717, 0.0, 0.0, 0.0, 0.0, 0.0, 1.7063890324989855E9, 0.0, 2024-01-27 15:57:12.498
60.0, -476.7923655509949, -426.5281101465225, -338.92469358444214, -273.5811615586281, 0.09600000455975533, -0.04800000227987766, 0.9920000471174717, 0.0, 0.0, 0.0, 0.0, 0.0, 1.7063890324989855E9, 0.0, 2024-01-27 15:57:12.498
61.0, -363.57811409235, -432.7513036727905, -378.6573907136917, -201.0570216178894, 0.09600000455975533, -0.04800000227987766, 0.9920000471174717, 0.0, 0.0, 0.0, 0.0, 0.0, 1.7063890324995916E9, 0.0, 2024-01-27 15:57:12.499
61.0, -415.51784467697144, -436.34160763025284, -388.94959539175034, -195.55188888311386, 0.09600000455975533, -0.04800000227987766, 0.9920000471174717, 0.0, 0.0, 0.0, 0.0, 0.0, 1.7063890324995916E9, 0.0, 2024-01-27 15:57:12.499
62.0, -503.1212612390518, -427.48552453517914, -341.55758315324783, -270.2302111983299, 0.09600000455975533, -0.04800000227987766, 0.9920000471174717, 0.0, 0.0, 0.0, 0.0, 0.0, 1.7063890325132785E9, 0.0, 2024-01-27 15:57:12.513
62.0, -387.5134738087654, -421.9803918004036, -359.9878101348877, -227.1465637087822, 0.09600000455975533, -0.04800000227987766, 0.9920000471174717, 0.0, 0.0, 0.0, 0.0, 0.0, 1.7063890325132785E9, 0.0, 2024-01-27 15:57:12.513
63.0, -375.30644035339355, -435.6235468387604, -391.1037777662277, -186.21709859371185, 0.09600000455975533, -0.04800000227987766, 0.9920000471174717, 0.0, 0.0, 0.0, 0.0, 0.0, 1.706389032528894E9, 0.0, 2024-01-27 15:57:12.528
63.0, -487.5632774233818, -431.55453568696976, -352.5678486227989, -249.64580184221268, 0.09600000455975533, -0.04800000227987766, 0.9920000471174717, 0.0, 0.0, 0.0, 0.0, 0.0, 1.706389032528894E9, 0.0, 2024-01-27 15:57:12.528
64.0, -438.0170828104019, -418.3900878429413, -344.66917991638184, -256.8264097571373, 0.09600000455975533, -0.04800000227987766, 0.9920000471174717, 0.0, 0.0, 0.0, 0.0, 0.0, 1.7063890325295775E9, 0.0, 2024-01-27 15:57:12.529
64.0, -353.2859094142914, -435.86290043592453, -386.79541301727295, -179.27584427595139, 0.09600000455975533, -0.04800000227987766, 0.9920000471174717, 0.0, 0.0, 0.0, 0.0, 0.0, 1.7063890325295775E9, 0.0, 2024-01-27 15:57:12.529
65.0, -453.0963594317436, -433.9480716586113, -364.5355284810066, -219.72660219669342, 0.09600000455975533, -0.04800000227987766, 0.9920000471174717, 0.0, 0.0, 0.0, 0.0, 0.0, 1.706389032543167E9, 0.0, 2024-01-27 15:57:12.543
65.0, -480.3826695084572, -426.0494029521942, -339.88210797309875, -271.66633278131485, 0.09600000455975533, -0.04800000227987766, 0.9920000471174717, 0.0, 0.0, 0.0, 0.0, 0.0, 1.706389032543167E9, 0.0, 2024-01-27 15:57:12.543
66.0, -362.86005330085754, -429.8790605068207, -375.30644035339355, -200.81766802072525, 0.09600000455975533, -0.04800000227987766, 0.9920000471174717, 0.0, 0.0, 0.0, 0.0, 0.0, 1.7063890325588267E9, 0.0, 2024-01-27 15:57:12.558
66.0, -412.40624791383743, -440.6499723792076, -380.09351229667664, -195.07318168878555, 0.09600000455975533, -0.04800000227987766, 0.9920000471174717, 0.0, 0.0, 0.0, 0.0, 0.0, 1.7063890325588267E9, 0.0, 2024-01-27 15:57:12.558
67.0, -503.8393220305443, -431.55453568696976, -346.3446550965309, -273.5811615586281, 0.09600000455975533, -0.04800000227987766, 0.9920000471174717, 0.0, 0.0, 0.0, 0.0, 0.0, 1.706389032559604E9, 0.0, 2024-01-27 15:57:12.559
67.0, -398.28438568115234, -431.55453568696976, -367.8864788413048, -235.28458601236343, 0.09600000455975533, -0.04800000227987766, 0.9920000471174717, 0.0, 0.0, 0.0, 0.0, 0.0, 1.706389032559604E9, 0.0, 2024-01-27 15:57:12.559
68.0, -381.05092668533325, -442.804154753685, -398.28438568115234, -186.21709859371185, 0.09600000455975533, -0.04800000227987766, 0.9920000471174717, 0.0, 0.0, 0.0, 0.0, 0.0, 1.7063890325735898E9, 0.0, 2024-01-27 15:57:12.573
68.0, -492.11099576950073, -434.18742525577545, -353.52526301145554, -261.3741281032562, 0.09600000455975533, -0.04800000227987766, 0.9920000471174717, 0.0, 0.0, 0.0, 0.0, 0.0, 1.7063890325735898E9, 0.0, 2024-01-27 15:57:12.573
69.0, -443.7615691423416, -427.96423172950745, -353.2859094142914, -266.6399072408676, 0.09600000455975533, -0.04800000227987766, 0.9920000471174717, 0.0, 0.0, 0.0, 0.0, 0.0, 1.7063890326051693E9, 0.0, 2024-01-27 15:57:12.605
69.0, -354.7220309972763, -437.29902201890945, -392.53989934921265, -187.89257377386093, 0.09600000455975533, -0.04800000227987766, 0.9920000471174717, 0.0, 0.0, 0.0, 0.0, 0.0, 1.7063890326051693E9, 0.0, 2024-01-27 15:57:12.605
70.0, -454.53248101472855, -434.18742525577545, -370.9980756044388, -232.65169644355774, 0.09600000455975533, -0.04800000227987766, 1.008000047877431, 0.0, 0.0, 0.0, 0.0, 0.0, 1.70638903260593E9, 0.0, 2024-01-27 15:57:12.605
70.0, -485.16974145174026, -435.14483964443207, -346.8233622908592, -281.7191838622093, 0.09600000455975533, -0.04800000227987766, 1.008000047877431, 0.0, 0.0, 0.0, 0.0, 0.0, 1.70638903260593E9, 0.0, 2024-01-27 15:57:12.605
71.0, -368.3651860356331, -437.0596684217453, -381.2902802824974, -203.92926478385925, 0.09600000455975533, -0.04800000227987766, 1.008000047877431, 0.0, 0.0, 0.0, 0.0, 0.0, 1.7063890326066475E9, 0.0, 2024-01-27 15:57:12.606
71.0, -421.26233100891113, -449.027348279953, -391.3431313633919, -208.23762953281403, 0.09600000455975533, -0.04800000227987766, 1.008000047877431, 0.0, 0.0, 0.0, 0.0, 0.0, 1.7063890326066475E9, 0.0, 2024-01-27 15:57:12.606
72.0, -523.2269634008408, -444.9583371281624, -351.6104342341423, -282.1978910565376, 0.09600000455975533, -0.04800000227987766, 1.008000047877431, 0.0, 0.0, 0.0, 0.0, 0.0, 1.7063890326073887E9, 0.0, 2024-01-27 15:57:12.607
72.0, -414.799783885479, -440.41061878204346, -373.15225797891617, -239.1142435669899, 0.09600000455975533, -0.04800000227987766, 1.008000047877431, 0.0, 0.0, 0.0, 0.0, 0.0, 1.7063890326073887E9, 0.0, 2024-01-27 15:57:12.607
73.0, -391.3431313633919, -448.30928748846054, -407.8585295677185, -195.79124248027802, 0.09600000455975533, -0.04800000227987766, 1.008000047877431, 0.0, 0.0, 0.0, 0.0, 0.0, 1.706389032618342E9, 0.0, 2024-01-27 15:57:12.618
73.0, -498.5735428929329, -437.77772921323776, -357.8336277604103, -260.8954209089279, 0.09600000455975533, -0.04800000227987766, 1.008000047877431, 0.0, 0.0, 0.0, 0.0, 0.0, 1.706389032618342E9, 0.0, 2024-01-27 15:57:12.618
74.0, -445.67639791965485, -432.2725964784622, -353.0465558171272, -265.682492852211, 0.09600000455975533, -0.04800000227987766, 1.008000047877431, 0.0, 0.0, 0.0, 0.0, 0.0, 1.706389032633423E9, 0.0, 2024-01-27 15:57:12.633
74.0, -354.48267740011215, -437.77772921323776, -390.38571697473526, -187.65322017669678, 0.09600000455975533, -0.04800000227987766, 1.008000047877431, 0.0, 0.0, 0.0, 0.0, 0.0, 1.706389032633423E9, 0.0, 2024-01-27 15:57:12.633
75.0, -457.64407777786255, -436.1022540330887, -370.2800148129463, -230.01880687475204, 0.09600000455975533, -0.04800000227987766, 1.008000047877431, 0.0, 0.0, 0.0, 0.0, 0.0, 1.7063890326490655E9, 0.0, 2024-01-27 15:57:12.649
75.0, -486.1271558403969, -429.6397069096565, -344.66917991638184, -277.6501727104187, 0.09600000455975533, -0.04800000227987766, 1.008000047877431, 0.0, 0.0, 0.0, 0.0, 0.0, 1.7063890326490655E9, 0.0, 2024-01-27 15:57:12.649
76.0, -358.3123349547386, -425.0919885635376, -372.67355078458786, -197.70607125759125, 0.09600000455975533, -0.04800000227987766, 1.008000047877431, 0.0, 0.0, 0.0, 0.0, 0.0, 1.7063890326497166E9, 0.0, 2024-01-27 15:57:12.649
76.0, -413.36366230249405, -443.52221554517746, -381.52963387966156, -200.0996072292328, 0.09600000455975533, -0.04800000227987766, 1.008000047877431, 0.0, 0.0, 0.0, 0.0, 0.0, 1.7063890326497166E9, 0.0, 2024-01-27 15:57:12.649
77.0, -506.71156519651413, -429.6397069096565, -339.40340077877045, -277.1714655160904, 0.09600000455975533, -0.04800000227987766, 1.008000047877431, 0.0, 0.0, 0.0, 0.0, 0.0, 1.7063890326631155E9, 0.0, 2024-01-27 15:57:12.663
77.0, -397.80567848682404, -423.8952205777168, -364.5355284810066, -237.67812198400497, 0.09600000455975533, -0.04800000227987766, 1.008000047877431, 0.0, 0.0, 0.0, 0.0, 0.0, 1.7063890326631155E9, 0.0, 2024-01-27 15:57:12.663
78.0, -377.2212691307068, -437.0596684217453, -386.79541301727295, -188.6106345653534, 0.09600000455975533, -0.04800000227987766, 1.008000047877431, 0.0, 0.0, 0.0, 0.0, 0.0, 1.70638903267888E9, 0.0, 2024-01-27 15:57:12.678
78.0, -483.25491267442703, -426.7674637436867, -345.62659430503845, -255.15093457698822, 0.09600000455975533, -0.04800000227987766, 1.008000047877431, 0.0, 0.0, 0.0, 0.0, 0.0, 1.70638903267888E9, 0.0, 2024-01-27 15:57:12.678
79.0, -432.2725964784622, -421.5016846060753, -343.7117655277252, -254.43287378549576, 0.09600000455975533, -0.04800000227987766, 1.008000047877431, 0.0, 0.0, 0.0, 0.0, 0.0, 1.7063890326795397E9, 0.0, 2024-01-27 15:57:12.679
79.0, -363.0994068980217, -440.1712651848793, -397.3269712924957, -190.28610974550247, 0.09600000455975533, -0.04800000227987766, 1.008000047877431, 0.0, 0.0, 0.0, 0.0, 0.0, 1.7063890326795397E9, 0.0, 2024-01-27 15:57:12.679
80.0, -476.31365835666656, -449.9847626686096, -379.6148051023483, -237.67812198400497, 0.09600000455975533, -0.04800000227987766, 1.008000047877431, 0.0, 0.0, 0.0, 0.0, 0.0, 1.7063890326933968E9, 0.0, 2024-01-27 15:57:12.693
80.0, -467.9362824559212, -414.32107669115067, -337.72792559862137, -268.794089615345, 0.09600000455975533, -0.04800000227987766, 1.008000047877431, 0.0, 0.0, 0.0, 0.0, 0.0, 1.7063890326933968E9, 0.0, 2024-01-27 15:57:12.693
81.0, -355.44009178876877, -434.4267788529396, -390.6250705718994, -214.93953025341034, 0.09600000455975533, -0.04800000227987766, 1.008000047877431, 0.0, 0.0, 0.0, 0.0, 0.0, 1.706389032708998E9, 0.0, 2024-01-27 15:57:12.708
81.0, -424.85263496637344, -448.30928748846054, -382.247694671154, -203.6899111866951, 0.09600000455975533, -0.04800000227987766, 1.008000047877431, 0.0, 0.0, 0.0, 0.0, 0.0, 1.706389032708998E9, 0.0, 2024-01-27 15:57:12.708
82.0, -516.0463554859161, -445.67639791965485, -350.89237344264984, -281.9585374593735, 0.09600000455975533, -0.04800000227987766, 1.008000047877431, 0.0, 0.0, 0.0, 0.0, 0.0, 1.7063890327096577E9, 0.0, 2024-01-27 15:57:12.709
82.0, -395.17278891801834, -430.357767701149, -365.2535892724991, -226.42850291728973, 0.09600000455975533, -0.04800000227987766, 1.008000047877431, 0.0, 0.0, 0.0, 0.0, 0.0, 1.7063890327096577E9, 0.0, 2024-01-27 15:57:12.709
83.0, -375.5457939505577, -431.7938892841339, -388.7102417945862, -188.13192737102509, 0.09600000455975533, -0.04800000227987766, 1.008000047877431, 0.0, 0.0, 0.0, 0.0, 0.0, 1.7063890327231033E9, 0.0, 2024-01-27 15:57:12.723
83.0, -501.92449325323105, -440.41061878204346, -347.30206948518753, -251.79998421669006, 0.09600000455975533, -0.04800000227987766, 1.008000047877431, 0.0, 0.0, 0.0, 0.0, 0.0, 1.7063890327231033E9, 0.0, 2024-01-27 15:57:12.723
84.0, -455.48989540338516, -438.7351436018944, -351.37108063697815, -257.3051169514656, 0.09600000455975533, -0.04800000227987766, 1.008000047877431, 0.0, 0.0, 0.0, 0.0, 0.0, 1.706389032739038E9, 0.0, 2024-01-27 15:57:12.739
84.0, -348.25948387384415, -430.8364748954773, -381.2902802824974, -174.01006513834, 0.09600000455975533, -0.04800000227987766, 1.008000047877431, 0.0, 0.0, 0.0, 0.0, 0.0, 1.706389032739038E9, 0.0, 2024-01-27 15:57:12.739
85.0, -455.48989540338516, -429.1609997153282, -355.2007381916046, -220.9233701825142, 0.09600000455975533, -0.04800000227987766, 1.008000047877431, 0.0, 0.0, 0.0, 0.0, 0.0, 1.7063890327395885E9, 0.0, 2024-01-27 15:57:12.739
85.0, -490.43552058935165, -435.6235468387604, -344.66917991638184, -275.9746975302696, 0.09600000455975533, -0.04800000227987766, 1.008000047877431, 0.0, 0.0, 0.0, 0.0, 0.0, 1.7063890327395885E9, 0.0, 2024-01-27 15:57:12.739
86.0, -372.912904381752, -439.93191158771515, -382.247694671154, -203.6899111866951, 0.09600000455975533, -0.04800000227987766, 1.008000047877431, 0.0, 0.0, 0.0, 0.0, 0.0, 1.70638903275332E9, 0.0, 2024-01-27 15:57:12.753
86.0, -417.6720270514488, -438.97449719905853, -373.6309651732445, -198.18477845191956, 0.09600000455975533, -0.04800000227987766, 1.008000047877431, 0.0, 0.0, 0.0, 0.0, 0.0, 1.70638903275332E9, 0.0, 2024-01-27 15:57:12.753
87.0, -507.66897958517075, -432.2725964784622, -342.03629034757614, -274.77792954444885, 0.09600000455975533, -0.04800000227987766, 1.008000047877431, 0.0, 0.0, 0.0, 0.0, 0.0, 1.70638903276885E9, 0.0, 2024-01-27 15:57:12.768
87.0, -402.1140432357788, -430.8364748954773, -364.0568212866783, -226.42850291728973, 0.09600000455975533, -0.04800000227987766, 1.008000047877431, 0.0, 0.0, 0.0, 0.0, 0.0, 1.70638903276885E9, 0.0, 2024-01-27 15:57:12.768
88.0, -390.38571697473526, -447.5912266969681, -392.7792529463768, -186.69580578804016, 0.09600000455975533, -0.04800000227987766, 1.008000047877431, 0.0, 0.0, 0.0, 0.0, 0.0, 1.706389032769528E9, 0.0, 2024-01-27 15:57:12.769
88.0, -502.1638468503952, -449.74540907144547, -370.5193684101105, -270.9482719898224, 0.09600000455975533, -0.04800000227987766, 1.008000047877431, 0.0, 0.0, 0.0, 0.0, 0.0, 1.706389032769528E9, 0.0, 2024-01-27 15:57:12.769
89.0, -437.5383756160736, -428.6822925209999, -354.96138459444046, -256.10834896564484, 0.09600000455975533, -0.04800000227987766, 1.008000047877431, 0.0, 0.0, 0.0, 0.0, 0.0, 1.7063890327833045E9, 0.0, 2024-01-27 15:57:12.783
89.0, -351.6104342341423, -430.357767701149, -386.31670582294464, -175.20683312416077, 0.09600000455975533, -0.04800000227987766, 1.008000047877431, 0.0, 0.0, 0.0, 0.0, 0.0, 1.7063890327833045E9, 0.0, 2024-01-27 15:57:12.783
90.0, -465.0640392899513, -437.5383756160736, -363.33876049518585, -226.42850291728973, 0.09600000455975533, -0.04800000227987766, 0.9920000471174717, 0.0, 0.0, 0.0, 0.0, 0.0, 1.7063890327994788E9, 0.0, 2024-01-27 15:57:12.799
90.0, -475.83495116233826, -428.6822925209999, -347.30206948518753, -279.0862942934036, 0.09600000455975533, -0.04800000227987766, 0.9920000471174717, 0.0, 0.0, 0.0, 0.0, 0.0, 1.7063890327994788E9, 0.0, 2024-01-27 15:57:12.799
91.0, -362.38134610652924, -440.6499723792076, -388.2315346002579, -210.3918119072914, 0.09600000455975533, -0.04800000227987766, 0.9920000471174717, 0.0, 0.0, 0.0, 0.0, 0.0, 1.7063890328003097E9, 0.0, 2024-01-27 15:57:12.800
91.0, -422.21974539756775, -448.78799468278885, -384.64123064279556, -199.38154643774033, 0.09600000455975533, -0.04800000227987766, 0.9920000471174717, 0.0, 0.0, 0.0, 0.0, 0.0, 1.7063890328003097E9, 0.0, 2024-01-27 15:57:12.800
92.0, -513.4134659171104, -442.804154753685, -353.0465558171272, -280.04370868206024, 0.09600000455975533, -0.04800000227987766, 0.9920000471174717, 0.0, 0.0, 0.0, 0.0, 0.0, 1.7063890328132348E9, 0.0, 2024-01-27 15:57:12.813
92.0, -410.73077273368835, -448.30928748846054, -369.3226004242897, -230.7368676662445, 0.09600000455975533, -0.04800000227987766, 0.9920000471174717, 0.0, 0.0, 0.0, 0.0, 0.0, 1.7063890328132348E9, 0.0, 2024-01-27 15:57:12.813
93.0, -402.5927504301071, -464.1066249012947, -413.36366230249405, -195.55188888311386, 0.09600000455975533, -0.04800000227987766, 0.9920000471174717, 0.0, 0.0, 0.0, 0.0, 0.0, 1.70638903282885E9, 0.0, 2024-01-27 15:57:12.828
93.0, -522.9876098036766, -465.3033928871155, -382.9657554626465, -282.9159518480301, 0.09600000455975533, -0.04800000227987766, 0.9920000471174717, 0.0, 0.0, 0.0, 0.0, 0.0, 1.70638903282885E9, 0.0, 2024-01-27 15:57:12.828
94.0, -470.56917202472687, -453.8144202232361, -369.801307618618, -264.2463712692261, 0.09600000455975533, -0.04800000227987766, 0.9920000471174717, 0.0, 0.0, 0.0, 0.0, 0.0, 1.7063890328295739E9, 0.0, 2024-01-27 15:57:12.829
94.0, -399.9598608613014, -485.6484486460686, -428.92164611816406, -212.30664068460464, 0.09600000455975533, -0.04800000227987766, 0.9920000471174717, 0.0, 0.0, 0.0, 0.0, 0.0, 1.7063890328295739E9, 0.0, 2024-01-27 15:57:12.829
95.0, -523.9450241923332, -503.8393220305443, -407.61917597055435, -254.6722273826599, 0.09600000455975533, -0.04800000227987766, 0.9920000471174717, 0.0, 0.0, 0.0, 0.0, 0.0, 1.7063890328433032E9, 0.0, 2024-01-27 15:57:12.843
95.0, -543.3326655626297, -491.8716421723366, -387.27412021160126, -301.34617882966995, 0.09600000455975533, -0.04800000227987766, 0.9920000471174717, 0.0, 0.0, 0.0, 0.0, 0.0, 1.7063890328433032E9, 0.0, 2024-01-27 15:57:12.843
96.0, -452.6176522374153, -520.3547202348709, -445.915751516819, -254.43287378549576, 0.09600000455975533, -0.04800000227987766, 0.9920000471174717, 0.0, 0.0, 0.0, 0.0, 0.0, 1.7063890328591552E9, 0.0, 2024-01-27 15:57:12.859
96.0, -511.4986371397972, -535.4339968562126, -448.78799468278885, -251.32127702236176, 0.09600000455975533, -0.04800000227987766, 0.9920000471174717, 0.0, 0.0, 0.0, 0.0, 0.0, 1.7063890328591552E9, 0.0, 2024-01-27 15:57:12.859
97.0, -613.2239159345627, -537.58817923069, -421.5016846060753, -336.29180401563644, 0.09600000455975533, -0.04800000227987766, 0.9920000471174717, 0.0, 0.0, 0.0, 0.0, 0.0, 1.7063890328596857E9, 0.0, 2024-01-27 15:57:12.859
97.0, -512.695405125618, -545.7262015342712, -453.57506662607193, -295.12298530340195, 0.09600000455975533, -0.04800000227987766, 0.9920000471174717, 0.0, 0.0, 0.0, 0.0, 0.0, 1.7063890328596857E9, 0.0, 2024-01-27 15:57:12.859
98.0, -512.9347587227821, -565.592550098896, -490.1961669921875, -260.8954209089279, 0.09600000455975533, -0.04800000227987766, 0.9920000471174717, 0.0, 0.0, 0.0, 0.0, 0.0, 1.706389032873191E9, 0.0, 2024-01-27 15:57:12.873
98.0, -651.5204914808273, -585.9376058578491, -477.2710727453232, -349.69560545682907, 0.09600000455975533, -0.04800000227987766, 0.9920000471174717, 0.0, 0.0, 0.0, 0.0, 0.0, 1.706389032873191E9, 0.0, 2024-01-27 15:57:12.873
99.0, -615.6174519062042, -598.6233465075493, -492.11099576950073, -373.6309651732445, 0.09600000455975533, -0.04800000227987766, 0.9920000471174717, 0.0, 0.0, 0.0, 0.0, 0.0, 1.706389032888168E9, 0.0, 2024-01-27 15:57:12.888
99.0, -541.8965439796448, -623.5161206126213, -545.7262015342712, -309.72355473041534, 0.09600000455975533, -0.04800000227987766, 0.9920000471174717, 0.0, 0.0, 0.0, 0.0, 0.0, 1.706389032888168E9, 0.0, 2024-01-27 15:57:12.888
0.0, -699.151857316494, -648.4088947176933, -525.3811457753181, -429.1609997153282, 0.09600000455975533, -0.04800000227987766, 1.008000047877431, 0.0, 0.0, 0.0, 0.0, 0.0, 1.7063890329038577E9, 0.0, 2024-01-27 15:57:12.903
0.0, -595.5117497444153, -668.035889685154, -578.038937151432, -365.2535892724991, 0.09600000455975533, -0.04800000227987766, 1.008000047877431, 0.0, 0.0, 0.0, 0.0, 0.0, 1.7063890329038577E9, 0.0, 2024-01-27 15:57:12.903
1.0, -658.2223922014236, -688.8596526384354, -593.3575673699379, -373.6309651732445, 0.09600000455975533, -0.04800000227987766, 1.008000047877431, 0.0, 0.0, 0.0, 0.0, 0.0, 1.7063890329045625E9, 0.0, 2024-01-27 15:57:12.904
1.0, -763.7773285508156, -698.4337965250015, -564.1564285159111, -464.1066249012947, 0.09600000455975533, -0.04800000227987766, 1.008000047877431, 0.0, 0.0, 0.0, 0.0, 0.0, 1.7063890329045625E9, 0.0, 2024-01-27 15:57:12.904
2.0, -653.6746738553047, -692.6893101930618, -581.6292411088943, -411.68818712234497, 0.09600000455975533, -0.04800000227987766, 1.008000047877431, 0.0, 0.0, 0.0, 0.0, 0.0, 1.7063890329182017E9, 0.0, 2024-01-27 15:57:12.918
2.0, -649.6056627035141, -710.8801835775375, -620.4045238494873, -381.7689874768257, 0.09600000455975533, -0.04800000227987766, 1.008000047877431, 0.0, 0.0, 0.0, 0.0, 0.0, 1.7063890329182017E9, 0.0, 2024-01-27 15:57:12.918
3.0, -766.1708645224571, -713.5130731463432, -584.7408378720284, -455.96860259771347, 0.09600000455975533, -0.04800000227987766, 1.008000047877431, 0.0, 0.0, 0.0, 0.0, 0.0, 1.7063890329338949E9, 0.0, 2024-01-27 15:57:12.933
3.0, -710.8801835775375, -706.3324652314186, -586.4163130521774, -459.0801993608475, 0.09600000455975533, -0.04800000227987766, 1.008000047877431, 0.0, 0.0, 0.0, 0.0, 0.0, 1.7063890329338949E9, 0.0, 2024-01-27 15:57:12.933
4.0, -620.6438774466515, -707.0505260229111, -621.1225846409798, -380.09351229667664, 0.09600000455975533, -0.04800000227987766, 1.008000047877431, 0.0, 0.0, 0.0, 0.0, 0.0, 1.7063890329345908E9, 0.0, 2024-01-27 15:57:12.934
4.0, -726.6775209903717, -703.4602220654488, -592.4001529812813, -424.134574174881, 0.09600000455975533, -0.04800000227987766, 1.008000047877431, 0.0, 0.0, 0.0, 0.0, 0.0, 1.7063890329345908E9, 0.0, 2024-01-27 15:57:12.934
5.0, -731.9433001279831, -692.6893101930618, -569.4222076535225, -468.8936968445778, 0.09600000455975533, -0.04800000227987766, 1.008000047877431, 0.0, 0.0, 0.0, 0.0, 0.0, 1.7063890329485378E9, 0.0, 2024-01-27 15:57:12.948
5.0, -620.6438774466515, -697.9550893306732, -604.367832839489, -393.2579601407051, 0.09600000455975533, -0.04800000227987766, 1.008000047877431, 0.0, 0.0, 0.0, 0.0, 0.0, 1.7063890329485378E9, 0.0, 2024-01-27 15:57:12.948
6.0, -672.822961628437, -696.7583213448524, -598.3839929103851, -392.06119215488434, 0.09600000455975533, -0.04800000227987766, 1.008000047877431, 0.0, 0.0, 0.0, 0.0, 0.0, 1.7063890329640975E9, 0.0, 2024-01-27 15:57:12.964
6.0, -751.3309414982796, -680.9609839320183, -553.3855166435242, -455.01118820905685, 0.09600000455975533, -0.04800000227987766, 1.008000047877431, 0.0, 0.0, 0.0, 0.0, 0.0, 1.7063890329640975E9, 0.0, 2024-01-27 15:57:12.964
7.0, -641.4676403999329, -678.3280943632126, -571.5763900279999, -406.1830543875694, 0.09600000455975533, -0.04800000227987766, 1.008000047877431, 0.0, 0.0, 0.0, 0.0, 0.0, 1.7063890329646173E9, 0.0, 2024-01-27 15:57:12.964
7.0, -626.149010181427, -685.5087022781372, -595.5117497444153, -359.5091029405594, 0.09600000455975533, -0.04800000227987766, 1.008000047877431, 0.0, 0.0, 0.0, 0.0, 0.0, 1.7063890329646173E9, 0.0, 2024-01-27 15:57:12.964
8.0, -738.1664936542511, -676.4132655858994, -550.5132734775543, -429.6397069096565, 0.09600000455975533, -0.04800000227987766, 1.008000047877431, 0.0, 0.0, 0.0, 0.0, 0.0, 1.7063890329782436E9, 0.0, 2024-01-27 15:57:12.978
8.0, -679.5248623490334, -664.92429292202, -551.2313342690468, -432.2725964784622, 0.09600000455975533, -0.04800000227987766, 1.008000047877431, 0.0, 0.0, 0.0, 0.0, 0.0, 1.7063890329782436E9, 0.0, 2024-01-27 15:57:12.978
9.0, -599.1020537018776, -687.1841774582863, -593.3575673699379, -365.97165006399155, 0.09600000455975533, -0.04800000227987766, 1.008000047877431, 0.0, 0.0, 0.0, 0.0, 0.0, 1.7063890329938996E9, 0.0, 2024-01-27 15:57:12.993
9.0, -695.0828461647034, -679.7642159461975, -565.3531965017319, -408.57659035921097, 0.09600000455975533, -0.04800000227987766, 1.008000047877431, 0.0, 0.0, 0.0, 0.0, 0.0, 1.7063890329938996E9, 0.0, 2024-01-27 15:57:12.993
10.0, -718.3001450896263, -672.1049008369446, -546.4442623257637, -452.85700583457947, 0.09600000455975533, -0.04800000227987766, 1.008000047877431, 0.0, 0.0, 0.0, 0.0, 0.0, 1.7063890329945703E9, 0.0, 2024-01-27 15:57:12.994
10.0, -595.033042550087, -672.1049008369446, -587.373727440834, -383.20510905981064, 0.09600000455975533, -0.04800000227987766, 1.008000047877431, 0.0, 0.0, 0.0, 0.0, 0.0, 1.7063890329945703E9, 0.0, 2024-01-27 15:57:12.994
11.0, -646.0153587460518, -670.6687792539597, -583.5440698862076, -377.2212691307068, 0.09600000455975533, -0.04800000227987766, 1.008000047877431, 0.0, 0.0, 0.0, 0.0, 0.0, 1.7063890330081873E9, 0.0, 2024-01-27 15:57:13.008
11.0, -731.9433001279831, -663.0094641447067, -539.0243008136749, -451.89959144592285, 0.09600000455975533, -0.04800000227987766, 1.008000047877431, 0.0, 0.0, 0.0, 0.0, 0.0, 1.7063890330081873E9, 0.0, 2024-01-27 15:57:13.008
12.0, -623.037413418293, -657.5043314099312, -562.0022461414337, -401.87468963861465, 0.09600000455975533, -0.04800000227987766, 1.008000047877431, 0.0, 0.0, 0.0, 0.0, 0.0, 1.706389033023854E9, 0.0, 2024-01-27 15:57:13.023
12.0, -596.9478713274002, -659.6585137844086, -574.927340388298, -352.32849502563477, 0.09600000455975533, -0.04800000227987766, 1.008000047877431, 0.0, 0.0, 0.0, 0.0, 0.0, 1.706389033023854E9, 0.0, 2024-01-27 15:57:13.023
13.0, -710.1621227860451, -654.6320882439613, -539.2636544108391, -425.0919885635376, 0.09600000455975533, -0.04800000227987766, 1.008000047877431, 0.0, 0.0, 0.0, 0.0, 0.0, 1.7063890330246177E9, 0.0, 2024-01-27 15:57:13.024
13.0, -656.0682098269463, -645.7760051488876, -534.7159360647202, -418.15073424577713, 0.09600000455975533, -0.04800000227987766, 1.008000047877431, 0.0, 0.0, 0.0, 0.0, 0.0, 1.7063890330246177E9, 0.0, 2024-01-27 15:57:13.024
14.0, -565.1138429045677, -649.8450163006783, -567.7467324733734, -339.88210797309875, 0.09600000455975533, -0.04800000227987766, 1.008000047877431, 0.0, 0.0, 0.0, 0.0, 0.0, 1.7063890330382843E9, 0.0, 2024-01-27 15:57:13.038
14.0, -655.3501490354538, -635.7231540679932, -538.7849472165108, -383.68381625413895, 0.09600000455975533, -0.04800000227987766, 1.008000047877431, 0.0, 0.0, 0.0, 0.0, 0.0, 1.7063890330382843E9, 0.0, 2024-01-27 15:57:13.038
15.0, -669.9507184624672, -627.3457781672478, -506.2328580021858, -427.246170938015, 0.09600000455975533, -0.04800000227987766, 1.008000047877431, 0.0, 0.0, 0.0, 0.0, 0.0, 1.7063890330540664E9, 0.0, 2024-01-27 15:57:13.054
15.0, -548.5984447002411, -622.7980598211288, -547.1623231172562, -352.0891414284706, 0.09600000455975533, -0.04800000227987766, 1.008000047877431, 0.0, 0.0, 0.0, 0.0, 0.0, 1.7063890330540664E9, 0.0, 2024-01-27 15:57:13.054
16.0, -599.5807608962059, -624.2341814041138, -541.4178367853165, -350.1743126511574, 0.09600000455975533, -0.04800000227987766, 1.008000047877431, 0.0, 0.0, 0.0, 0.0, 0.0, 1.7063890330546162E9, 0.0, 2024-01-27 15:57:13.054
16.0, -675.4558511972427, -607.9581367969513, -498.0948356986046, -418.15073424577713, 0.09600000455975533, -0.04800000227987766, 1.008000047877431, 0.0, 0.0, 0.0, 0.0, 0.0, 1.7063890330546162E9, 0.0, 2024-01-27 15:57:13.054
17.0, -563.917074918747, -600.2988216876984, -515.5676482915878, -362.38134610652924, 0.09600000455975533, -0.04800000227987766, 1.008000047877431, 0.0, 0.0, 0.0, 0.0, 0.0, 1.7063890330681384E9, 0.0, 2024-01-27 15:57:13.068
17.0, -551.4706878662109, -617.2929270863533, -539.7423616051674, -321.4518809914589, 0.09600000455975533, -0.04800000227987766, 1.008000047877431, 0.0, 0.0, 0.0, 0.0, 0.0, 1.7063890330681384E9, 0.0, 2024-01-27 15:57:13.068
18.0, -668.2752432823181, -609.1549047827721, -501.92449325323105, -394.2153745293617, 0.09600000455975533, -0.04800000227987766, 1.008000047877431, 0.0, 0.0, 0.0, 0.0, 0.0, 1.7063890330838811E9, 0.0, 2024-01-27 15:57:13.083
18.0, -607.0007224082947, -598.144639313221, -498.81289649009705, -385.359291434288, 0.09600000455975533, -0.04800000227987766, 1.008000047877431, 0.0, 0.0, 0.0, 0.0, 0.0, 1.7063890330838811E9, 0.0, 2024-01-27 15:57:13.083
19.0, -535.6733504533768, -616.5748662948608, -543.5720191597939, -321.9305881857872, 0.09600000455975533, -0.04800000227987766, 1.008000047877431, 0.0, 0.0, 0.0, 0.0, 0.0, 1.7063890330845308E9, 0.0, 2024-01-27 15:57:13.084
19.0, -628.7818997502327, -605.0858936309814, -507.66897958517075, -351.84978783130646, 0.09600000455975533, -0.04800000227987766, 1.008000047877431, 0.0, 0.0, 0.0, 0.0, 0.0, 1.7063890330845308E9, 0.0, 2024-01-27 15:57:13.084
20.0, -649.6056627035141, -602.4530040621758, -499.5309572815895, -408.09788316488266, 0.09600000455975533, -0.04800000227987766, 1.008000047877431, 0.0, 0.0, 0.0, 0.0, 0.0, 1.7063890330981567E9, 0.0, 2024-01-27 15:57:13.098
20.0, -523.4663169980049, -603.1710648536682, -533.9978752732277, -330.3079640865326, 0.09600000455975533, -0.04800000227987766, 1.008000047877431, 0.0, 0.0, 0.0, 0.0, 0.0, 1.7063890330981567E9, 0.0, 2024-01-27 15:57:13.098
21.0, -582.1079483032227, -605.5646008253098, -533.2798144817352, -333.18020725250244, 0.09600000455975533, -0.04800000227987766, 1.008000047877431, 0.0, 0.0, 0.0, 0.0, 0.0, 1.7063890331140673E9, 0.0, 2024-01-27 15:57:13.114
21.0, -649.8450163006783, -584.0227770805359, -473.4414151906967, -395.8908497095108, 0.09600000455975533, -0.04800000227987766, 1.008000047877431, 0.0, 0.0, 0.0, 0.0, 0.0, 1.7063890331140673E9, 0.0, 2024-01-27 15:57:13.114
22.0, -539.0243008136749, -578.7569979429245, -497.85548210144043, -338.685339987278, 0.09600000455975533, -0.04800000227987766, 1.008000047877431, 0.0, 0.0, 0.0, 0.0, 0.0, 1.7063890331147056E9, 0.0, 2024-01-27 15:57:13.114
22.0, -524.1843777894974, -589.0492026209831, -517.9611842632294, -298.9526428580284, 0.09600000455975533, -0.04800000227987766, 1.008000047877431, 0.0, 0.0, 0.0, 0.0, 0.0, 1.7063890331147056E9, 0.0, 2024-01-27 15:57:13.114
23.0, -634.5263860821724, -578.9963515400887, -483.25491267442703, -376.024501144886, 0.09600000455975533, -0.04800000227987766, 1.008000047877431, 0.0, 0.0, 0.0, 0.0, 0.0, 1.706389033128447E9, 0.0, 2024-01-27 15:57:13.128
23.0, -579.7144123315811, -568.9435004591942, -482.05814468860626, -369.08324682712555, 0.09600000455975533, -0.04800000227987766, 1.008000047877431, 0.0, 0.0, 0.0, 0.0, 0.0, 1.706389033128447E9, 0.0, 2024-01-27 15:57:13.128
24.0, -503.360614836216, -581.6292411088943, -522.2695490121841, -296.55910688638687, 0.09600000455975533, -0.04800000227987766, 1.008000047877431, 0.0, 0.0, 0.0, 0.0, 0.0, 1.7063890331602116E9, 0.0, 2024-01-27 15:57:13.160
24.0, -601.0168824791908, -579.475058734417, -490.91422778367996, -336.5311576128006, 0.09600000455975533, -0.04800000227987766, 1.008000047877431, 0.0, 0.0, 0.0, 0.0, 0.0, 1.7063890331602116E9, 0.0, 2024-01-27 15:57:13.160
25.0, -613.9419767260551, -571.815743625164, -466.2608072757721, -384.64123064279556, 0.09600000455975533, -0.04800000227987766, 1.008000047877431, 0.0, 0.0, 0.0, 0.0, 0.0, 1.7063890331609273E9, 0.0, 2024-01-27 15:57:13.160
25.0, -498.33418929576874, -578.9963515400887, -510.30186915397644, -311.3990299105644, 0.09600000455975533, -0.04800000227987766, 1.008000047877431, 0.0, 0.0, 0.0, 0.0, 0.0, 1.7063890331609273E9, 0.0, 2024-01-27 15:57:13.160
26.0, -557.2151741981506, -582.8260090947151, -508.62639397382736, -310.4416155219078, 0.09600000455975533, -0.04800000227987766, 1.008000047877431, 0.0, 0.0, 0.0, 0.0, 0.0, 1.7063890331617098E9, 0.0, 2024-01-27 15:57:13.161
26.0, -636.4412148594856, -568.4647932648659, -464.1066249012947, -384.16252344846725, 0.09600000455975533, -0.04800000227987766, 1.008000047877431, 0.0, 0.0, 0.0, 0.0, 0.0, 1.7063890331617098E9, 0.0, 2024-01-27 15:57:13.161
27.0, -519.1579522490501, -562.2415997385979, -486.36650943756104, -330.54731768369675, 0.09600000455975533, -0.04800000227987766, 1.008000047877431, 0.0, 0.0, 0.0, 0.0, 0.0, 1.7063890331624615E9, 0.0, 2024-01-27 15:57:13.162
27.0, -501.92449325323105, -570.8583292365074, -501.44578605890274, -289.85720616579056, 0.09600000455975533, -0.04800000227987766, 1.008000047877431, 0.0, 0.0, 0.0, 0.0, 0.0, 1.7063890331624615E9, 0.0, 2024-01-27 15:57:13.162
28.0, -614.4206839203835, -557.4545277953148, -461.23438173532486, -356.3975061774254, 0.09600000455975533, -0.04800000227987766, 1.008000047877431, 0.0, 0.0, 0.0, 0.0, 0.0, 1.706389033173278E9, 0.0, 2024-01-27 15:57:13.173
28.0, -552.6674558520317, -547.6410303115845, -460.5163209438324, -351.131727039814, 0.09600000455975533, -0.04800000227987766, 1.008000047877431, 0.0, 0.0, 0.0, 0.0, 0.0, 1.706389033173278E9, 0.0, 2024-01-27 15:57:13.173
29.0, -464.34597849845886, -552.9068094491959, -493.06841015815735, -276.6927583217621, 0.09600000455975533, -0.04800000227987766, 1.008000047877431, 0.0, 0.0, 0.0, 0.0, 0.0, 1.706389033188231E9, 0.0, 2024-01-27 15:57:13.188
29.0, -576.363461971283, -550.2739198803902, -469.61175763607025, -324.0847705602646, 0.09600000455975533, -0.04800000227987766, 1.008000047877431, 0.0, 0.0, 0.0, 0.0, 0.0, 1.706389033188231E9, 0.0, 2024-01-27 15:57:13.188
30.0, -584.2621306777, -544.7687871456146, -445.915751516819, -366.689710855484, 0.09600000455975533, -0.04800000227987766, 1.008000047877431, 0.0, 0.0, 0.0, 0.0, 0.0, 1.7063890332039745E9, 0.0, 2024-01-27 15:57:13.203
30.0, -469.13305044174194, -543.5720191597939, -485.16974145174026, -286.5062558054924, 0.09600000455975533, -0.04800000227987766, 1.008000047877431, 0.0, 0.0, 0.0, 0.0, 0.0, 1.7063890332039745E9, 0.0, 2024-01-27 15:57:13.203
31.0, -523.2269634008408, -551.2313342690468, -479.42525511980057, -291.2933277487755, 0.09600000455975533, -0.03200000151991844, 1.008000047877431, 0.0, 0.0, 0.0, 0.0, 0.0, 1.7063890332046132E9, 0.0, 2024-01-27 15:57:13.204
31.0, -608.9155511856079, -539.5030080080032, -437.5383756160736, -359.74845653772354, 0.09600000455975533, -0.03200000151991844, 1.008000047877431, 0.0, 0.0, 0.0, 0.0, 0.0, 1.7063890332046132E9, 0.0, 2024-01-27 15:57:13.204
32.0, -491.6322885751724, -536.1520576477051, -462.6705033183098, -313.79256588220596, 0.09600000455975533, -0.03200000151991844, 1.008000047877431, 0.0, 0.0, 0.0, 0.0, 0.0, 1.70638903321811E9, 0.0, 2024-01-27 15:57:13.218
32.0, -484.9303878545761, -550.2739198803902, -490.91422778367996, -271.4269791841507, 0.09600000455975533, -0.03200000151991844, 1.008000047877431, 0.0, 0.0, 0.0, 0.0, 0.0, 1.70638903321811E9, 0.0, 2024-01-27 15:57:13.218
33.0, -595.2723961472511, -539.5030080080032, -448.30928748846054, -343.47241193056107, 0.09600000455975533, -0.03200000151991844, 1.008000047877431, 0.0, 0.0, 0.0, 0.0, 0.0, 1.7063890332340057E9, 0.0, 2024-01-27 15:57:13.234
33.0, -540.699775993824, -538.5455936193466, -451.6602378487587, -342.7543511390686, 0.09600000455975533, -0.03200000151991844, 1.008000047877431, 0.0, 0.0, 0.0, 0.0, 0.0, 1.7063890332340057E9, 0.0, 2024-01-27 15:57:13.234
34.0, -450.4634698629379, -540.4604223966599, -472.9627079963684, -251.5606306195259, 0.09600000455975533, -0.03200000151991844, 1.008000047877431, 0.0, 0.0, 0.0, 0.0, 0.0, 1.7063890332346213E9, 0.0, 2024-01-27 15:57:13.234
34.0, -560.0874173641205, -533.7585216760635, -447.83058029413223, -298.4739356637001, 0.09600000455975533, -0.03200000151991844, 1.008000047877431, 0.0, 0.0, 0.0, 0.0, 0.0, 1.7063890332346213E9, 0.0, 2024-01-27 15:57:13.234
35.0, -575.1666939854622, -522.7482562065125, -429.40035331249237, -346.10530149936676, 0.09600000455975533, -0.03200000151991844, 1.008000047877431, 0.0, 0.0, 0.0, 0.0, 0.0, 1.7063890332483404E9, 0.0, 2024-01-27 15:57:13.248
35.0, -468.65434324741364, -540.4604223966599, -475.35624396800995, -277.6501727104187, 0.09600000455975533, -0.03200000151991844, 1.008000047877431, 0.0, 0.0, 0.0, 0.0, 0.0, 1.7063890332483404E9, 0.0, 2024-01-27 15:57:13.248
36.0, -526.3385601639748, -543.811372756958, -471.5265864133835, -275.4959903359413, 0.09600000455975533, -0.03200000151991844, 1.008000047877431, 0.0, 0.0, 0.0, 0.0, 0.0, 1.706389033263965E9, 0.0, 2024-01-27 15:57:13.263
36.0, -600.2988216876984, -530.4075713157654, -423.8952205777168, -348.4988374710083, 0.09600000455975533, -0.03200000151991844, 1.008000047877431, 0.0, 0.0, 0.0, 0.0, 0.0, 1.706389033263965E9, 0.0, 2024-01-27 15:57:13.263
37.0, -490.6748741865158, -530.6469249129295, -450.7028234601021, -293.44751012325287, 0.09600000455975533, -0.03200000151991844, 1.008000047877431, 0.0, 0.0, 0.0, 0.0, 0.0, 1.7063890332645724E9, 0.0, 2024-01-27 15:57:13.264
37.0, -474.87753677368164, -532.0830464959145, -470.3298184275627, -255.15093457698822, 0.09600000455975533, -0.03200000151991844, 1.008000047877431, 0.0, 0.0, 0.0, 0.0, 0.0, 1.7063890332645724E9, 0.0, 2024-01-27 15:57:13.264
38.0, -587.6130810379982, -523.7056705951691, -438.25643640756607, -327.6750745177269, 0.09600000455975533, -0.03200000151991844, 1.008000047877431, 0.0, 0.0, 0.0, 0.0, 0.0, 1.7063890332781155E9, 0.0, 2024-01-27 15:57:13.278
38.0, -522.2695490121841, -518.6792450547218, -432.7513036727905, -324.5634777545929, 0.09600000455975533, -0.03200000151991844, 1.008000047877431, 0.0, 0.0, 0.0, 0.0, 0.0, 1.7063890332781155E9, 0.0, 2024-01-27 15:57:13.278
39.0, -439.2138507962227, -521.7908418178558, -466.50016087293625, -245.57679069042206, 0.09600000455975533, -0.03200000151991844, 1.008000047877431, 0.0, 0.0, 0.0, 0.0, 0.0, 1.7063890332941465E9, 0.0, 2024-01-27 15:57:13.294
39.0, -539.9817152023315, -519.8760130405426, -438.0170828104019, -296.3197532892227, 0.09600000455975533, -0.03200000151991844, 1.008000047877431, 0.0, 0.0, 0.0, 0.0, 0.0, 1.7063890332941465E9, 0.0, 2024-01-27 15:57:13.294
40.0, -554.3429310321808, -505.51479721069336, -412.88495510816574, -331.02602487802505, 0.09600000455975533, -0.03200000151991844, 0.9920000471174717, 0.0, 0.0, 0.0, 0.0, 0.0, 1.706389033294633E9, 0.0, 2024-01-27 15:57:13.294
40.0, -438.7351436018944, -513.1741123199463, -451.42088425159454, -258.02317774295807, 0.09600000455975533, -0.03200000151991844, 0.9920000471174717, 0.0, 0.0, 0.0, 0.0, 0.0, 1.706389033294633E9, 0.0, 2024-01-27 15:57:13.294
41.0, -496.8980677127838, -516.7644162774086, -448.5486410856247, -255.62964177131653, 0.09600000455975533, -0.04800000227987766, 0.9920000471174717, 0.0, 0.0, 0.0, 0.0, 0.0, 1.7063890333085575E9, 0.0, 2024-01-27 15:57:13.308
41.0, -579.7144123315811, -505.2754436135292, -409.5340047478676, -333.8982680439949, 0.09600000455975533, -0.04800000227987766, 0.9920000471174717, 0.0, 0.0, 0.0, 0.0, 0.0, 1.7063890333085575E9, 0.0, 2024-01-27 15:57:13.308
42.0, -468.4149896502495, -504.3180292248726, -426.5281101465225, -274.0598687529564, 0.09600000455975533, -0.04800000227987766, 0.9920000471174717, 0.0, 0.0, 0.0, 0.0, 0.0, 1.7063890333238933E9, 0.0, 2024-01-27 15:57:13.323
42.0, -457.8834313750267, -511.4986371397972, -453.0963594317436, -235.76329320669174, 0.09600000455975533, -0.04800000227987766, 0.9920000471174717, 0.0, 0.0, 0.0, 0.0, 0.0, 1.7063890333238933E9, 0.0, 2024-01-27 15:57:13.323
43.0, -564.6351357102394, -504.7967364192009, -411.4488335251808, -309.24484753608704, 0.09600000455975533, -0.04800000227987766, 0.9920000471174717, 0.0, 0.0, 0.0, 0.0, 0.0, 1.7063890333247533E9, 0.0, 2024-01-27 15:57:13.324
43.0, -505.99350440502167, -498.81289649009705, -417.6720270514488, -310.4416155219078, 0.09600000455975533, -0.04800000227987766, 0.9920000471174717, 0.0, 0.0, 0.0, 0.0, 0.0, 1.7063890333247533E9, 0.0, 2024-01-27 15:57:13.324
44.0, -428.44293892383575, -504.7967364192009, -451.6602378487587, -235.28458601236343, 0.09600000455975533, -0.04800000227987766, 0.9920000471174717, 0.0, 0.0, 0.0, 0.0, 0.0, 1.7063890333384387E9, 0.0, 2024-01-27 15:57:13.338
44.0, -529.4501569271088, -506.47221159935, -427.7248781323433, -277.88952630758286, 0.09600000455975533, -0.04800000227987766, 0.9920000471174717, 0.0, 0.0, 0.0, 0.0, 0.0, 1.7063890333384387E9, 0.0, 2024-01-27 15:57:13.338
45.0, -543.3326655626297, -497.85548210144043, -398.28438568115234, -324.5634777545929, 0.09600000455975533, -0.04800000227987766, 0.9920000471174717, 0.0, 0.0, 0.0, 0.0, 0.0, 1.7063890333538463E9, 0.0, 2024-01-27 15:57:13.353
45.0, -427.96423172950745, -496.8980677127838, -437.0596684217453, -243.66196191310883, 0.09600000455975533, -0.04800000227987766, 0.9920000471174717, 0.0, 0.0, 0.0, 0.0, 0.0, 1.7063890333538463E9, 0.0, 2024-01-27 15:57:13.353
46.0, -480.3826695084572, -502.88190764188766, -434.4267788529396, -244.8587298989296, 0.09600000455975533, -0.04800000227987766, 0.9920000471174717, 0.0, 0.0, 0.0, 0.0, 0.0, 1.7063890333545642E9, 0.0, 2024-01-27 15:57:13.354
46.0, -557.9332349896431, -486.6058630347252, -388.94959539175034, -314.98933386802673, 0.09600000455975533, -0.04800000227987766, 0.9920000471174717, 0.0, 0.0, 0.0, 0.0, 0.0, 1.7063890333545642E9, 0.0, 2024-01-27 15:57:13.354
47.0, -450.4634698629379, -484.69103425741196, -413.84236949682236, -262.81024968624115, 0.09600000455975533, -0.04800000227987766, 0.9920000471174717, 0.0, 0.0, 0.0, 0.0, 0.0, 1.7063890333681061E9, 0.0, 2024-01-27 15:57:13.368
47.0, -431.3151820898056, -484.9303878545761, -430.357767701149, -212.78534787893295, 0.09600000455975533, -0.04800000227987766, 0.9920000471174717, 0.0, 0.0, 0.0, 0.0, 0.0, 1.7063890333681061E9, 0.0, 2024-01-27 15:57:13.368
48.0, -548.5984447002411, -482.2974982857704, -391.8218385577202, -285.78819501399994, 0.09600000455975533, -0.04800000227987766, 0.9920000471174717, 0.0, 0.0, 0.0, 0.0, 0.0, 1.706389033383828E9, 0.0, 2024-01-27 15:57:13.383
48.0, -476.5530119538307, -469.3724040389061, -384.16252344846725, -276.93211191892624, 0.09600000455975533, -0.04800000227987766, 0.9920000471174717, 0.0, 0.0, 0.0, 0.0, 0.0, 1.706389033383828E9, 0.0, 2024-01-27 15:57:13.383
49.0, -398.5237392783165, -481.57943749427795, -420.06556302309036, -202.97185039520264, 0.09600000455975533, -0.04800000227987766, 0.9920000471174717, 0.0, 0.0, 0.0, 0.0, 0.0, 1.7063890333845346E9, 0.0, 2024-01-27 15:57:13.384
49.0, -499.29160368442535, -470.3298184275627, -393.49731373786926, -250.12450903654099, 0.09600000455975533, -0.04800000227987766, 0.9920000471174717, 0.0, 0.0, 0.0, 0.0, 0.0, 1.7063890333845346E9, 0.0, 2024-01-27 15:57:13.384
50.0, -511.25928354263306, -467.2182216644287, -376.7425619363785, -295.8410460948944, 0.09600000455975533, -0.04800000227987766, 1.008000047877431, 0.0, 0.0, 0.0, 0.0, 0.0, 1.7063890333984125E9, 0.0, 2024-01-27 15:57:13.398
50.0, -393.01860654354095, -468.65434324741364, -408.57659035921097, -220.9233701825142, 0.09600000455975533, -0.04800000227987766, 1.008000047877431, 0.0, 0.0, 0.0, 0.0, 0.0, 1.7063890333984125E9, 0.0, 2024-01-27 15:57:13.398
51.0, -447.5912266969681, -471.76594001054764, -411.4488335251808, -225.23173493146896, 0.09600000455975533, -0.03200000151991844, 1.008000047877431, 0.0, 0.0, 0.0, 0.0, 0.0, 1.7063890334138443E9, 0.0, 2024-01-27 15:57:13.413
51.0, -528.0140353441238, -458.362138569355, -369.3226004242897, -296.798460483551, 0.09600000455975533, -0.03200000151991844, 1.008000047877431, 0.0, 0.0, 0.0, 0.0, 0.0, 1.7063890334138443E9, 0.0, 2024-01-27 15:57:13.413
52.0, -415.51784467697144, -462.6705033183098, -396.13020330667496, -246.29485148191452, 0.09600000455975533, -0.03200000151991844, 1.008000047877431, 0.0, 0.0, 0.0, 0.0, 0.0, 1.7063890334145737E9, 0.0, 2024-01-27 15:57:13.414
52.0, -415.0391374826431, -479.42525511980057, -423.6558669805527, -210.87051910161972, 0.09600000455975533, -0.03200000151991844, 1.008000047877431, 0.0, 0.0, 0.0, 0.0, 0.0, 1.7063890334145737E9, 0.0, 2024-01-27 15:57:13.414
53.0, -536.1520576477051, -470.56917202472687, -383.4444626569748, -290.33591336011887, 0.09600000455975533, -0.03200000151991844, 1.008000047877431, 0.0, 0.0, 0.0, 0.0, 0.0, 1.7063890334282157E9, 0.0, 2024-01-27 15:57:13.428
53.0, -472.72335439920425, -467.45757526159286, -387.9921810030937, -284.11271983385086, 0.09600000455975533, -0.03200000151991844, 1.008000047877431, 0.0, 0.0, 0.0, 0.0, 0.0, 1.7063890334282157E9, 0.0, 2024-01-27 15:57:13.428
54.0, -388.7102417945862, -475.1168903708458, -426.5281101465225, -211.58857989311218, 0.09600000455975533, -0.03200000151991844, 1.008000047877431, 0.0, 0.0, 0.0, 0.0, 0.0, 1.706389033443972E9, 0.0, 2024-01-27 15:57:13.443
54.0, -495.4619461297989, -466.02145367860794, -392.53989934921265, -254.43287378549576, 0.09600000455975533, -0.03200000151991844, 1.008000047877431, 0.0, 0.0, 0.0, 0.0, 0.0, 1.706389033443972E9, 0.0, 2024-01-27 15:57:13.443
55.0, -497.13742130994797, -455.01118820905685, -366.92906445264816, -291.0539741516113, 0.09600000455975533, -0.03200000151991844, 1.008000047877431, 0.0, 0.0, 0.0, 0.0, 0.0, 1.7063890334445758E9, 0.0, 2024-01-27 15:57:13.444
55.0, -382.4870482683182, -462.6705033183098, -408.57659035921097, -222.59884536266327, 0.09600000455975533, -0.03200000151991844, 1.008000047877431, 0.0, 0.0, 0.0, 0.0, 0.0, 1.7063890334445758E9, 0.0, 2024-01-27 15:57:13.444
56.0, -443.7615691423416, -462.1917961239815, -404.02887201309204, -224.9923813343048, 0.09600000455975533, -0.03200000151991844, 1.008000047877431, 0.0, 0.0, 0.0, 0.0, 0.0, 1.706389033458177E9, 0.0, 2024-01-27 15:57:13.458
56.0, -527.2959745526314, -455.96860259771347, -367.40777164697647, -293.2081565260887, 0.09600000455975533, -0.03200000151991844, 1.008000047877431, 0.0, 0.0, 0.0, 0.0, 0.0, 1.706389033458177E9, 0.0, 2024-01-27 15:57:13.458
57.0, -416.95396625995636, -457.64407777786255, -396.60891050100327, -250.6032162308693, 0.09600000455975533, -0.03200000151991844, 1.008000047877431, 0.0, 0.0, 0.0, 0.0, 0.0, 1.7063890334741156E9, 0.0, 2024-01-27 15:57:13.474
57.0, -405.2256399989128, -465.7821000814438, -415.51784467697144, -207.51956874132156, 0.09600000455975533, -0.03200000151991844, 1.008000047877431, 0.0, 0.0, 0.0, 0.0, 0.0, 1.7063890334741156E9, 0.0, 2024-01-27 15:57:13.474
58.0, -518.918598651886, -459.3195529580116, -372.912904381752, -279.3256478905678, 0.09600000455975533, -0.03200000151991844, 1.008000047877431, 0.0, 0.0, 0.0, 0.0, 0.0, 1.7063890334747128E9, 0.0, 2024-01-27 15:57:13.474
58.0, -451.1815306544304, -448.5486410856247, -373.15225797891617, -271.4269791841507, 0.09600000455975533, -0.03200000151991844, 1.008000047877431, 0.0, 0.0, 0.0, 0.0, 0.0, 1.7063890334747128E9, 0.0, 2024-01-27 15:57:13.474
59.0, -379.13609790802, -462.90985691547394, -415.99655187129974, -200.33896082639694, 0.09600000455975533, -0.03200000151991844, 1.008000047877431, 0.0, 0.0, 0.0, 0.0, 0.0, 1.706389033488174E9, 0.0, 2024-01-27 15:57:13.488
59.0, -489.2387526035309, -462.6705033183098, -388.2315346002579, -250.12450903654099, 0.09600000455975533, -0.03200000151991844, 1.008000047877431, 0.0, 0.0, 0.0, 0.0, 0.0, 1.706389033488174E9, 0.0, 2024-01-27 15:57:13.488
60.0, -501.2064324617386, -451.1815306544304, -362.86005330085754, -291.53268134593964, 0.09600000455975533, -0.03200000151991844, 1.008000047877431, 0.0, 0.0, 0.0, 0.0, 0.0, 1.706389033503809E9, 0.0, 2024-01-27 15:57:13.503
60.0, -390.1463633775711, -462.90985691547394, -404.02887201309204, -216.61500543355942, 0.09600000455975533, -0.03200000151991844, 1.008000047877431, 0.0, 0.0, 0.0, 0.0, 0.0, 1.706389033503809E9, 0.0, 2024-01-27 15:57:13.503
61.0, -448.30928748846054, -468.8936968445778, -402.83210402727127, -220.44466298818588, 0.09600000455975533, -0.03200000151991844, 1.008000047877431, 0.0, 0.0, 0.0, 0.0, 0.0, 1.7063890335045447E9, 0.0, 2024-01-27 15:57:13.504
61.0, -534.7159360647202, -465.54274648427963, -375.5457939505577, -301.5855324268341, 0.09600000455975533, -0.03200000151991844, 1.008000047877431, 0.0, 0.0, 0.0, 0.0, 0.0, 1.7063890335045447E9, 0.0, 2024-01-27 15:57:13.504
62.0, -421.26233100891113, -463.86727130413055, -403.3108112215996, -255.15093457698822, 0.09600000455975533, -0.03200000151991844, 1.008000047877431, 0.0, 0.0, 0.0, 0.0, 0.0, 1.7063890335184977E9, 0.0, 2024-01-27 15:57:13.518
62.0, -419.58685582876205, -476.31365835666656, -422.4590989947319, -213.98211586475372, 0.09600000455975533, -0.03200000151991844, 1.008000047877431, 0.0, 0.0, 0.0, 0.0, 0.0, 1.7063890335184977E9, 0.0, 2024-01-27 15:57:13.518
63.0, -528.7320961356163, -466.2608072757721, -389.1889489889145, -287.70302379131317, 0.09600000455975533, -0.03200000151991844, 1.008000047877431, 0.0, 0.0, 0.0, 0.0, 0.0, 1.7063890335340197E9, 0.0, 2024-01-27 15:57:13.534
63.0, -466.97886806726456, -461.23438173532486, -385.5986450314522, -284.8307806253433, 0.09600000455975533, -0.03200000151991844, 1.008000047877431, 0.0, 0.0, 0.0, 0.0, 0.0, 1.7063890335340197E9, 0.0, 2024-01-27 15:57:13.534
64.0, -386.0773522257805, -469.13305044174194, -427.96423172950745, -212.0672870874405, 0.09600000455975533, -0.03200000151991844, 1.008000047877431, 0.0, 0.0, 0.0, 0.0, 0.0, 1.7063890335346E9, 0.0, 2024-01-27 15:57:13.534
64.0, -497.85548210144043, -470.3298184275627, -393.97602093219757, -261.6134817004204, 0.09600000455975533, -0.03200000151991844, 1.008000047877431, 0.0, 0.0, 0.0, 0.0, 0.0, 1.7063890335346E9, 0.0, 2024-01-27 15:57:13.534
65.0, -504.07867562770844, -459.79826015233994, -368.3651860356331, -296.3197532892227, 0.09600000455975533, -0.03200000151991844, 1.008000047877431, 0.0, 0.0, 0.0, 0.0, 0.0, 1.706389033548202E9, 0.0, 2024-01-27 15:57:13.548
65.0, -391.8218385577202, -466.97886806726456, -411.68818712234497, -225.71044212579727, 0.09600000455975533, -0.03200000151991844, 1.008000047877431, 0.0, 0.0, 0.0, 0.0, 0.0, 1.706389033548202E9, 0.0, 2024-01-27 15:57:13.548
