%OpenBCI Raw EXG Data
%Number of channels = 4
%Sample Rate = 200 Hz
%Board = OpenBCI_GUI$BoardGanglionBLE
Sample Index, EXG Channel 0, EXG Channel 1, EXG Channel 2, EXG Channel 3, Accel Channel 0, Accel Channel 1, Accel Channel 2, Other, Other, Other, Other, Other, Timestamp, Other, Timestamp (Formatted)
0.0, -348.02013027668, -325.28153854608536, -218.52983421087265, -124.70322412252426, 0.0, 0.0, 0.9920000471174717, 0.0, 0.0, 0.0, 0.0, 0.0, 1.7063900350412183E9, 0.0, 2024-01-27 16:13:55.041
0.0, -304.6971291899681, -348.4988374710083, -261.13477450609207, -68.93383598327637, 0.0, 0.0, 0.9920000471174717, 0.0, 0.0, 0.0, 0.0, 0.0, 1.7063900350412183E9, 0.0, 2024-01-27 16:13:55.041
1.0, -402.83210402727127, -336.29180401563644, -235.28458601236343, -122.30968815088272, 0.0, -0.9920000471174717, 0.9920000471174717, 0.0, 0.0, 0.0, 0.0, 0.0, 1.7063900350558708E9, 0.0, 2024-01-27 16:13:55.055
1.0, -389.42830258607864, -328.6324889063835, -216.37565183639526, -151.51082700490952, 0.0, -0.9920000471174717, 0.9920000471174717, 0.0, 0.0, 0.0, 0.0, 0.0, 1.7063900350558708E9, 0.0, 2024-01-27 16:13:55.055
2.0, -295.12298530340195, -340.83952236175537, -251.0819234251976, -79.46539425849915, -0.9920000471174717, -0.9920000471174717, 0.9920000471174717, 0.0, 0.0, 0.0, 0.0, 0.0, 1.7063900350702994E9, 0.0, 2024-01-27 16:13:55.070
2.0, -360.9452245235443, -337.4885720014572, -246.05549788475037, -90.23630613088608, -0.9920000471174717, -0.9920000471174717, 0.9920000471174717, 0.0, 0.0, 0.0, 0.0, 0.0, 1.7063900350702994E9, 0.0, 2024-01-27 16:13:55.070
3.0, -411.9275407195091, -320.01575940847397, -199.86025363206863, -148.63858383893967, -0.9920000471174717, -0.9920000471174717, 0.9920000471174717, 0.0, 0.0, 0.0, 0.0, 0.0, 1.706390035071041E9, 0.0, 2024-01-27 16:13:55.071
3.0, -310.68096911907196, -335.81309682130814, -228.34333169460297, -92.15113490819931, -0.9920000471174717, -0.9920000471174717, 0.9920000471174717, 0.0, 0.0, 0.0, 0.0, 0.0, 1.706390035071041E9, 0.0, 2024-01-27 16:13:55.071
4.0, -325.5208921432495, -342.03629034757614, -252.75739860534668, -74.19961512088776, -0.9920000471174717, -0.9920000471174717, 0.9920000471174717, 0.0, 0.0, 0.0, 0.0, 0.0, 1.7063900350847864E9, 0.0, 2024-01-27 16:13:55.084
4.0, -415.51784467697144, -321.69123458862305, -206.56215435266495, -141.93668311834335, -0.9920000471174717, -0.9920000471174717, 0.9920000471174717, 0.0, 0.0, 0.0, 0.0, 0.0, 1.7063900350847864E9, 0.0, 2024-01-27 16:13:55.084
5.0, -343.9511191248894, -322.4092953801155, -215.1788838505745, -121.83098095655441, -0.9920000471174717, -0.9920000471174717, 0.9920000471174717, 0.0, 0.0, 0.0, 0.0, 0.0, 1.7063900351005192E9, 0.0, 2024-01-27 16:13:55.100
5.0, -302.0642396211624, -350.6530198454857, -254.43287378549576, -66.30094641447067, -0.9920000471174717, -0.9920000471174717, 0.9920000471174717, 0.0, 0.0, 0.0, 0.0, 0.0, 1.7063900351005192E9, 0.0, 2024-01-27 16:13:55.100
6.0, -389.42830258607864, -328.87184250354767, -218.2904806137085, -110.82071548700333, -0.9920000471174717, -0.9920000471174717, 0.9920000471174717, 0.0, 0.0, 0.0, 0.0, 0.0, 1.706390035101076E9, 0.0, 2024-01-27 16:13:55.101
6.0, -376.5032083392143, -316.1861018538475, -200.5783144235611, -138.5857327580452, -0.9920000471174717, -0.9920000471174717, 0.9920000471174717, 0.0, 0.0, 0.0, 0.0, 0.0, 1.706390035101076E9, 0.0, 2024-01-27 16:13:55.101
7.0, -287.22431659698486, -335.573743224144, -246.53420507907867, -74.19961512088776, -0.9920000471174717, -0.9920000471174717, 0.9920000471174717, 0.0, 0.0, 0.0, 0.0, 0.0, 1.706390035114902E9, 0.0, 2024-01-27 16:13:55.114
7.0, -352.0891414284706, -331.50473207235336, -238.87488996982574, -88.80018454790115, -0.9920000471174717, -0.9920000471174717, 0.9920000471174717, 0.0, 0.0, 0.0, 0.0, 0.0, 1.706390035114902E9, 0.0, 2024-01-27 16:13:55.114
8.0, -405.7043471932411, -315.46804106235504, -200.5783144235611, -148.87793743610382, -0.9920000471174717, -0.9920000471174717, 0.9920000471174717, 0.0, 0.0, 0.0, 0.0, 0.0, 1.7063900351305485E9, 0.0, 2024-01-27 16:13:55.130
8.0, -304.2184219956398, -330.54731768369675, -224.27432054281235, -94.3053172826767, -0.9920000471174717, -0.9920000471174717, 0.9920000471174717, 0.0, 0.0, 0.0, 0.0, 0.0, 1.7063900351305485E9, 0.0, 2024-01-27 16:13:55.130
9.0, -321.21252739429474, -341.55758315324783, -248.92774105072021, -73.4815543293953, -0.9920000471174717, -0.9920000471174717, 0.9920000471174717, 0.0, 0.0, 0.0, 0.0, 0.0, 1.7063900351312284E9, 0.0, 2024-01-27 16:13:55.131
9.0, -404.2682256102562, -311.87773710489273, -199.14219284057617, -130.44771045446396, -0.9920000471174717, -0.9920000471174717, 0.9920000471174717, 0.0, 0.0, 0.0, 0.0, 0.0, 1.7063900351312284E9, 0.0, 2024-01-27 16:13:55.131
10.0, -342.7543511390686, -320.2551130056381, -207.51956874132156, -118.2406769990921, -0.9920000471174717, -0.9920000471174717, 0.5280000250786543, 0.0, 0.0, 0.0, 0.0, 0.0, 1.7063900351446085E9, 0.0, 2024-01-27 16:13:55.144
10.0, -296.55910688638687, -340.1214615702629, -250.84256982803345, -64.38611763715744, -0.9920000471174717, -0.9920000471174717, 0.5280000250786543, 0.0, 0.0, 0.0, 0.0, 0.0, 1.7063900351446085E9, 0.0, 2024-01-27 16:13:55.144
11.0, -399.24180006980896, -327.91442811489105, -224.9923813343048, -112.73554426431656, -0.9920000471174717, -0.5280000250786543, 0.5280000250786543, 0.0, 0.0, 0.0, 0.0, 0.0, 1.706390035160554E9, 0.0, 2024-01-27 16:13:55.160
11.0, -380.3328658938408, -317.6222234368324, -205.12603276968002, -140.02185434103012, -0.9920000471174717, -0.5280000250786543, 0.5280000250786543, 0.0, 0.0, 0.0, 0.0, 0.0, 1.706390035160554E9, 0.0, 2024-01-27 16:13:55.160
12.0, -295.3623389005661, -342.51499754190445, -246.29485148191452, -74.43896871805191, -0.5280000250786543, -0.5280000250786543, 0.5280000250786543, 0.0, 0.0, 0.0, 0.0, 0.0, 1.7063900351611655E9, 0.0, 2024-01-27 16:13:55.161
12.0, -358.3123349547386, -342.7543511390686, -242.7045475244522, -94.3053172826767, -0.5280000250786543, -0.5280000250786543, 0.5280000250786543, 0.0, 0.0, 0.0, 0.0, 0.0, 1.7063900351611655E9, 0.0, 2024-01-27 16:13:55.161
13.0, -402.83210402727127, -318.3402842283249, -202.73249679803848, -150.5534126162529, -0.5280000250786543, -0.5280000250786543, 0.5280000250786543, 0.0, 0.0, 0.0, 0.0, 0.0, 1.7063900351746557E9, 0.0, 2024-01-27 16:13:55.174
13.0, -312.35644429922104, -331.98343926668167, -231.69428205490112, -99.33174282312393, -0.5280000250786543, -0.5280000250786543, 0.5280000250786543, 0.0, 0.0, 0.0, 0.0, 0.0, 1.7063900351746557E9, 0.0, 2024-01-27 16:13:55.174
14.0, -320.73382019996643, -337.9672791957855, -242.2258403301239, -67.01900720596313, -0.5280000250786543, -0.5280000250786543, 0.5280000250786543, 0.0, 0.0, 0.0, 0.0, 0.0, 1.7063900351903677E9, 0.0, 2024-01-27 16:13:55.190
14.0, -414.799783885479, -326.95701372623444, -213.98211586475372, -136.67090398073196, -0.5280000250786543, -0.5280000250786543, 0.5280000250786543, 0.0, 0.0, 0.0, 0.0, 0.0, 1.7063900351903677E9, 0.0, 2024-01-27 16:13:55.190
15.0, -345.8659479022026, -324.0847705602646, -212.78534787893295, -118.71938419342041, -0.5280000250786543, -0.5280000250786543, 0.5280000250786543, 0.0, 0.0, 0.0, 0.0, 0.0, 1.7063900351911E9, 0.0, 2024-01-27 16:13:55.191
15.0, -297.75587487220764, -342.99370473623276, -250.36386263370514, -66.54030001163483, -0.5280000250786543, -0.5280000250786543, 0.5280000250786543, 0.0, 0.0, 0.0, 0.0, 0.0, 1.7063900351911E9, 0.0, 2024-01-27 16:13:55.191
16.0, -389.42830258607864, -321.9305881857872, -224.75302773714066, -119.19809138774872, -0.5280000250786543, -0.5280000250786543, 0.5280000250786543, 0.0, 0.0, 0.0, 0.0, 0.0, 1.706390035205037E9, 0.0, 2024-01-27 16:13:55.205
16.0, -374.82773315906525, -314.7499802708626, -205.60473996400833, -145.04827988147736, -0.5280000250786543, -0.5280000250786543, 0.5280000250786543, 0.0, 0.0, 0.0, 0.0, 0.0, 1.706390035205037E9, 0.0, 2024-01-27 16:13:55.205
17.0, -288.42108458280563, -336.29180401563644, -243.66196191310883, -76.83250468969345, -0.5280000250786543, -0.5280000250786543, 0.5280000250786543, 0.0, 0.0, 0.0, 0.0, 0.0, 1.7063900352206087E9, 0.0, 2024-01-27 16:13:55.220
17.0, -350.6530198454857, -331.50473207235336, -240.78971874713898, -88.560830950737, -0.5280000250786543, -0.5280000250786543, 0.5280000250786543, 0.0, 0.0, 0.0, 0.0, 0.0, 1.7063900352206087E9, 0.0, 2024-01-27 16:13:55.220
18.0, -402.83210402727127, -311.3990299105644, -198.66348564624786, -143.85151189565659, -0.5280000250786543, -0.5280000250786543, 0.5280000250786543, 0.0, 0.0, 0.0, 0.0, 0.0, 1.7063900352212703E9, 0.0, 2024-01-27 16:13:55.221
18.0, -302.7823004126549, -324.0847705602646, -232.17298924922943, -95.26273167133331, -0.5280000250786543, -0.5280000250786543, 0.5280000250786543, 0.0, 0.0, 0.0, 0.0, 0.0, 1.7063900352212703E9, 0.0, 2024-01-27 16:13:55.221
19.0, -315.2286874651909, -331.50473207235336, -240.55036514997482, -61.753228068351746, -0.5280000250786543, -0.5280000250786543, 0.5280000250786543, 0.0, 0.0, 0.0, 0.0, 0.0, 1.7063900352346988E9, 0.0, 2024-01-27 16:13:55.234
19.0, -409.0552975535393, -319.05834501981735, -204.1686183810234, -129.2509424686432, -0.5280000250786543, -0.5280000250786543, 0.5280000250786543, 0.0, 0.0, 0.0, 0.0, 0.0, 1.7063900352346988E9, 0.0, 2024-01-27 16:13:55.234
20.0, -337.24921840429306, -313.5532122850418, -205.84409356117249, -112.4961906671524, -0.5280000250786543, -0.5280000250786543, 0.7520000357180834, 0.0, 0.0, 0.0, 0.0, 0.0, 1.7063900352502964E9, 0.0, 2024-01-27 16:13:55.250
20.0, -293.44751012325287, -336.29180401563644, -248.68838745355606, -58.64163130521774, -0.5280000250786543, -0.5280000250786543, 0.7520000357180834, 0.0, 0.0, 0.0, 0.0, 0.0, 1.7063900352502964E9, 0.0, 2024-01-27 16:13:55.250
21.0, -381.52963387966156, -320.9731737971306, -212.0672870874405, -98.13497483730316, -0.5280000250786543, -0.7520000357180834, 0.7520000357180834, 0.0, 0.0, 0.0, 0.0, 0.0, 1.706390035251017E9, 0.0, 2024-01-27 16:13:55.251
21.0, -373.3916115760803, -311.15967631340027, -197.70607125759125, -130.44771045446396, -0.5280000250786543, -0.7520000357180834, 0.7520000357180834, 0.0, 0.0, 0.0, 0.0, 0.0, 1.706390035251017E9, 0.0, 2024-01-27 16:13:55.251
22.0, -294.16557091474533, -335.0950360298157, -242.46519392728806, -70.8486647605896, -0.7520000357180834, -0.7520000357180834, 0.7520000357180834, 0.0, 0.0, 0.0, 0.0, 0.0, 1.7063900352647233E9, 0.0, 2024-01-27 16:13:55.264
22.0, -358.7910421490669, -336.5311576128006, -238.6355363726616, -84.25246620178223, -0.7520000357180834, -0.7520000357180834, 0.7520000357180834, 0.0, 0.0, 0.0, 0.0, 0.0, 1.7063900352647233E9, 0.0, 2024-01-27 16:13:55.264
23.0, -405.7043471932411, -314.5106266736984, -196.98801046609879, -143.85151189565659, -0.7520000357180834, -0.7520000357180834, 0.7520000357180834, 0.0, 0.0, 0.0, 0.0, 0.0, 1.7063900352803805E9, 0.0, 2024-01-27 16:13:55.280
23.0, -314.27127307653427, -330.7866712808609, -229.06139248609543, -96.22014605998993, -0.7520000357180834, -0.7520000357180834, 0.7520000357180834, 0.0, 0.0, 0.0, 0.0, 0.0, 1.7063900352803805E9, 0.0, 2024-01-27 16:13:55.280
24.0, -326.95701372623444, -348.02013027668, -255.86899536848068, -73.24220073223114, -0.7520000357180834, -0.7520000357180834, 0.7520000357180834, 0.0, 0.0, 0.0, 0.0, 0.0, 1.706390035281135E9, 0.0, 2024-01-27 16:13:55.281
24.0, -419.3475022315979, -328.6324889063835, -209.19504392147064, -135.4741359949112, -0.7520000357180834, -0.7520000357180834, 0.7520000357180834, 0.0, 0.0, 0.0, 0.0, 0.0, 1.706390035281135E9, 0.0, 2024-01-27 16:13:55.281
25.0, -352.8072022199631, -330.7866712808609, -219.48724859952927, -123.50645613670349, -0.7520000357180834, -0.7520000357180834, 0.7520000357180834, 0.0, 0.0, 0.0, 0.0, 0.0, 1.7063900352949307E9, 0.0, 2024-01-27 16:13:55.294
25.0, -308.5267867445946, -355.9187989830971, -256.58705615997314, -75.39638310670853, -0.7520000357180834, -0.7520000357180834, 0.7520000357180834, 0.0, 0.0, 0.0, 0.0, 0.0, 1.7063900352949307E9, 0.0, 2024-01-27 16:13:55.294
26.0, -396.3695569038391, -333.65891444683075, -228.58268529176712, -116.08649462461472, -0.7520000357180834, -0.7520000357180834, 0.7520000357180834, 0.0, 0.0, 0.0, 0.0, 0.0, 1.7063900353102527E9, 0.0, 2024-01-27 16:13:55.310
26.0, -381.7689874768257, -321.4518809914589, -207.75892233848572, -142.1760367155075, -0.7520000357180834, -0.7520000357180834, 0.7520000357180834, 0.0, 0.0, 0.0, 0.0, 0.0, 1.7063900353102527E9, 0.0, 2024-01-27 16:13:55.310
27.0, -292.7294493317604, -339.40340077877045, -248.92774105072021, -73.24220073223114, -0.7520000357180834, -0.7520000357180834, 0.7520000357180834, 0.0, 0.0, 0.0, 0.0, 0.0, 1.7063900353253188E9, 0.0, 2024-01-27 16:13:55.325
27.0, -353.52526301145554, -334.8556824326515, -248.92774105072021, -91.91178131103516, -0.7520000357180834, -0.7520000357180834, 0.7520000357180834, 0.0, 0.0, 0.0, 0.0, 0.0, 1.7063900353253188E9, 0.0, 2024-01-27 16:13:55.325
28.0, -400.6779216527939, -315.2286874651909, -200.33896082639694, -144.56957268714905, -0.7520000357180834, -0.7520000357180834, 0.7520000357180834, 0.0, 0.0, 0.0, 0.0, 0.0, 1.7063900353261485E9, 0.0, 2024-01-27 16:13:55.326
28.0, -313.31385868787766, -334.13762164115906, -228.34333169460297, -94.3053172826767, -0.7520000357180834, -0.7520000357180834, 0.7520000357180834, 0.0, 0.0, 0.0, 0.0, 0.0, 1.7063900353261485E9, 0.0, 2024-01-27 16:13:55.326
29.0, -326.4783065319061, -343.47241193056107, -251.79998421669006, -73.9602615237236, -0.7520000357180834, -0.7520000357180834, 0.7520000357180834, 0.0, 0.0, 0.0, 0.0, 0.0, 1.706390035340826E9, 0.0, 2024-01-27 16:13:55.340
29.0, -418.15073424577713, -319.53705221414566, -209.67375111579895, -137.14961117506027, -0.7520000357180834, -0.7520000357180834, 0.7520000357180834, 0.0, 0.0, 0.0, 0.0, 0.0, 1.706390035340826E9, 0.0, 2024-01-27 16:13:55.340
30.0, -357.8336277604103, -331.02602487802505, -223.07755255699158, -133.55930721759796, -0.7520000357180834, -0.7520000357180834, 0.8800000417977571, 0.0, 0.0, 0.0, 0.0, 0.0, 1.7063900353410518E9, 0.0, 2024-01-27 16:13:55.341
30.0, -309.72355473041534, -350.41366624832153, -260.17736011743546, -69.89125037193298, -0.7520000357180834, -0.7520000357180834, 0.8800000417977571, 0.0, 0.0, 0.0, 0.0, 0.0, 1.7063900353410518E9, 0.0, 2024-01-27 16:13:55.341
31.0, -408.09788316488266, -340.1214615702629, -230.97622126340866, -118.00132340192795, -0.7520000357180834, -0.8800000417977571, 0.8800000417977571, 0.0, 0.0, 0.0, 0.0, 0.0, 1.7063900353547876E9, 0.0, 2024-01-27 16:13:55.354
31.0, -394.2153745293617, -327.6750745177269, -210.87051910161972, -145.04827988147736, -0.7520000357180834, -0.8800000417977571, 0.8800000417977571, 0.0, 0.0, 0.0, 0.0, 0.0, 1.7063900353547876E9, 0.0, 2024-01-27 16:13:55.354
32.0, -306.13325077295303, -348.25948387384415, -251.0819234251976, -75.87509030103683, -0.8800000417977571, -0.8800000417977571, 0.8800000417977571, 0.0, 0.0, 0.0, 0.0, 0.0, 1.7063900353704233E9, 0.0, 2024-01-27 16:13:55.370
32.0, -356.15815258026123, -338.2066327929497, -236.72070759534836, -87.36406296491623, -0.8800000417977571, -0.8800000417977571, 0.8800000417977571, 0.0, 0.0, 0.0, 0.0, 0.0, 1.7063900353704233E9, 0.0, 2024-01-27 16:13:55.370
33.0, -401.87468963861465, -310.68096911907196, -197.4667176604271, -142.89409750699997, -0.8800000417977571, -0.8800000417977571, 0.8800000417977571, 0.0, 0.0, 0.0, 0.0, 0.0, 1.7063900353712327E9, 0.0, 2024-01-27 16:13:55.371
33.0, -308.04807955026627, -331.7440856695175, -224.9923813343048, -95.26273167133331, -0.8800000417977571, -0.8800000417977571, 0.8800000417977571, 0.0, 0.0, 0.0, 0.0, 0.0, 1.7063900353712327E9, 0.0, 2024-01-27 16:13:55.371
34.0, -319.2976986169815, -338.685339987278, -243.66196191310883, -66.06159281730652, -0.8800000417977571, -0.8800000417977571, 0.8800000417977571, 0.0, 0.0, 0.0, 0.0, 0.0, 1.7063900353848605E9, 0.0, 2024-01-27 16:13:55.384
34.0, -410.0127119421959, -318.3402842283249, -203.2112039923668, -129.7296496629715, -0.8800000417977571, -0.8800000417977571, 0.8800000417977571, 0.0, 0.0, 0.0, 0.0, 0.0, 1.7063900353848605E9, 0.0, 2024-01-27 16:13:55.384
35.0, -352.32849502563477, -324.32412415742874, -219.48724859952927, -123.26710253953934, -0.8800000417977571, -0.8800000417977571, 0.8800000417977571, 0.0, 0.0, 0.0, 0.0, 0.0, 1.7063900354004347E9, 0.0, 2024-01-27 16:13:55.400
35.0, -301.5855324268341, -346.3446550965309, -254.91158097982407, -72.28478634357452, -0.8800000417977571, -0.8800000417977571, 0.8800000417977571, 0.0, 0.0, 0.0, 0.0, 0.0, 1.7063900354004347E9, 0.0, 2024-01-27 16:13:55.400
36.0, -397.3269712924957, -332.46214646101, -228.82203888893127, -115.60778743028641, -0.8800000417977571, -0.8800000417977571, 0.8800000417977571, 0.0, 0.0, 0.0, 0.0, 0.0, 1.706390035401162E9, 0.0, 2024-01-27 16:13:55.401
36.0, -386.5560594201088, -323.3667097687721, -210.87051910161972, -147.4418158531189, -0.8800000417977571, -0.8800000417977571, 0.8800000417977571, 0.0, 0.0, 0.0, 0.0, 0.0, 1.706390035401162E9, 0.0, 2024-01-27 16:13:55.401
37.0, -296.08039969205856, -339.1640471816063, -251.5606306195259, -75.39638310670853, -0.8800000417977571, -0.8800000417977571, 0.8800000417977571, 0.0, 0.0, 0.0, 0.0, 0.0, 1.706390035414968E9, 0.0, 2024-01-27 16:13:55.414
37.0, -359.5091029405594, -333.65891444683075, -243.18325471878052, -86.40664857625961, -0.8800000417977571, -0.8800000417977571, 0.8800000417977571, 0.0, 0.0, 0.0, 0.0, 0.0, 1.706390035414968E9, 0.0, 2024-01-27 16:13:55.414
38.0, -410.25206553936005, -312.35644429922104, -201.5357288122177, -140.26120793819427, -0.8800000417977571, -0.8800000417977571, 0.8800000417977571, 0.0, 0.0, 0.0, 0.0, 0.0, 1.7063900354303515E9, 0.0, 2024-01-27 16:13:55.430
38.0, -312.83515149354935, -323.6060633659363, -221.8807845711708, -90.23630613088608, -0.8800000417977571, -0.8800000417977571, 0.8800000417977571, 0.0, 0.0, 0.0, 0.0, 0.0, 1.7063900354303515E9, 0.0, 2024-01-27 16:13:55.430
39.0, -324.5634777545929, -335.573743224144, -241.26842594146729, -60.07775288820267, -0.8800000417977571, -0.8800000417977571, 0.8800000417977571, 0.0, 0.0, 0.0, 0.0, 0.0, 1.70639003543106E9, 0.0, 2024-01-27 16:13:55.431
39.0, -416.2359054684639, -323.3667097687721, -202.01443600654602, -129.7296496629715, -0.8800000417977571, -0.8800000417977571, 0.8800000417977571, 0.0, 0.0, 0.0, 0.0, 0.0, 1.70639003543106E9, 0.0, 2024-01-27 16:13:55.431
40.0, -353.0465558171272, -323.84541696310043, -217.09371262788773, -122.30968815088272, -0.8800000417977571, -0.8800000417977571, 0.944000044837594, 0.0, 0.0, 0.0, 0.0, 0.0, 1.7063900354613914E9, 0.0, 2024-01-27 16:13:55.461
40.0, -307.09066516160965, -348.02013027668, -256.347702562809, -61.753228068351746, -0.8800000417977571, -0.8800000417977571, 0.944000044837594, 0.0, 0.0, 0.0, 0.0, 0.0, 1.7063900354613914E9, 0.0, 2024-01-27 16:13:55.461
41.0, -389.90700978040695, -322.64864897727966, -211.58857989311218, -99.81045001745224, -0.8800000417977571, -0.944000044837594, 0.944000044837594, 0.0, 0.0, 0.0, 0.0, 0.0, 1.7063900354618428E9, 0.0, 2024-01-27 16:13:55.461
41.0, -383.68381625413895, -316.42545545101166, -197.9454248547554, -131.40512484312057, -0.8800000417977571, -0.944000044837594, 0.944000044837594, 0.0, 0.0, 0.0, 0.0, 0.0, 1.7063900354618428E9, 0.0, 2024-01-27 16:13:55.461
42.0, -294.4049245119095, -338.685339987278, -237.67812198400497, -69.89125037193298, -0.944000044837594, -0.944000044837594, 0.944000044837594, 0.0, 0.0, 0.0, 0.0, 0.0, 1.7063900354625533E9, 0.0, 2024-01-27 16:13:55.462
42.0, -359.26974934339523, -338.92469358444214, -237.43876838684082, -81.61957663297653, -0.944000044837594, -0.944000044837594, 0.944000044837594, 0.0, 0.0, 0.0, 0.0, 0.0, 1.7063900354625533E9, 0.0, 2024-01-27 16:13:55.462
43.0, -415.0391374826431, -322.64864897727966, -203.92926478385925, -141.45797592401505, -0.944000044837594, -0.944000044837594, 0.944000044837594, 0.0, 0.0, 0.0, 0.0, 0.0, 1.7063900354746757E9, 0.0, 2024-01-27 16:13:55.474
43.0, -320.2551130056381, -334.8556824326515, -225.47108852863312, -91.672427713871, -0.944000044837594, -0.944000044837594, 0.944000044837594, 0.0, 0.0, 0.0, 0.0, 0.0, 1.7063900354746757E9, 0.0, 2024-01-27 16:13:55.474
44.0, -321.69123458862305, -333.65891444683075, -242.2258403301239, -61.753228068351746, -0.944000044837594, -0.944000044837594, 0.944000044837594, 0.0, 0.0, 0.0, 0.0, 0.0, 1.7063900354918008E9, 0.0, 2024-01-27 16:13:55.491
44.0, -405.2256399989128, -314.7499802708626, -203.6899111866951, -121.59162735939026, -0.944000044837594, -0.944000044837594, 0.944000044837594, 0.0, 0.0, 0.0, 0.0, 0.0, 1.7063900354918008E9, 0.0, 2024-01-27 16:13:55.491
45.0, -341.796936750412, -315.7073946595192, -211.82793349027634, -113.69295865297318, -0.944000044837594, -0.944000044837594, 0.944000044837594, 0.0, 0.0, 0.0, 0.0, 0.0, 1.7063900355053127E9, 0.0, 2024-01-27 16:13:55.505
45.0, -290.33591336011887, -333.8982680439949, -251.5606306195259, -56.72680252790451, -0.944000044837594, -0.944000044837594, 0.944000044837594, 0.0, 0.0, 0.0, 0.0, 0.0, 1.7063900355053127E9, 0.0, 2024-01-27 16:13:55.505
46.0, -384.64123064279556, -325.0421849489212, -224.27432054281235, -106.99105793237686, -0.944000044837594, -0.944000044837594, 0.944000044837594, 0.0, 0.0, 0.0, 0.0, 0.0, 1.7063900355060632E9, 0.0, 2024-01-27 16:13:55.506
46.0, -376.024501144886, -320.9731737971306, -202.73249679803848, -140.73991513252258, -0.944000044837594, -0.944000044837594, 0.944000044837594, 0.0, 0.0, 0.0, 0.0, 0.0, 1.7063900355060632E9, 0.0, 2024-01-27 16:13:55.506
47.0, -291.7720349431038, -338.685339987278, -242.7045475244522, -74.67832231521606, -0.944000044837594, -0.944000044837594, 0.944000044837594, 0.0, 0.0, 0.0, 0.0, 0.0, 1.7063900355204363E9, 0.0, 2024-01-27 16:13:55.520
47.0, -352.0891414284706, -338.2066327929497, -236.9600611925125, -83.29505181312561, -0.944000044837594, -0.944000044837594, 0.944000044837594, 0.0, 0.0, 0.0, 0.0, 0.0, 1.7063900355204363E9, 0.0, 2024-01-27 16:13:55.520
48.0, -401.1566288471222, -310.68096911907196, -195.07318168878555, -134.99542880058289, -0.944000044837594, -0.944000044837594, 0.944000044837594, 0.0, 0.0, 0.0, 0.0, 0.0, 1.7063900355212798E9, 0.0, 2024-01-27 16:13:55.521
48.0, -305.41518998146057, -324.5634777545929, -223.55625975131989, -87.84277015924454, -0.944000044837594, -0.944000044837594, 0.944000044837594, 0.0, 0.0, 0.0, 0.0, 0.0, 1.7063900355212798E9, 0.0, 2024-01-27 16:13:55.521
49.0, -320.9731737971306, -337.4885720014572, -246.05549788475037, -61.9925816655159, -0.944000044837594, -0.944000044837594, 0.944000044837594, 0.0, 0.0, 0.0, 0.0, 0.0, 1.7063900355346255E9, 0.0, 2024-01-27 16:13:55.534
49.0, -403.55016481876373, -314.98933386802673, -197.22736406326294, -125.42128491401672, -0.944000044837594, -0.944000044837594, 0.944000044837594, 0.0, 0.0, 0.0, 0.0, 0.0, 1.7063900355346255E9, 0.0, 2024-01-27 16:13:55.534
50.0, -344.908533513546, -320.73382019996643, -202.01443600654602, -115.84714102745056, -0.944000044837594, -0.944000044837594, 0.9760000463575125, 0.0, 0.0, 0.0, 0.0, 0.0, 1.7063900355503492E9, 0.0, 2024-01-27 16:13:55.550
50.0, -292.7294493317604, -342.2756439447403, -247.25226587057114, -59.83839929103851, -0.944000044837594, -0.944000044837594, 0.9760000463575125, 0.0, 0.0, 0.0, 0.0, 0.0, 1.7063900355503492E9, 0.0, 2024-01-27 16:13:55.550
51.0, -385.5986450314522, -325.0421849489212, -220.44466298818588, -109.14524030685425, -0.944000044837594, -0.9760000463575125, 0.9760000463575125, 0.0, 0.0, 0.0, 0.0, 0.0, 1.7063900355511827E9, 0.0, 2024-01-27 16:13:55.551
51.0, -386.79541301727295, -322.64864897727966, -198.66348564624786, -136.67090398073196, -0.944000044837594, -0.9760000463575125, 0.9760000463575125, 0.0, 0.0, 0.0, 0.0, 0.0, 1.7063900355511827E9, 0.0, 2024-01-27 16:13:55.551
52.0, -300.1494108438492, -345.14788711071014, -253.236105799675, -77.55056548118591, -0.9760000463575125, -0.9760000463575125, 0.9760000463575125, 0.0, 0.0, 0.0, 0.0, 0.0, 1.7063900355646813E9, 0.0, 2024-01-27 16:13:55.564
52.0, -359.26974934339523, -343.7117655277252, -243.90131551027298, -83.53440541028976, -0.9760000463575125, -0.9760000463575125, 0.9760000463575125, 0.0, 0.0, 0.0, 0.0, 0.0, 1.7063900355646813E9, 0.0, 2024-01-27 16:13:55.564
53.0, -411.4488335251808, -324.32412415742874, -203.92926478385925, -146.00569427013397, -0.9760000463575125, -0.9760000463575125, 0.9760000463575125, 0.0, 0.0, 0.0, 0.0, 0.0, 1.7063900355803328E9, 0.0, 2024-01-27 16:13:55.580
53.0, -318.10093063116074, -336.77051120996475, -228.58268529176712, -100.28915721178055, -0.9760000463575125, -0.9760000463575125, 0.9760000463575125, 0.0, 0.0, 0.0, 0.0, 0.0, 1.7063900355803328E9, 0.0, 2024-01-27 16:13:55.580
54.0, -325.76024574041367, -345.8659479022026, -252.27869141101837, -68.45512878894806, -0.9760000463575125, -0.9760000463575125, 0.9760000463575125, 0.0, 0.0, 0.0, 0.0, 0.0, 1.706390035581041E9, 0.0, 2024-01-27 16:13:55.581
54.0, -419.3475022315979, -331.7440856695175, -214.22146946191788, -136.91025757789612, -0.9760000463575125, -0.9760000463575125, 0.9760000463575125, 0.0, 0.0, 0.0, 0.0, 0.0, 1.706390035581041E9, 0.0, 2024-01-27 16:13:55.581
55.0, -353.0465558171272, -333.65891444683075, -221.16272377967834, -124.22451692819595, -0.9760000463575125, -0.9760000463575125, 0.9760000463575125, 0.0, 0.0, 0.0, 0.0, 0.0, 1.7063900355948308E9, 0.0, 2024-01-27 16:13:55.594
55.0, -301.82488602399826, -348.4988374710083, -250.12450903654099, -65.34353202581406, -0.9760000463575125, -0.9760000463575125, 0.9760000463575125, 0.0, 0.0, 0.0, 0.0, 0.0, 1.7063900355948308E9, 0.0, 2024-01-27 16:13:55.594
56.0, -391.58248496055603, -336.5311576128006, -226.90721011161804, -114.17166584730148, -0.9760000463575125, -0.9760000463575125, 0.9760000463575125, 0.0, 0.0, 0.0, 0.0, 0.0, 1.7063900356107337E9, 0.0, 2024-01-27 16:13:55.610
56.0, -381.7689874768257, -322.64864897727966, -207.51956874132156, -144.8089262843132, -0.9760000463575125, -0.9760000463575125, 0.9760000463575125, 0.0, 0.0, 0.0, 0.0, 0.0, 1.7063900356107337E9, 0.0, 2024-01-27 16:13:55.610
57.0, -291.53268134593964, -342.03629034757614, -246.29485148191452, -82.57699102163315, -0.9760000463575125, -0.9760000463575125, 0.9760000463575125, 0.0, 0.0, 0.0, 0.0, 0.0, 1.7063900356111E9, 0.0, 2024-01-27 16:13:55.611
57.0, -356.15815258026123, -344.1904727220535, -244.3800227046013, -92.15113490819931, -0.9760000463575125, -0.9760000463575125, 0.9760000463575125, 0.0, 0.0, 0.0, 0.0, 0.0, 1.7063900356111E9, 0.0, 2024-01-27 16:13:55.611
58.0, -407.61917597055435, -320.73382019996643, -204.64732557535172, -147.68116945028305, -0.9760000463575125, -0.9760000463575125, 0.9760000463575125, 0.0, 0.0, 0.0, 0.0, 0.0, 1.7063900356249237E9, 0.0, 2024-01-27 16:13:55.624
58.0, -306.3726043701172, -327.1963673233986, -231.45492845773697, -95.02337807416916, -0.9760000463575125, -0.9760000463575125, 0.9760000463575125, 0.0, 0.0, 0.0, 0.0, 0.0, 1.7063900356249237E9, 0.0, 2024-01-27 16:13:55.624
59.0, -318.57963782548904, -339.40340077877045, -251.32127702236176, -72.76349353790283, -0.9760000463575125, -0.9760000463575125, 0.9760000463575125, 0.0, 0.0, 0.0, 0.0, 0.0, 1.7063900356406307E9, 0.0, 2024-01-27 16:13:55.640
59.0, -410.0127119421959, -322.16994178295135, -211.34922629594803, -135.71348959207535, -0.9760000463575125, -0.9760000463575125, 0.9760000463575125, 0.0, 0.0, 0.0, 0.0, 0.0, 1.7063900356406307E9, 0.0, 2024-01-27 16:13:55.640
60.0, -346.58400869369507, -326.7176601290703, -212.5459942817688, -124.46387052536011, -0.9760000463575125, -0.9760000463575125, 0.9920000471174717, 0.0, 0.0, 0.0, 0.0, 0.0, 1.7063900356412592E9, 0.0, 2024-01-27 16:13:55.641
60.0, -295.12298530340195, -344.908533513546, -253.7148129940033, -68.69448238611221, -0.9760000463575125, -0.9760000463575125, 0.9920000471174717, 0.0, 0.0, 0.0, 0.0, 0.0, 1.7063900356412592E9, 0.0, 2024-01-27 16:13:55.641
61.0, -388.94959539175034, -331.98343926668167, -223.79561334848404, -112.4961906671524, -0.9760000463575125, -0.9920000471174717, 0.9920000471174717, 0.0, 0.0, 0.0, 0.0, 0.0, 1.706390035654666E9, 0.0, 2024-01-27 16:13:55.654
61.0, -388.7102417945862, -330.54731768369675, -212.0672870874405, -148.63858383893967, -0.9760000463575125, -0.9920000471174717, 0.9920000471174717, 0.0, 0.0, 0.0, 0.0, 0.0, 1.706390035654666E9, 0.0, 2024-01-27 16:13:55.654
62.0, -299.6707036495209, -348.4988374710083, -253.47545939683914, -80.66216224431992, -0.9920000471174717, -0.9920000471174717, 0.9920000471174717, 0.0, 0.0, 0.0, 0.0, 0.0, 1.7063900356704075E9, 0.0, 2024-01-27 16:13:55.670
62.0, -357.354920566082, -343.7117655277252, -245.8161442875862, -92.39048850536346, -0.9920000471174717, -0.9920000471174717, 0.9920000471174717, 0.0, 0.0, 0.0, 0.0, 0.0, 1.7063900356704075E9, 0.0, 2024-01-27 16:13:55.670
63.0, -412.88495510816574, -328.39313530921936, -209.9131047129631, -149.11729103326797, -0.9920000471174717, -0.9920000471174717, 0.9920000471174717, 0.0, 0.0, 0.0, 0.0, 0.0, 1.7063900356710691E9, 0.0, 2024-01-27 16:13:55.671
63.0, -320.73382019996643, -340.83952236175537, -239.5929507613182, -104.83687555789948, -0.9920000471174717, -0.9920000471174717, 0.9920000471174717, 0.0, 0.0, 0.0, 0.0, 0.0, 1.7063900356710691E9, 0.0, 2024-01-27 16:13:55.671
64.0, -333.4195608496666, -354.48267740011215, -258.9805921316147, -76.83250468969345, -0.9920000471174717, -0.9920000471174717, 0.9920000471174717, 0.0, 0.0, 0.0, 0.0, 0.0, 1.7063900356846604E9, 0.0, 2024-01-27 16:13:55.684
64.0, -415.7571982741356, -326.4783065319061, -216.61500543355942, -136.19219678640366, -0.9920000471174717, -0.9920000471174717, 0.9920000471174717, 0.0, 0.0, 0.0, 0.0, 0.0, 1.7063900356846604E9, 0.0, 2024-01-27 16:13:55.684
65.0, -350.89237344264984, -329.350549697876, -219.72660219669342, -128.53288167715073, -0.9920000471174717, -0.9920000471174717, 0.9920000471174717, 0.0, 0.0, 0.0, 0.0, 0.0, 1.706390035717096E9, 0.0, 2024-01-27 16:13:55.717
65.0, -297.9952284693718, -347.0627158880234, -254.6722273826599, -67.97642159461975, -0.9920000471174717, -0.9920000471174717, 0.9920000471174717, 0.0, 0.0, 0.0, 0.0, 0.0, 1.706390035717096E9, 0.0, 2024-01-27 16:13:55.717
66.0, -391.3431313633919, -338.685339987278, -231.69428205490112, -111.06006908416748, -0.9920000471174717, -0.9920000471174717, 0.9920000471174717, 0.0, 0.0, 0.0, 0.0, 0.0, 1.7063900357177129E9, 0.0, 2024-01-27 16:13:55.717
66.0, -387.0347666144371, -327.1963673233986, -208.9556903243065, -142.89409750699997, -0.9920000471174717, -0.9920000471174717, 0.9920000471174717, 0.0, 0.0, 0.0, 0.0, 0.0, 1.7063900357177129E9, 0.0, 2024-01-27 16:13:55.717
67.0, -294.64427810907364, -350.1743126511574, -258.74123853445053, -84.01311260461807, -0.9920000471174717, -0.9920000471174717, 0.9920000471174717, 0.0, 0.0, 0.0, 0.0, 0.0, 1.7063900357183561E9, 0.0, 2024-01-27 16:13:55.718
67.0, -358.55168855190277, -343.7117655277252, -254.6722273826599, -96.69885325431824, -0.9920000471174717, -0.9920000471174717, 0.9920000471174717, 0.0, 0.0, 0.0, 0.0, 0.0, 1.7063900357183561E9, 0.0, 2024-01-27 16:13:55.718
68.0, -411.4488335251808, -329.8292568922043, -216.1362982392311, -154.62242376804352, -0.9920000471174717, -0.9920000471174717, 0.9920000471174717, 0.0, 0.0, 0.0, 0.0, 0.0, 1.7063900357191677E9, 0.0, 2024-01-27 16:13:55.719
68.0, -324.32412415742874, -351.131727039814, -243.18325471878052, -114.88972663879395, -0.9920000471174717, -0.9920000471174717, 0.9920000471174717, 0.0, 0.0, 0.0, 0.0, 0.0, 1.7063900357191677E9, 0.0, 2024-01-27 16:13:55.719
69.0, -330.7866712808609, -358.55168855190277, -263.76766407489777, -80.90151584148407, -0.9920000471174717, -0.9920000471174717, 0.9920000471174717, 0.0, 0.0, 0.0, 0.0, 0.0, 1.7063900357297225E9, 0.0, 2024-01-27 16:13:55.729
69.0, -421.022977411747, -336.5311576128006, -217.33306622505188, -139.30379354953766, -0.9920000471174717, -0.9920000471174717, 0.9920000471174717, 0.0, 0.0, 0.0, 0.0, 0.0, 1.7063900357297225E9, 0.0, 2024-01-27 16:13:55.729
70.0, -354.243323802948, -336.0524504184723, -223.31690615415573, -129.96900326013565, -0.9920000471174717, -0.9920000471174717, 0.9920000471174717, 0.0, 0.0, 0.0, 0.0, 0.0, 1.7063900357446785E9, 0.0, 2024-01-27 16:13:55.744
70.0, -303.50036120414734, -353.2859094142914, -267.1186144351959, -73.24220073223114, -0.9920000471174717, -0.9920000471174717, 0.9920000471174717, 0.0, 0.0, 0.0, 0.0, 0.0, 1.7063900357446785E9, 0.0, 2024-01-27 16:13:55.744
71.0, -390.38571697473526, -339.6427543759346, -233.13040363788605, -115.84714102745056, -0.9920000471174717, -0.9920000471174717, 0.9920000471174717, 0.0, 0.0, 0.0, 0.0, 0.0, 1.706390035760348E9, 0.0, 2024-01-27 16:13:55.760
71.0, -388.7102417945862, -330.3079640865326, -213.74276226758957, -145.04827988147736, -0.9920000471174717, -0.9920000471174717, 0.9920000471174717, 0.0, 0.0, 0.0, 0.0, 0.0, 1.706390035760348E9, 0.0, 2024-01-27 16:13:55.760
72.0, -293.686863720417, -343.9511191248894, -250.12450903654099, -76.83250468969345, -0.9920000471174717, -0.9920000471174717, 0.9920000471174717, 0.0, 0.0, 0.0, 0.0, 0.0, 1.7063900357610705E9, 0.0, 2024-01-27 16:13:55.761
72.0, -353.0465558171272, -342.2756439447403, -244.14066910743713, -89.75759893655777, -0.9920000471174717, -0.9920000471174717, 0.9920000471174717, 0.0, 0.0, 0.0, 0.0, 0.0, 1.7063900357610705E9, 0.0, 2024-01-27 16:13:55.761
73.0, -401.39598244428635, -315.46804106235504, -203.92926478385925, -148.87793743610382, -0.9920000471174717, -0.9920000471174717, 0.9920000471174717, 0.0, 0.0, 0.0, 0.0, 0.0, 1.706390035774994E9, 0.0, 2024-01-27 16:13:55.774
73.0, -305.41518998146057, -330.3079640865326, -229.30074608325958, -97.89562124013901, -0.9920000471174717, -0.9920000471174717, 0.9920000471174717, 0.0, 0.0, 0.0, 0.0, 0.0, 1.706390035774994E9, 0.0, 2024-01-27 16:13:55.774
74.0, -311.3990299105644, -333.8982680439949, -245.3374370932579, -65.34353202581406, -0.9920000471174717, -0.9920000471174717, 0.9920000471174717, 0.0, 0.0, 0.0, 0.0, 0.0, 1.7063900357903802E9, 0.0, 2024-01-27 16:13:55.790
74.0, -398.28438568115234, -311.6383835077286, -202.25378960371017, -126.13934570550919, -0.9920000471174717, -0.9920000471174717, 0.9920000471174717, 0.0, 0.0, 0.0, 0.0, 0.0, 1.7063900357903802E9, 0.0, 2024-01-27 16:13:55.790
75.0, -338.44598639011383, -315.94674825668335, -211.34922629594803, -120.63421297073364, -0.9920000471174717, -0.9920000471174717, 0.9920000471174717, 0.0, 0.0, 0.0, 0.0, 0.0, 1.7063900357911377E9, 0.0, 2024-01-27 16:13:55.791
75.0, -287.463670194149, -336.0524504184723, -247.25226587057114, -62.231935262680054, -0.9920000471174717, -0.9920000471174717, 0.9920000471174717, 0.0, 0.0, 0.0, 0.0, 0.0, 1.7063900357911377E9, 0.0, 2024-01-27 16:13:55.791
76.0, -376.98191553354263, -320.4944666028023, -221.64143097400665, -106.2729971408844, -0.9920000471174717, -0.9920000471174717, 0.9920000471174717, 0.0, 0.0, 0.0, 0.0, 0.0, 1.706390035804782E9, 0.0, 2024-01-27 16:13:55.804
76.0, -372.67355078458786, -311.3990299105644, -207.75892233848572, -142.89409750699997, -0.9920000471174717, -0.9920000471174717, 0.9920000471174717, 0.0, 0.0, 0.0, 0.0, 0.0, 1.706390035804782E9, 0.0, 2024-01-27 16:13:55.804
77.0, -285.30948781967163, -333.18020725250244, -243.66196191310883, -75.63573670387268, -0.9920000471174717, -0.9920000471174717, 0.9920000471174717, 0.0, 0.0, 0.0, 0.0, 0.0, 1.70639003582101E9, 0.0, 2024-01-27 16:13:55.821
77.0, -345.62659430503845, -334.61632883548737, -236.9600611925125, -85.449234187603, -0.9920000471174717, -0.9920000471174717, 0.9920000471174717, 0.0, 0.0, 0.0, 0.0, 0.0, 1.70639003582101E9, 0.0, 2024-01-27 16:13:55.821
78.0, -402.5927504301071, -311.3990299105644, -203.45055758953094, -146.00569427013397, -0.9920000471174717, -0.9920000471174717, 0.9920000471174717, 0.0, 0.0, 0.0, 0.0, 0.0, 1.7063900358357751E9, 0.0, 2024-01-27 16:13:55.835
78.0, -305.1758363842964, -326.7176601290703, -225.94979572296143, -96.93820685148239, -0.9920000471174717, -0.9920000471174717, 0.9920000471174717, 0.0, 0.0, 0.0, 0.0, 0.0, 1.7063900358357751E9, 0.0, 2024-01-27 16:13:55.835
79.0, -314.0319194793701, -335.0950360298157, -249.64580184221268, -68.93383598327637, -0.9920000471174717, -0.9920000471174717, 0.9920000471174717, 0.0, 0.0, 0.0, 0.0, 0.0, 1.706390035836233E9, 0.0, 2024-01-27 16:13:55.836
79.0, -400.1992144584656, -312.1170907020569, -207.99827593564987, -136.91025757789612, -0.9920000471174717, -0.9920000471174717, 0.9920000471174717, 0.0, 0.0, 0.0, 0.0, 0.0, 1.706390035836233E9, 0.0, 2024-01-27 16:13:55.836
80.0, -338.44598639011383, -316.42545545101166, -213.26405507326126, -127.0967600941658, -0.9920000471174717, -0.9920000471174717, 0.9920000471174717, 0.0, 0.0, 0.0, 0.0, 0.0, 1.706390035851244E9, 0.0, 2024-01-27 16:13:55.851
80.0, -287.463670194149, -336.0524504184723, -249.40644824504852, -66.30094641447067, -0.9920000471174717, -0.9920000471174717, 0.9920000471174717, 0.0, 0.0, 0.0, 0.0, 0.0, 1.706390035851244E9, 0.0, 2024-01-27 16:13:55.851
81.0, -374.82773315906525, -319.53705221414566, -222.35949176549911, -107.94847232103348, -0.9920000471174717, -0.9920000471174717, 0.9920000471174717, 0.0, 0.0, 0.0, 0.0, 0.0, 1.7063900358518164E9, 0.0, 2024-01-27 16:13:55.851
81.0, -368.60453963279724, -309.9629083275795, -208.47698312997818, -143.85151189565659, -0.9920000471174717, -0.9920000471174717, 0.9920000471174717, 0.0, 0.0, 0.0, 0.0, 0.0, 1.7063900358518164E9, 0.0, 2024-01-27 16:13:55.851
82.0, -283.8733662366867, -332.70150005817413, -247.25226587057114, -82.09828382730484, -0.9920000471174717, -0.9920000471174717, 0.9920000471174717, 0.0, 0.0, 0.0, 0.0, 0.0, 1.706390035864719E9, 0.0, 2024-01-27 16:13:55.864
82.0, -339.40340077877045, -324.32412415742874, -241.02907234430313, -89.27889174222946, -0.9920000471174717, -0.9920000471174717, 0.9920000471174717, 0.0, 0.0, 0.0, 0.0, 0.0, 1.706390035864719E9, 0.0, 2024-01-27 16:13:55.864
83.0, -396.8482640981674, -307.56937235593796, -200.81766802072525, -151.75018060207367, -0.9920000471174717, -0.9920000471174717, 0.9920000471174717, 0.0, 0.0, 0.0, 0.0, 0.0, 1.7063900358803222E9, 0.0, 2024-01-27 16:13:55.880
83.0, -301.34617882966995, -317.6222234368324, -226.42850291728973, -98.85303562879562, -0.9920000471174717, -0.9920000471174717, 0.9920000471174717, 0.0, 0.0, 0.0, 0.0, 0.0, 1.7063900358803222E9, 0.0, 2024-01-27 16:13:55.880
84.0, -301.5855324268341, -324.5634777545929, -244.3800227046013, -67.97642159461975, -0.9920000471174717, -0.9920000471174717, 0.9920000471174717, 0.0, 0.0, 0.0, 0.0, 0.0, 1.7063900358810604E9, 0.0, 2024-01-27 16:13:55.881
84.0, -393.49731373786926, -305.6545435786247, -196.98801046609879, -129.7296496629715, -0.9920000471174717, -0.9920000471174717, 0.9920000471174717, 0.0, 0.0, 0.0, 0.0, 0.0, 1.7063900358810604E9, 0.0, 2024-01-27 16:13:55.881
85.0, -330.7866712808609, -308.5267867445946, -200.5783144235611, -119.43744498491287, -0.9920000471174717, -0.9920000471174717, 0.9920000471174717, 0.0, 0.0, 0.0, 0.0, 0.0, 1.7063900358948605E9, 0.0, 2024-01-27 16:13:55.894
85.0, -278.36823350191116, -329.350549697876, -243.66196191310883, -62.47128885984421, -0.9920000471174717, -0.9920000471174717, 0.9920000471174717, 0.0, 0.0, 0.0, 0.0, 0.0, 1.7063900358948605E9, 0.0, 2024-01-27 16:13:55.894
86.0, -377.46062272787094, -321.69123458862305, -221.64143097400665, -107.70911872386932, -0.9920000471174717, -0.9920000471174717, 0.9920000471174717, 0.0, 0.0, 0.0, 0.0, 0.0, 1.7063900359104161E9, 0.0, 2024-01-27 16:13:55.910
86.0, -374.34902596473694, -317.6222234368324, -204.40797197818756, -144.09086549282074, -0.9920000471174717, -0.9920000471174717, 0.9920000471174717, 0.0, 0.0, 0.0, 0.0, 0.0, 1.7063900359104161E9, 0.0, 2024-01-27 16:13:55.910
87.0, -290.33591336011887, -342.2756439447403, -252.75739860534668, -85.20988059043884, -0.9920000471174717, -0.9920000471174717, 0.9920000471174717, 0.0, 0.0, 0.0, 0.0, 0.0, 1.7063900359111395E9, 0.0, 2024-01-27 16:13:55.911
87.0, -352.8072022199631, -339.40340077877045, -245.57679069042206, -97.17756044864655, -0.9920000471174717, -0.9920000471174717, 0.9920000471174717, 0.0, 0.0, 0.0, 0.0, 0.0, 1.7063900359111395E9, 0.0, 2024-01-27 16:13:55.911
88.0, -413.1243087053299, -324.0847705602646, -210.3918119072914, -158.9307885169983, -0.9920000471174717, -0.9920000471174717, 0.9920000471174717, 0.0, 0.0, 0.0, 0.0, 0.0, 1.7063900359247117E9, 0.0, 2024-01-27 16:13:55.924
88.0, -315.2286874651909, -337.72792559862137, -242.94390112161636, -114.17166584730148, -0.9920000471174717, -0.9920000471174717, 0.9920000471174717, 0.0, 0.0, 0.0, 0.0, 0.0, 1.7063900359247117E9, 0.0, 2024-01-27 16:13:55.924
89.0, -323.3667097687721, -347.30206948518753, -258.9805921316147, -78.26862627267838, -0.9920000471174717, -0.9920000471174717, 0.9920000471174717, 0.0, 0.0, 0.0, 0.0, 0.0, 1.7063900359406435E9, 0.0, 2024-01-27 16:13:55.940
89.0, -415.0391374826431, -331.02602487802505, -221.16272377967834, -141.93668311834335, -0.9920000471174717, -0.9920000471174717, 0.9920000471174717, 0.0, 0.0, 0.0, 0.0, 0.0, 1.7063900359406435E9, 0.0, 2024-01-27 16:13:55.940
90.0, -353.0465558171272, -331.2653784751892, -221.8807845711708, -131.64447844028473, -0.9920000471174717, -0.9920000471174717, 0.9920000471174717, 0.0, 0.0, 0.0, 0.0, 0.0, 1.7063900359412463E9, 0.0, 2024-01-27 16:13:55.941
90.0, -302.5429468154907, -354.48267740011215, -265.92184644937515, -77.0718582868576, -0.9920000471174717, -0.9920000471174717, 0.9920000471174717, 0.0, 0.0, 0.0, 0.0, 0.0, 1.7063900359412463E9, 0.0, 2024-01-27 16:13:55.941
91.0, -395.4121425151825, -341.796936750412, -234.08781802654266, -118.2406769990921, -0.9920000471174717, -0.9920000471174717, 0.9920000471174717, 0.0, 0.0, 0.0, 0.0, 0.0, 1.7063900359547317E9, 0.0, 2024-01-27 16:13:55.954
91.0, -396.13020330667496, -333.8982680439949, -213.0247014760971, -155.8191917538643, -0.9920000471174717, -0.9920000471174717, 0.9920000471174717, 0.0, 0.0, 0.0, 0.0, 0.0, 1.7063900359547317E9, 0.0, 2024-01-27 16:13:55.954
92.0, -298.4739356637001, -348.4988374710083, -250.6032162308693, -88.08212375640869, -0.9920000471174717, -0.9920000471174717, 0.9920000471174717, 0.0, 0.0, 0.0, 0.0, 0.0, 1.7063900359703403E9, 0.0, 2024-01-27 16:13:55.970
92.0, -364.0568212866783, -346.8233622908592, -251.79998421669006, -99.57109642028809, -0.9920000471174717, -0.9920000471174717, 0.9920000471174717, 0.0, 0.0, 0.0, 0.0, 0.0, 1.7063900359703403E9, 0.0, 2024-01-27 16:13:55.970
93.0, -415.99655187129974, -330.06861048936844, -215.89694464206696, -159.64884930849075, -0.9920000471174717, -0.9920000471174717, 0.9920000471174717, 0.0, 0.0, 0.0, 0.0, 0.0, 1.7063900359710536E9, 0.0, 2024-01-27 16:13:55.971
93.0, -313.79256588220596, -335.81309682130814, -240.31101155281067, -113.21425145864487, -0.9920000471174717, -0.9920000471174717, 0.9920000471174717, 0.0, 0.0, 0.0, 0.0, 0.0, 1.7063900359710536E9, 0.0, 2024-01-27 16:13:55.971
94.0, -325.5208921432495, -349.69560545682907, -256.8264097571373, -86.40664857625961, -0.9920000471174717, -0.9920000471174717, 0.9920000471174717, 0.0, 0.0, 0.0, 0.0, 0.0, 1.706390035985102E9, 0.0, 2024-01-27 16:13:55.985
94.0, -417.6720270514488, -334.13762164115906, -222.83819895982742, -153.6650093793869, -0.9920000471174717, -0.9920000471174717, 0.9920000471174717, 0.0, 0.0, 0.0, 0.0, 0.0, 1.706390035985102E9, 0.0, 2024-01-27 16:13:55.985
95.0, -358.55168855190277, -332.9408536553383, -230.49751406908035, -142.65474390983582, -0.9920000471174717, -0.9920000471174717, 0.9920000471174717, 0.0, 0.0, 0.0, 0.0, 0.0, 1.706390036000451E9, 0.0, 2024-01-27 16:13:56.000
95.0, -305.1758363842964, -353.2859094142914, -265.92184644937515, -80.42280864715576, -0.9920000471174717, -0.9920000471174717, 0.9920000471174717, 0.0, 0.0, 0.0, 0.0, 0.0, 1.706390036000451E9, 0.0, 2024-01-27 16:13:56.000
96.0, -387.75282740592957, -325.76024574041367, -230.7368676662445, -116.80455541610718, -0.9920000471174717, -0.9920000471174717, 0.9920000471174717, 0.0, 0.0, 0.0, 0.0, 0.0, 1.7063900360011234E9, 0.0, 2024-01-27 16:13:56.001
96.0, -386.31670582294464, -325.0421849489212, -206.08344715833664, -148.15987664461136, -0.9920000471174717, -0.9920000471174717, 0.9920000471174717, 0.0, 0.0, 0.0, 0.0, 0.0, 1.7063900360011234E9, 0.0, 2024-01-27 16:13:56.001
97.0, -299.4313500523567, -343.47241193056107, -253.7148129940033, -89.27889174222946, -0.9920000471174717, -0.9920000471174717, 0.9920000471174717, 0.0, 0.0, 0.0, 0.0, 0.0, 1.7063900360148804E9, 0.0, 2024-01-27 16:13:56.014
97.0, -353.52526301145554, -339.6427543759346, -247.01291227340698, -95.26273167133331, -0.9920000471174717, -0.9920000471174717, 0.9920000471174717, 0.0, 0.0, 0.0, 0.0, 0.0, 1.7063900360148804E9, 0.0, 2024-01-27 16:13:56.014
98.0, -406.66176158189774, -316.1861018538475, -202.97185039520264, -151.75018060207367, -0.9920000471174717, -0.9920000471174717, 0.9920000471174717, 0.0, 0.0, 0.0, 0.0, 0.0, 1.7063900360299573E9, 0.0, 2024-01-27 16:13:56.029
98.0, -312.35644429922104, -334.61632883548737, -234.08781802654266, -106.51235073804855, -0.9920000471174717, -0.9920000471174717, 0.9920000471174717, 0.0, 0.0, 0.0, 0.0, 0.0, 1.7063900360299573E9, 0.0, 2024-01-27 16:13:56.029
0.0, -407.8585295677185, -322.64864897727966, -207.75892233848572, -134.75607520341873, -0.9920000471174717, -0.9920000471174717, 1.008000047877431, 0.0, 0.0, 0.0, 0.0, 0.0, 1.7063900360467649E9, 0.0, 2024-01-27 16:13:56.046
0.0, -347.30206948518753, -323.6060633659363, -218.2904806137085, -133.55930721759796, -0.9920000471174717, -0.9920000471174717, 1.008000047877431, 0.0, 0.0, 0.0, 0.0, 0.0, 1.7063900360467649E9, 0.0, 2024-01-27 16:13:56.046
1.0, -297.0378140807152, -344.908533513546, -256.347702562809, -72.52413994073868, -0.9920000471174717, -0.03200000151991844, 1.008000047877431, 0.0, 0.0, 0.0, 0.0, 0.0, 1.7063900360603397E9, 0.0, 2024-01-27 16:13:56.060
1.0, -385.83799862861633, -329.350549697876, -234.08781802654266, -121.11292016506195, -0.9920000471174717, -0.03200000151991844, 1.008000047877431, 0.0, 0.0, 0.0, 0.0, 0.0, 1.7063900360603397E9, 0.0, 2024-01-27 16:13:56.060
2.0, -382.9657554626465, -319.53705221414566, -207.2802151441574, -151.0321198105812, 0.09600000455975533, -0.03200000151991844, 1.008000047877431, 0.0, 0.0, 0.0, 0.0, 0.0, 1.7063900360610723E9, 0.0, 2024-01-27 16:13:56.061
2.0, -292.49009573459625, -344.4298263192177, -250.12450903654099, -86.88535577058792, 0.09600000455975533, -0.03200000151991844, 1.008000047877431, 0.0, 0.0, 0.0, 0.0, 0.0, 1.7063900360610723E9, 0.0, 2024-01-27 16:13:56.061
3.0, -352.8072022199631, -341.3182295560837, -246.29485148191452, -92.15113490819931, 0.09600000455975533, -0.03200000151991844, 1.008000047877431, 0.0, 0.0, 0.0, 0.0, 0.0, 1.706390036075364E9, 0.0, 2024-01-27 16:13:56.075
3.0, -411.20947992801666, -323.6060633659363, -208.71633672714233, -159.4094957113266, 0.09600000455975533, -0.03200000151991844, 1.008000047877431, 0.0, 0.0, 0.0, 0.0, 0.0, 1.706390036075364E9, 0.0, 2024-01-27 16:13:56.075
4.0, -318.3402842283249, -337.0098648071289, -237.91747558116913, -115.36843383312225, 0.09600000455975533, -0.03200000151991844, 1.008000047877431, 0.0, 0.0, 0.0, 0.0, 0.0, 1.7063900360760767E9, 0.0, 2024-01-27 16:13:56.076
4.0, -326.7176601290703, -345.3872407078743, -256.10834896564484, -80.66216224431992, 0.09600000455975533, -0.03200000151991844, 1.008000047877431, 0.0, 0.0, 0.0, 0.0, 0.0, 1.7063900360760767E9, 0.0, 2024-01-27 16:13:56.076
5.0, -412.6456015110016, -324.80283135175705, -220.20530939102173, -146.00569427013397, 0.09600000455975533, -0.03200000151991844, 1.008000047877431, 0.0, 0.0, 0.0, 0.0, 0.0, 1.7063900360901349E9, 0.0, 2024-01-27 16:13:56.090
5.0, -351.84978783130646, -329.350549697876, -219.72660219669342, -135.4741359949112, 0.09600000455975533, -0.03200000151991844, 1.008000047877431, 0.0, 0.0, 0.0, 0.0, 0.0, 1.7063900360901349E9, 0.0, 2024-01-27 16:13:56.090
6.0, -298.71328926086426, -344.908533513546, -255.39028817415237, -74.67832231521606, 0.09600000455975533, -0.03200000151991844, 1.008000047877431, 0.0, 0.0, 0.0, 0.0, 0.0, 1.7063900361054773E9, 0.0, 2024-01-27 16:13:56.105
6.0, -384.16252344846725, -327.43572092056274, -229.7794532775879, -116.80455541610718, 0.09600000455975533, -0.03200000151991844, 1.008000047877431, 0.0, 0.0, 0.0, 0.0, 0.0, 1.7063900361054773E9, 0.0, 2024-01-27 16:13:56.105
7.0, -377.6999763250351, -318.57963782548904, -214.93953025341034, -148.63858383893967, 0.09600000455975533, -0.03200000151991844, 1.008000047877431, 0.0, 0.0, 0.0, 0.0, 0.0, 1.7063900361061592E9, 0.0, 2024-01-27 16:13:56.106
7.0, -285.30948781967163, -333.4195608496666, -247.25226587057114, -83.53440541028976, 0.09600000455975533, -0.03200000151991844, 1.008000047877431, 0.0, 0.0, 0.0, 0.0, 0.0, 1.7063900361061592E9, 0.0, 2024-01-27 16:13:56.106
8.0, -342.99370473623276, -329.1111961007118, -240.07165795564651, -86.40664857625961, 0.09600000455975533, -0.03200000151991844, 1.008000047877431, 0.0, 0.0, 0.0, 0.0, 0.0, 1.7063900361197007E9, 0.0, 2024-01-27 16:13:56.119
8.0, -395.65149611234665, -304.45777559280396, -191.7222313284874, -143.61215829849243, 0.09600000455975533, -0.03200000151991844, 1.008000047877431, 0.0, 0.0, 0.0, 0.0, 0.0, 1.7063900361197007E9, 0.0, 2024-01-27 16:13:56.119
9.0, -301.34617882966995, -317.1435162425041, -219.96595579385757, -96.45949965715408, 0.09600000455975533, -0.03200000151991844, 1.008000047877431, 0.0, 0.0, 0.0, 0.0, 0.0, 1.7063900361352987E9, 0.0, 2024-01-27 16:13:56.135
9.0, -304.93648278713226, -325.9995993375778, -240.78971874713898, -62.949996054172516, 0.09600000455975533, -0.03200000151991844, 1.008000047877431, 0.0, 0.0, 0.0, 0.0, 0.0, 1.7063900361352987E9, 0.0, 2024-01-27 16:13:56.135
10.0, -396.60891050100327, -307.8087259531021, -202.73249679803848, -129.7296496629715, 0.09600000455975533, -0.03200000151991844, 1.008000047877431, 0.0, 0.0, 0.0, 0.0, 0.0, 1.706390036136012E9, 0.0, 2024-01-27 16:13:56.136
10.0, -335.81309682130814, -310.20226192474365, -202.73249679803848, -117.7619698047638, 0.09600000455975533, -0.03200000151991844, 1.008000047877431, 0.0, 0.0, 0.0, 0.0, 0.0, 1.706390036136012E9, 0.0, 2024-01-27 16:13:56.136
11.0, -278.128879904747, -330.06861048936844, -239.1142435669899, -63.18934965133667, 0.09600000455975533, -0.03200000151991844, 1.008000047877431, 0.0, 0.0, 0.0, 0.0, 0.0, 1.7063900361500049E9, 0.0, 2024-01-27 16:13:56.150
11.0, -370.9980756044388, -313.5532122850418, -217.57241982221603, -101.96463239192963, 0.09600000455975533, -0.03200000151991844, 1.008000047877431, 0.0, 0.0, 0.0, 0.0, 0.0, 1.7063900361500049E9, 0.0, 2024-01-27 16:13:56.150
12.0, -370.04066121578217, -308.7661403417587, -200.33896082639694, -138.5857327580452, 0.09600000455975533, -0.03200000151991844, 1.008000047877431, 0.0, 0.0, 0.0, 0.0, 0.0, 1.7063900361655836E9, 0.0, 2024-01-27 16:13:56.165
12.0, -283.3946590423584, -331.2653784751892, -240.78971874713898, -80.42280864715576, 0.09600000455975533, -0.03200000151991844, 1.008000047877431, 0.0, 0.0, 0.0, 0.0, 0.0, 1.7063900361655836E9, 0.0, 2024-01-27 16:13:56.165
13.0, -336.77051120996475, -327.6750745177269, -232.8910500407219, -84.73117339611053, 0.09600000455975533, -0.03200000151991844, 1.008000047877431, 0.0, 0.0, 0.0, 0.0, 0.0, 1.706390036166153E9, 0.0, 2024-01-27 16:13:56.166
13.0, -401.6353360414505, -310.68096911907196, -202.97185039520264, -150.0747054219246, 0.09600000455975533, -0.03200000151991844, 1.008000047877431, 0.0, 0.0, 0.0, 0.0, 0.0, 1.706390036166153E9, 0.0, 2024-01-27 16:13:56.166
14.0, -304.93648278713226, -323.3667097687721, -225.23173493146896, -100.5285108089447, 0.09600000455975533, -0.03200000151991844, 1.008000047877431, 0.0, 0.0, 0.0, 0.0, 0.0, 1.7063900361961565E9, 0.0, 2024-01-27 16:13:56.196
14.0, -314.7499802708626, -333.4195608496666, -248.20968025922775, -72.04543274641037, 0.09600000455975533, -0.03200000151991844, 1.008000047877431, 0.0, 0.0, 0.0, 0.0, 0.0, 1.7063900361961565E9, 0.0, 2024-01-27 16:13:56.196
15.0, -404.50757920742035, -320.73382019996643, -210.63116550445557, -132.60189282894135, 0.09600000455975533, -0.03200000151991844, 1.008000047877431, 0.0, 0.0, 0.0, 0.0, 0.0, 1.7063900361968558E9, 0.0, 2024-01-27 16:13:56.196
15.0, -345.14788711071014, -318.8189914226532, -212.78534787893295, -125.18193131685257, 0.09600000455975533, -0.03200000151991844, 1.008000047877431, 0.0, 0.0, 0.0, 0.0, 0.0, 1.7063900361968558E9, 0.0, 2024-01-27 16:13:56.196
16.0, -292.7294493317604, -342.03629034757614, -252.27869141101837, -65.34353202581406, 0.09600000455975533, -0.03200000151991844, 1.008000047877431, 0.0, 0.0, 0.0, 0.0, 0.0, 1.706390036197543E9, 0.0, 2024-01-27 16:13:56.197
16.0, -376.5032083392143, -316.90416264533997, -216.61500543355942, -107.46976512670517, 0.09600000455975533, -0.03200000151991844, 1.008000047877431, 0.0, 0.0, 0.0, 0.0, 0.0, 1.706390036197543E9, 0.0, 2024-01-27 16:13:56.197
17.0, -375.30644035339355, -311.15967631340027, -198.4241320490837, -139.5431471467018, 0.09600000455975533, -0.03200000151991844, 1.008000047877431, 0.0, 0.0, 0.0, 0.0, 0.0, 1.7063900362098348E9, 0.0, 2024-01-27 16:13:56.209
17.0, -286.74560940265656, -333.65891444683075, -239.1142435669899, -78.26862627267838, 0.09600000455975533, -0.03200000151991844, 1.008000047877431, 0.0, 0.0, 0.0, 0.0, 0.0, 1.7063900362098348E9, 0.0, 2024-01-27 16:13:56.209
18.0, -348.25948387384415, -338.2066327929497, -233.3697572350502, -83.05569821596146, 0.09600000455975533, -0.03200000151991844, 1.008000047877431, 0.0, 0.0, 0.0, 0.0, 0.0, 1.706390036225424E9, 0.0, 2024-01-27 16:13:56.225
18.0, -404.7469328045845, -316.1861018538475, -197.22736406326294, -142.89409750699997, 0.09600000455975533, -0.03200000151991844, 1.008000047877431, 0.0, 0.0, 0.0, 0.0, 0.0, 1.706390036225424E9, 0.0, 2024-01-27 16:13:56.225
19.0, -312.35644429922104, -328.1537817120552, -226.42850291728973, -97.89562124013901, 0.09600000455975533, -0.03200000151991844, 1.008000047877431, 0.0, 0.0, 0.0, 0.0, 0.0, 1.7063900362261431E9, 0.0, 2024-01-27 16:13:56.226
19.0, -319.7764058113098, -334.8556824326515, -245.8161442875862, -61.51387447118759, 0.09600000455975533, -0.03200000151991844, 1.008000047877431, 0.0, 0.0, 0.0, 0.0, 0.0, 1.7063900362261431E9, 0.0, 2024-01-27 16:13:56.226
20.0, -405.9437007904053, -313.79256588220596, -202.49314320087433, -127.33611369132996, 0.09600000455975533, -0.03200000151991844, 0.9920000471174717, 0.0, 0.0, 0.0, 0.0, 0.0, 1.706390036239741E9, 0.0, 2024-01-27 16:13:56.239
20.0, -347.78077667951584, -318.10093063116074, -204.88667917251587, -117.52261620759964, 0.09600000455975533, -0.03200000151991844, 0.9920000471174717, 0.0, 0.0, 0.0, 0.0, 0.0, 1.706390036239741E9, 0.0, 2024-01-27 16:13:56.239
21.0, -297.5165212750435, -339.40340077877045, -246.05549788475037, -61.9925816655159, 0.09600000455975533, -0.03200000151991844, 0.9920000471174717, 0.0, 0.0, 0.0, 0.0, 0.0, 1.7063900362719588E9, 0.0, 2024-01-27 16:13:56.271
21.0, -389.1889489889145, -326.95701372623444, -216.61500543355942, -104.35816836357117, 0.09600000455975533, -0.03200000151991844, 0.9920000471174717, 0.0, 0.0, 0.0, 0.0, 0.0, 1.7063900362719588E9, 0.0, 2024-01-27 16:13:56.271
22.0, -381.05092668533325, -311.87773710489273, -201.5357288122177, -138.1070255637169, 0.09600000455975533, -0.03200000151991844, 0.9920000471174717, 0.0, 0.0, 0.0, 0.0, 0.0, 1.7063900362725055E9, 0.0, 2024-01-27 16:13:56.272
22.0, -289.6178525686264, -335.81309682130814, -235.76329320669174, -74.67832231521606, 0.09600000455975533, -0.03200000151991844, 0.9920000471174717, 0.0, 0.0, 0.0, 0.0, 0.0, 1.7063900362725055E9, 0.0, 2024-01-27 16:13:56.272
23.0, -344.908533513546, -327.6750745177269, -224.5136741399765, -73.24220073223114, 0.09600000455975533, -0.03200000151991844, 0.9920000471174717, 0.0, 0.0, 0.0, 0.0, 0.0, 1.7063900362731938E9, 0.0, 2024-01-27 16:13:56.273
23.0, -405.9437007904053, -317.3828698396683, -198.66348564624786, -144.09086549282074, 0.09600000455975533, -0.03200000151991844, 0.9920000471174717, 0.0, 0.0, 0.0, 0.0, 0.0, 1.7063900362731938E9, 0.0, 2024-01-27 16:13:56.273
24.0, -310.68096911907196, -325.76024574041367, -219.00854140520096, -97.65626764297485, 0.09600000455975533, -0.03200000151991844, 0.9920000471174717, 0.0, 0.0, 0.0, 0.0, 0.0, 1.706390036273985E9, 0.0, 2024-01-27 16:13:56.273
24.0, -317.6222234368324, -338.44598639011383, -246.77355867624283, -63.90741044282913, 0.09600000455975533, -0.03200000151991844, 0.9920000471174717, 0.0, 0.0, 0.0, 0.0, 0.0, 1.706390036273985E9, 0.0, 2024-01-27 16:13:56.273
25.0, -405.9437007904053, -318.10093063116074, -199.86025363206863, -125.18193131685257, 0.09600000455975533, -0.03200000151991844, 0.9920000471174717, 0.0, 0.0, 0.0, 0.0, 0.0, 1.706390036284896E9, 0.0, 2024-01-27 16:13:56.284
25.0, -342.7543511390686, -319.53705221414566, -204.1686183810234, -114.65037304162979, 0.09600000455975533, -0.03200000151991844, 0.9920000471174717, 0.0, 0.0, 0.0, 0.0, 0.0, 1.706390036284896E9, 0.0, 2024-01-27 16:13:56.284
26.0, -297.9952284693718, -344.908533513546, -250.12450903654099, -62.47128885984421, 0.09600000455975533, -0.03200000151991844, 0.9920000471174717, 0.0, 0.0, 0.0, 0.0, 0.0, 1.7063900362997282E9, 0.0, 2024-01-27 16:13:56.299
26.0, -388.470888197422, -328.87184250354767, -219.48724859952927, -103.40075397491455, 0.09600000455975533, -0.03200000151991844, 0.9920000471174717, 0.0, 0.0, 0.0, 0.0, 0.0, 1.7063900362997282E9, 0.0, 2024-01-27 16:13:56.299
27.0, -386.5560594201088, -319.53705221414566, -208.23762953281403, -143.61215829849243, 0.09600000455975533, -0.03200000151991844, 0.9920000471174717, 0.0, 0.0, 0.0, 0.0, 0.0, 1.7063900363155656E9, 0.0, 2024-01-27 16:13:56.315
27.0, -295.3623389005661, -339.1640471816063, -244.61937630176544, -74.91767591238022, 0.09600000455975533, -0.03200000151991844, 0.9920000471174717, 0.0, 0.0, 0.0, 0.0, 0.0, 1.7063900363155656E9, 0.0, 2024-01-27 16:13:56.315
28.0, -349.4562518596649, -333.4195608496666, -236.24200040102005, -78.50797986984253, 0.09600000455975533, -0.03200000151991844, 0.9920000471174717, 0.0, 0.0, 0.0, 0.0, 0.0, 1.706390036316102E9, 0.0, 2024-01-27 16:13:56.316
28.0, -409.5340047478676, -317.8615770339966, -197.9454248547554, -138.82508635520935, 0.09600000455975533, -0.03200000151991844, 0.9920000471174717, 0.0, 0.0, 0.0, 0.0, 0.0, 1.706390036316102E9, 0.0, 2024-01-27 16:13:56.316
29.0, -316.90416264533997, -333.18020725250244, -227.1465637087822, -92.39048850536346, 0.09600000455975533, -0.03200000151991844, 0.9920000471174717, 0.0, 0.0, 0.0, 0.0, 0.0, 1.70639003632967E9, 0.0, 2024-01-27 16:13:56.329
29.0, -317.3828698396683, -336.29180401563644, -244.14066910743713, -59.59904569387436, 0.09600000455975533, -0.03200000151991844, 0.9920000471174717, 0.0, 0.0, 0.0, 0.0, 0.0, 1.70639003632967E9, 0.0, 2024-01-27 16:13:56.329
30.0, -403.55016481876373, -314.0319194793701, -202.73249679803848, -120.8735665678978, 0.09600000455975533, -0.03200000151991844, 1.008000047877431, 0.0, 0.0, 0.0, 0.0, 0.0, 1.7063900363454509E9, 0.0, 2024-01-27 16:13:56.345
30.0, -349.69560545682907, -321.69123458862305, -208.47698312997818, -116.32584822177887, 0.09600000455975533, -0.03200000151991844, 1.008000047877431, 0.0, 0.0, 0.0, 0.0, 0.0, 1.7063900363454509E9, 0.0, 2024-01-27 16:13:56.345
31.0, -291.0539741516113, -339.1640471816063, -243.66196191310883, -55.53003454208374, 0.09600000455975533, -0.03200000151991844, 1.008000047877431, 0.0, 0.0, 0.0, 0.0, 0.0, 1.706390036346084E9, 0.0, 2024-01-27 16:13:56.346
31.0, -383.20510905981064, -324.32412415742874, -218.7691878080368, -98.85303562879562, 0.09600000455975533, -0.03200000151991844, 1.008000047877431, 0.0, 0.0, 0.0, 0.0, 0.0, 1.706390036346084E9, 0.0, 2024-01-27 16:13:56.346
32.0, -380.8115730881691, -316.42545545101166, -194.8338280916214, -130.44771045446396, 0.09600000455975533, -0.03200000151991844, 1.008000047877431, 0.0, 0.0, 0.0, 0.0, 0.0, 1.706390036359707E9, 0.0, 2024-01-27 16:13:56.359
32.0, -294.64427810907364, -343.2330583333969, -238.6355363726616, -66.77965360879898, 0.09600000455975533, -0.03200000151991844, 1.008000047877431, 0.0, 0.0, 0.0, 0.0, 0.0, 1.706390036359707E9, 0.0, 2024-01-27 16:13:56.359
33.0, -354.48267740011215, -339.40340077877045, -241.02907234430313, -80.42280864715576, 0.09600000455975533, -0.03200000151991844, 1.008000047877431, 0.0, 0.0, 0.0, 0.0, 0.0, 1.7063900363753667E9, 0.0, 2024-01-27 16:13:56.375
33.0, -412.40624791383743, -320.2551130056381, -203.45055758953094, -142.89409750699997, 0.09600000455975533, -0.03200000151991844, 1.008000047877431, 0.0, 0.0, 0.0, 0.0, 0.0, 1.7063900363753667E9, 0.0, 2024-01-27 16:13:56.375
34.0, -323.6060633659363, -334.3769752383232, -227.6252709031105, -96.69885325431824, 0.09600000455975533, -0.03200000151991844, 1.008000047877431, 0.0, 0.0, 0.0, 0.0, 0.0, 1.7063900363761144E9, 0.0, 2024-01-27 16:13:56.376
34.0, -320.4944666028023, -344.908533513546, -247.25226587057114, -61.51387447118759, 0.09600000455975533, -0.03200000151991844, 1.008000047877431, 0.0, 0.0, 0.0, 0.0, 0.0, 1.7063900363761144E9, 0.0, 2024-01-27 16:13:56.376
35.0, -408.8159439563751, -320.01575940847397, -208.23762953281403, -130.2083568572998, 0.09600000455975533, -0.03200000151991844, 1.008000047877431, 0.0, 0.0, 0.0, 0.0, 0.0, 1.70639003639006E9, 0.0, 2024-01-27 16:13:56.390
35.0, -347.78077667951584, -321.69123458862305, -202.01443600654602, -116.08649462461472, 0.09600000455975533, -0.03200000151991844, 1.008000047877431, 0.0, 0.0, 0.0, 0.0, 0.0, 1.70639003639006E9, 0.0, 2024-01-27 16:13:56.390
36.0, -294.8836317062378, -345.14788711071014, -252.27869141101837, -67.49771440029144, 0.09600000455975533, -0.03200000151991844, 1.008000047877431, 0.0, 0.0, 0.0, 0.0, 0.0, 1.7063900364054825E9, 0.0, 2024-01-27 16:13:56.405
36.0, -387.75282740592957, -331.50473207235336, -222.59884536266327, -108.66653311252594, 0.09600000455975533, -0.03200000151991844, 1.008000047877431, 0.0, 0.0, 0.0, 0.0, 0.0, 1.7063900364054825E9, 0.0, 2024-01-27 16:13:56.405
37.0, -382.9657554626465, -323.12735617160797, -200.81766802072525, -138.1070255637169, 0.09600000455975533, -0.03200000151991844, 1.008000047877431, 0.0, 0.0, 0.0, 0.0, 0.0, 1.7063900364060807E9, 0.0, 2024-01-27 16:13:56.406
37.0, -295.60169249773026, -341.796936750412, -246.29485148191452, -79.22604066133499, 0.09600000455975533, -0.03200000151991844, 1.008000047877431, 0.0, 0.0, 0.0, 0.0, 0.0, 1.7063900364060807E9, 0.0, 2024-01-27 16:13:56.406
38.0, -351.37108063697815, -339.6427543759346, -243.90131551027298, -88.08212375640869, 0.09600000455975533, -0.03200000151991844, 1.008000047877431, 0.0, 0.0, 0.0, 0.0, 0.0, 1.7063900364196887E9, 0.0, 2024-01-27 16:13:56.419
38.0, -403.3108112215996, -316.42545545101166, -204.88667917251587, -144.3302190899849, 0.09600000455975533, -0.03200000151991844, 1.008000047877431, 0.0, 0.0, 0.0, 0.0, 0.0, 1.7063900364196887E9, 0.0, 2024-01-27 16:13:56.419
39.0, -308.5267867445946, -328.39313530921936, -224.9923813343048, -93.34790289402008, 0.09600000455975533, -0.03200000151991844, 1.008000047877431, 0.0, 0.0, 0.0, 0.0, 0.0, 1.7063900364354877E9, 0.0, 2024-01-27 16:13:56.435
39.0, -310.20226192474365, -335.0950360298157, -245.57679069042206, -63.428703248500824, 0.09600000455975533, -0.03200000151991844, 1.008000047877431, 0.0, 0.0, 0.0, 0.0, 0.0, 1.7063900364354877E9, 0.0, 2024-01-27 16:13:56.435
40.0, -397.80567848682404, -308.5267867445946, -199.62090003490448, -121.11292016506195, 0.09600000455975533, -0.03200000151991844, 0.9920000471174717, 0.0, 0.0, 0.0, 0.0, 0.0, 1.706390036436178E9, 0.0, 2024-01-27 16:13:56.436
40.0, -342.2756439447403, -315.94674825668335, -198.18477845191956, -115.36843383312225, 0.09600000455975533, -0.03200000151991844, 0.9920000471174717, 0.0, 0.0, 0.0, 0.0, 0.0, 1.706390036436178E9, 0.0, 2024-01-27 16:13:56.436
41.0, -289.6178525686264, -338.2066327929497, -240.55036514997482, -56.2480953335762, 0.09600000455975533, -0.04800000227987766, 0.9920000471174717, 0.0, 0.0, 0.0, 0.0, 0.0, 1.7063900364502182E9, 0.0, 2024-01-27 16:13:56.450
41.0, -390.6250705718994, -334.8556824326515, -225.47108852863312, -105.55493634939194, 0.09600000455975533, -0.04800000227987766, 0.9920000471174717, 0.0, 0.0, 0.0, 0.0, 0.0, 1.7063900364502182E9, 0.0, 2024-01-27 16:13:56.450
42.0, -388.7102417945862, -327.1963673233986, -207.04086154699326, -145.2876334786415, 0.09600000455975533, -0.04800000227987766, 0.9920000471174717, 0.0, 0.0, 0.0, 0.0, 0.0, 1.706390036465701E9, 0.0, 2024-01-27 16:13:56.465
42.0, -296.3197532892227, -345.14788711071014, -245.09808349609375, -73.24220073223114, 0.09600000455975533, -0.04800000227987766, 0.9920000471174717, 0.0, 0.0, 0.0, 0.0, 0.0, 1.706390036465701E9, 0.0, 2024-01-27 16:13:56.465
43.0, -354.7220309972763, -339.1640471816063, -240.07165795564651, -80.18345504999161, 0.09600000455975533, -0.04800000227987766, 0.9920000471174717, 0.0, 0.0, 0.0, 0.0, 0.0, 1.706390036466242E9, 0.0, 2024-01-27 16:13:56.466
43.0, -413.1243087053299, -323.12735617160797, -199.14219284057617, -139.5431471467018, 0.09600000455975533, -0.04800000227987766, 0.9920000471174717, 0.0, 0.0, 0.0, 0.0, 0.0, 1.706390036466242E9, 0.0, 2024-01-27 16:13:56.466
44.0, -325.5208921432495, -344.1904727220535, -237.43876838684082, -107.23041152954102, 0.09600000455975533, -0.04800000227987766, 0.9920000471174717, 0.0, 0.0, 0.0, 0.0, 0.0, 1.706390036479704E9, 0.0, 2024-01-27 16:13:56.479
44.0, -327.91442811489105, -353.52526301145554, -254.6722273826599, -72.04543274641037, 0.09600000455975533, -0.04800000227987766, 0.9920000471174717, 0.0, 0.0, 0.0, 0.0, 0.0, 1.706390036479704E9, 0.0, 2024-01-27 16:13:56.479
45.0, -420.06556302309036, -333.4195608496666, -215.6575910449028, -131.88383203744888, 0.09600000455975533, -0.04800000227987766, 0.9920000471174717, 0.0, 0.0, 0.0, 0.0, 0.0, 1.706390036495566E9, 0.0, 2024-01-27 16:13:56.495
45.0, -359.74845653772354, -331.7440856695175, -222.12013816833496, -129.01158887147903, 0.09600000455975533, -0.04800000227987766, 0.9920000471174717, 0.0, 0.0, 0.0, 0.0, 0.0, 1.706390036495566E9, 0.0, 2024-01-27 16:13:56.495
46.0, -304.6971291899681, -349.69560545682907, -257.7838241457939, -71.08801835775375, 0.09600000455975533, -0.04800000227987766, 0.9920000471174717, 0.0, 0.0, 0.0, 0.0, 0.0, 1.7063900364961953E9, 0.0, 2024-01-27 16:13:56.496
46.0, -396.8482640981674, -344.66917991638184, -235.04523241519928, -109.3845939040184, 0.09600000455975533, -0.04800000227987766, 0.9920000471174717, 0.0, 0.0, 0.0, 0.0, 0.0, 1.7063900364961953E9, 0.0, 2024-01-27 16:13:56.496
47.0, -393.7366673350334, -329.350549697876, -208.9556903243065, -141.2186223268509, 0.09600000455975533, -0.04800000227987766, 0.9920000471174717, 0.0, 0.0, 0.0, 0.0, 0.0, 1.7063900365099118E9, 0.0, 2024-01-27 16:13:56.509
47.0, -303.2610076069832, -351.37108063697815, -247.73097306489944, -80.42280864715576, 0.09600000455975533, -0.04800000227987766, 0.9920000471174717, 0.0, 0.0, 0.0, 0.0, 0.0, 1.7063900365099118E9, 0.0, 2024-01-27 16:13:56.509
48.0, -357.11556696891785, -346.8233622908592, -245.3374370932579, -81.85893023014069, 0.09600000455975533, -0.04800000227987766, 0.9920000471174717, 0.0, 0.0, 0.0, 0.0, 0.0, 1.7063900365254374E9, 0.0, 2024-01-27 16:13:56.525
48.0, -416.7146126627922, -330.7866712808609, -207.75892233848572, -150.0747054219246, 0.09600000455975533, -0.04800000227987766, 0.9920000471174717, 0.0, 0.0, 0.0, 0.0, 0.0, 1.7063900365254374E9, 0.0, 2024-01-27 16:13:56.525
49.0, -315.94674825668335, -336.29180401563644, -225.47108852863312, -95.98079246282578, 0.09600000455975533, -0.04800000227987766, 0.9920000471174717, 0.0, 0.0, 0.0, 0.0, 0.0, 1.7063900365261612E9, 0.0, 2024-01-27 16:13:56.526
49.0, -318.8189914226532, -342.2756439447403, -246.77355867624283, -66.06159281730652, 0.09600000455975533, -0.04800000227987766, 0.9920000471174717, 0.0, 0.0, 0.0, 0.0, 0.0, 1.7063900365261612E9, 0.0, 2024-01-27 16:13:56.526
50.0, -405.9437007904053, -318.57963782548904, -209.19504392147064, -128.05417448282242, 0.09600000455975533, -0.04800000227987766, 0.9920000471174717, 0.0, 0.0, 0.0, 0.0, 0.0, 1.7063900365400198E9, 0.0, 2024-01-27 16:13:56.540
50.0, -351.6104342341423, -325.0421849489212, -214.46082305908203, -123.50645613670349, 0.09600000455975533, -0.04800000227987766, 0.9920000471174717, 0.0, 0.0, 0.0, 0.0, 0.0, 1.7063900365400198E9, 0.0, 2024-01-27 16:13:56.540
51.0, -292.96880292892456, -346.8233622908592, -250.6032162308693, -65.58288562297821, 0.09600000455975533, -0.04800000227987766, 0.9920000471174717, 0.0, 0.0, 0.0, 0.0, 0.0, 1.706390036571878E9, 0.0, 2024-01-27 16:13:56.571
51.0, -381.7689874768257, -330.3079640865326, -221.8807845711708, -102.44333958625793, 0.09600000455975533, -0.04800000227987766, 0.9920000471174717, 0.0, 0.0, 0.0, 0.0, 0.0, 1.706390036571878E9, 0.0, 2024-01-27 16:13:56.571
52.0, -383.9231698513031, -315.46804106235504, -196.03059607744217, -133.79866081476212, 0.09600000455975533, -0.04800000227987766, 0.9920000471174717, 0.0, 0.0, 0.0, 0.0, 0.0, 1.7063900365724924E9, 0.0, 2024-01-27 16:13:56.572
52.0, -289.85720616579056, -337.4885720014572, -240.55036514997482, -74.19961512088776, 0.09600000455975533, -0.04800000227987766, 0.9920000471174717, 0.0, 0.0, 0.0, 0.0, 0.0, 1.7063900365724924E9, 0.0, 2024-01-27 16:13:56.572
53.0, -342.51499754190445, -336.5311576128006, -234.08781802654266, -75.87509030103683, 0.09600000455975533, -0.04800000227987766, 0.9920000471174717, 0.0, 0.0, 0.0, 0.0, 0.0, 1.7063900365732584E9, 0.0, 2024-01-27 16:13:56.573
53.0, -401.87468963861465, -316.42545545101166, -195.55188888311386, -140.97926872968674, 0.09600000455975533, -0.04800000227987766, 0.9920000471174717, 0.0, 0.0, 0.0, 0.0, 0.0, 1.7063900365732584E9, 0.0, 2024-01-27 16:13:56.573
54.0, -305.41518998146057, -328.1537817120552, -224.0349669456482, -94.06596368551254, 0.09600000455975533, -0.04800000227987766, 0.9920000471174717, 0.0, 0.0, 0.0, 0.0, 0.0, 1.7063900365740893E9, 0.0, 2024-01-27 16:13:56.574
54.0, -310.9203227162361, -336.29180401563644, -242.7045475244522, -60.31710648536682, 0.09600000455975533, -0.04800000227987766, 0.9920000471174717, 0.0, 0.0, 0.0, 0.0, 0.0, 1.7063900365740893E9, 0.0, 2024-01-27 16:13:56.574
55.0, -410.73077273368835, -324.80283135175705, -212.0672870874405, -129.7296496629715, 0.09600000455975533, -0.04800000227987766, 0.9920000471174717, 0.0, 0.0, 0.0, 0.0, 0.0, 1.7063900365847185E9, 0.0, 2024-01-27 16:13:56.584
55.0, -349.9349590539932, -325.5208921432495, -209.67375111579895, -121.3522737622261, 0.09600000455975533, -0.04800000227987766, 0.9920000471174717, 0.0, 0.0, 0.0, 0.0, 0.0, 1.7063900365847185E9, 0.0, 2024-01-27 16:13:56.584
56.0, -291.0539741516113, -341.796936750412, -252.51804500818253, -61.27452087402344, 0.09600000455975533, -0.04800000227987766, 0.9920000471174717, 0.0, 0.0, 0.0, 0.0, 0.0, 1.7063900366160686E9, 0.0, 2024-01-27 16:13:56.616
56.0, -384.64123064279556, -328.1537817120552, -231.69428205490112, -108.42717951536179, 0.09600000455975533, -0.04800000227987766, 0.9920000471174717, 0.0, 0.0, 0.0, 0.0, 0.0, 1.7063900366160686E9, 0.0, 2024-01-27 16:13:56.616
57.0, -383.9231698513031, -320.2551130056381, -199.62090003490448, -135.9528431892395, 0.09600000455975533, -0.04800000227987766, 0.9920000471174717, 0.0, 0.0, 0.0, 0.0, 0.0, 1.7063900366168022E9, 0.0, 2024-01-27 16:13:56.616
57.0, -286.74560940265656, -332.46214646101, -236.0026468038559, -69.65189677476883, 0.09600000455975533, -0.04800000227987766, 0.9920000471174717, 0.0, 0.0, 0.0, 0.0, 0.0, 1.7063900366168022E9, 0.0, 2024-01-27 16:13:56.616
58.0, -348.25948387384415, -339.40340077877045, -242.2258403301239, -80.66216224431992, 0.09600000455975533, -0.04800000227987766, 0.9920000471174717, 0.0, 0.0, 0.0, 0.0, 0.0, 1.7063900366175518E9, 0.0, 2024-01-27 16:13:56.617
58.0, -400.6779216527939, -311.3990299105644, -199.86025363206863, -141.6973295211792, 0.09600000455975533, -0.04800000227987766, 0.9920000471174717, 0.0, 0.0, 0.0, 0.0, 0.0, 1.7063900366175518E9, 0.0, 2024-01-27 16:13:56.617
59.0, -305.6545435786247, -326.238952934742, -223.79561334848404, -92.62984210252762, 0.09600000455975533, -0.04800000227987766, 0.9920000471174717, 0.0, 0.0, 0.0, 0.0, 0.0, 1.7063900366460347E9, 0.0, 2024-01-27 16:13:56.646
59.0, -311.15967631340027, -334.3769752383232, -236.0026468038559, -58.64163130521774, 0.09600000455975533, -0.04800000227987766, 0.9920000471174717, 0.0, 0.0, 0.0, 0.0, 0.0, 1.7063900366460347E9, 0.0, 2024-01-27 16:13:56.646
60.0, -399.4811536669731, -314.98933386802673, -203.2112039923668, -125.42128491401672, 0.09600000455975533, -0.04800000227987766, 0.9920000471174717, 0.0, 0.0, 0.0, 0.0, 0.0, 1.7063900366467574E9, 0.0, 2024-01-27 16:13:56.646
60.0, -338.92469358444214, -318.10093063116074, -204.40797197818756, -115.60778743028641, 0.09600000455975533, -0.04800000227987766, 0.9920000471174717, 0.0, 0.0, 0.0, 0.0, 0.0, 1.7063900366467574E9, 0.0, 2024-01-27 16:13:56.646
61.0, -286.9849629998207, -339.40340077877045, -246.77355867624283, -55.290680944919586, 0.09600000455975533, -0.04800000227987766, 0.9920000471174717, 0.0, 0.0, 0.0, 0.0, 0.0, 1.706390036647506E9, 0.0, 2024-01-27 16:13:56.647
61.0, -372.67355078458786, -320.4944666028023, -217.33306622505188, -98.37432843446732, 0.09600000455975533, -0.04800000227987766, 0.9920000471174717, 0.0, 0.0, 0.0, 0.0, 0.0, 1.706390036647506E9, 0.0, 2024-01-27 16:13:56.647
62.0, -376.024501144886, -314.98933386802673, -195.79124248027802, -131.64447844028473, 0.0800000037997961, -0.04800000227987766, 0.9920000471174717, 0.0, 0.0, 0.0, 0.0, 0.0, 1.7063900366597545E9, 0.0, 2024-01-27 16:13:56.659
62.0, -282.9159518480301, -331.7440856695175, -233.13040363788605, -70.13060396909714, 0.0800000037997961, -0.04800000227987766, 0.9920000471174717, 0.0, 0.0, 0.0, 0.0, 0.0, 1.7063900366597545E9, 0.0, 2024-01-27 16:13:56.659
63.0, -330.7866712808609, -324.32412415742874, -231.21557486057281, -72.76349353790283, 0.0800000037997961, -0.04800000227987766, 0.9920000471174717, 0.0, 0.0, 0.0, 0.0, 0.0, 1.7063900366918151E9, 0.0, 2024-01-27 16:13:56.691
63.0, -395.8908497095108, -308.7661403417587, -192.679645717144, -134.99542880058289, 0.0800000037997961, -0.04800000227987766, 0.9920000471174717, 0.0, 0.0, 0.0, 0.0, 0.0, 1.7063900366918151E9, 0.0, 2024-01-27 16:13:56.691
64.0, -299.19199645519257, -316.42545545101166, -214.70017665624619, -89.03953814506531, 0.0800000037997961, -0.04800000227987766, 0.9920000471174717, 0.0, 0.0, 0.0, 0.0, 0.0, 1.7063900366925285E9, 0.0, 2024-01-27 16:13:56.692
64.0, -308.5267867445946, -339.88210797309875, -244.3800227046013, -59.12033849954605, 0.0800000037997961, -0.04800000227987766, 0.9920000471174717, 0.0, 0.0, 0.0, 0.0, 0.0, 1.7063900366925285E9, 0.0, 2024-01-27 16:13:56.692
65.0, -399.24180006980896, -312.1170907020569, -199.14219284057617, -120.15550577640533, 0.0800000037997961, -0.04800000227987766, 0.9920000471174717, 0.0, 0.0, 0.0, 0.0, 0.0, 1.7063900366932712E9, 0.0, 2024-01-27 16:13:56.693
65.0, -344.66917991638184, -320.9731737971306, -204.88667917251587, -117.04390901327133, 0.0800000037997961, -0.04800000227987766, 0.9920000471174717, 0.0, 0.0, 0.0, 0.0, 0.0, 1.7063900366932712E9, 0.0, 2024-01-27 16:13:56.693
66.0, -291.53268134593964, -342.2756439447403, -242.94390112161636, -62.231935262680054, 0.0800000037997961, -0.04800000227987766, 0.9920000471174717, 0.0, 0.0, 0.0, 0.0, 0.0, 1.7063900366939857E9, 0.0, 2024-01-27 16:13:56.693
66.0, -383.68381625413895, -330.06861048936844, -234.80587881803513, -109.14524030685425, 0.0800000037997961, -0.04800000227987766, 0.9920000471174717, 0.0, 0.0, 0.0, 0.0, 0.0, 1.7063900366939857E9, 0.0, 2024-01-27 16:13:56.693
67.0, -386.5560594201088, -318.3402842283249, -205.12603276968002, -139.5431471467018, 0.0800000037997961, -0.04800000227987766, 0.9920000471174717, 0.0, 0.0, 0.0, 0.0, 0.0, 1.7063900367048154E9, 0.0, 2024-01-27 16:13:56.704
67.0, -296.55910688638687, -338.685339987278, -245.57679069042206, -77.0718582868576, 0.0800000037997961, -0.04800000227987766, 0.9920000471174717, 0.0, 0.0, 0.0, 0.0, 0.0, 1.7063900367048154E9, 0.0, 2024-01-27 16:13:56.704
68.0, -353.7646166086197, -340.1214615702629, -241.7471331357956, -83.53440541028976, 0.0800000037997961, -0.04800000227987766, 0.9920000471174717, 0.0, 0.0, 0.0, 0.0, 0.0, 1.706390036736755E9, 0.0, 2024-01-27 16:13:56.736
68.0, -408.3372367620468, -314.98933386802673, -197.22736406326294, -142.65474390983582, 0.0800000037997961, -0.04800000227987766, 0.9920000471174717, 0.0, 0.0, 0.0, 0.0, 0.0, 1.706390036736755E9, 0.0, 2024-01-27 16:13:56.736
69.0, -311.15967631340027, -329.350549697876, -219.2478950023651, -90.47565972805023, 0.0800000037997961, -0.04800000227987766, 0.9920000471174717, 0.0, 0.0, 0.0, 0.0, 0.0, 1.7063900367374754E9, 0.0, 2024-01-27 16:13:56.737
69.0, -314.98933386802673, -337.24921840429306, -245.57679069042206, -61.51387447118759, 0.0800000037997961, -0.04800000227987766, 0.9920000471174717, 0.0, 0.0, 0.0, 0.0, 0.0, 1.7063900367374754E9, 0.0, 2024-01-27 16:13:56.737
70.0, -406.9011151790619, -320.9731737971306, -196.74865686893463, -122.07033455371857, 0.0800000037997961, -0.04800000227987766, 1.008000047877431, 0.0, 0.0, 0.0, 0.0, 0.0, 1.7063900367381835E9, 0.0, 2024-01-27 16:13:56.738
70.0, -347.78077667951584, -322.16994178295135, -208.23762953281403, -119.43744498491287, 0.0800000037997961, -0.04800000227987766, 1.008000047877431, 0.0, 0.0, 0.0, 0.0, 0.0, 1.7063900367381835E9, 0.0, 2024-01-27 16:13:56.738
71.0, -294.64427810907364, -343.47241193056107, -247.73097306489944, -57.92357051372528, 0.0800000037997961, -0.04800000227987766, 1.008000047877431, 0.0, 0.0, 0.0, 0.0, 0.0, 1.7063900367500775E9, 0.0, 2024-01-27 16:13:56.750
71.0, -382.247694671154, -328.1537817120552, -217.33306622505188, -100.5285108089447, 0.0800000037997961, -0.04800000227987766, 1.008000047877431, 0.0, 0.0, 0.0, 0.0, 0.0, 1.7063900367500775E9, 0.0, 2024-01-27 16:13:56.750
72.0, -378.6573907136917, -311.6383835077286, -198.18477845191956, -133.55930721759796, 0.09600000455975533, -0.04800000227987766, 1.008000047877431, 0.0, 0.0, 0.0, 0.0, 0.0, 1.7063900367654965E9, 0.0, 2024-01-27 16:13:56.765
72.0, -289.37849897146225, -337.4885720014572, -244.14066910743713, -73.24220073223114, 0.09600000455975533, -0.04800000227987766, 1.008000047877431, 0.0, 0.0, 0.0, 0.0, 0.0, 1.7063900367654965E9, 0.0, 2024-01-27 16:13:56.765
73.0, -349.21689826250076, -339.88210797309875, -241.50777953863144, -78.74733346700668, 0.09600000455975533, -0.04800000227987766, 1.008000047877431, 0.0, 0.0, 0.0, 0.0, 0.0, 1.7063900367661264E9, 0.0, 2024-01-27 16:13:56.766
73.0, -409.29465115070343, -321.9305881857872, -198.18477845191956, -141.45797592401505, 0.09600000455975533, -0.04800000227987766, 1.008000047877431, 0.0, 0.0, 0.0, 0.0, 0.0, 1.7063900367661264E9, 0.0, 2024-01-27 16:13:56.766
74.0, -311.15967631340027, -333.4195608496666, -227.38591730594635, -96.69885325431824, 0.09600000455975533, -0.04800000227987766, 1.008000047877431, 0.0, 0.0, 0.0, 0.0, 0.0, 1.706390036779644E9, 0.0, 2024-01-27 16:13:56.779
74.0, -310.20226192474365, -337.0098648071289, -246.77355867624283, -63.90741044282913, 0.09600000455975533, -0.04800000227987766, 1.008000047877431, 0.0, 0.0, 0.0, 0.0, 0.0, 1.706390036779644E9, 0.0, 2024-01-27 16:13:56.779
75.0, -400.1992144584656, -314.0319194793701, -202.73249679803848, -129.96900326013565, 0.09600000455975533, -0.04800000227987766, 1.008000047877431, 0.0, 0.0, 0.0, 0.0, 0.0, 1.7063900367956002E9, 0.0, 2024-01-27 16:13:56.795
75.0, -339.1640471816063, -314.27127307653427, -202.49314320087433, -119.67679858207703, 0.09600000455975533, -0.04800000227987766, 1.008000047877431, 0.0, 0.0, 0.0, 0.0, 0.0, 1.7063900367956002E9, 0.0, 2024-01-27 16:13:56.795
76.0, -278.6075870990753, -331.2653784751892, -242.46519392728806, -56.00874173641205, 0.09600000455975533, -0.04800000227987766, 1.008000047877431, 0.0, 0.0, 0.0, 0.0, 0.0, 1.706390036796117E9, 0.0, 2024-01-27 16:13:56.796
76.0, -377.2212691307068, -322.8880025744438, -218.05112701654434, -100.76786440610886, 0.09600000455975533, -0.04800000227987766, 1.008000047877431, 0.0, 0.0, 0.0, 0.0, 0.0, 1.706390036796117E9, 0.0, 2024-01-27 16:13:56.796
77.0, -380.8115730881691, -312.35644429922104, -199.86025363206863, -133.79866081476212, 0.09600000455975533, -0.04800000227987766, 1.008000047877431, 0.0, 0.0, 0.0, 0.0, 0.0, 1.7063900368097436E9, 0.0, 2024-01-27 16:13:56.809
77.0, -285.30948781967163, -336.29180401563644, -238.6355363726616, -73.4815543293953, 0.09600000455975533, -0.04800000227987766, 1.008000047877431, 0.0, 0.0, 0.0, 0.0, 0.0, 1.7063900368097436E9, 0.0, 2024-01-27 16:13:56.809
78.0, -347.78077667951584, -338.92469358444214, -233.13040363788605, -76.83250468969345, 0.09600000455975533, -0.04800000227987766, 1.008000047877431, 0.0, 0.0, 0.0, 0.0, 0.0, 1.7063900368254569E9, 0.0, 2024-01-27 16:13:56.825
78.0, -409.77335834503174, -317.6222234368324, -193.15835291147232, -137.86767196655273, 0.09600000455975533, -0.04800000227987766, 1.008000047877431, 0.0, 0.0, 0.0, 0.0, 0.0, 1.7063900368254569E9, 0.0, 2024-01-27 16:13:56.825
79.0, -315.94674825668335, -333.4195608496666, -226.6678565144539, -101.00721800327301, 0.09600000455975533, -0.04800000227987766, 1.008000047877431, 0.0, 0.0, 0.0, 0.0, 0.0, 1.7063900368261127E9, 0.0, 2024-01-27 16:13:56.826
79.0, -318.3402842283249, -340.1214615702629, -246.77355867624283, -66.77965360879898, 0.09600000455975533, -0.04800000227987766, 1.008000047877431, 0.0, 0.0, 0.0, 0.0, 0.0, 1.7063900368261127E9, 0.0, 2024-01-27 16:13:56.826
80.0, -400.91727524995804, -318.8189914226532, -204.64732557535172, -124.70322412252426, 0.09600000455975533, -0.04800000227987766, 1.008000047877431, 0.0, 0.0, 0.0, 0.0, 0.0, 1.7063900368397007E9, 0.0, 2024-01-27 16:13:56.839
80.0, -344.4298263192177, -322.8880025744438, -214.22146946191788, -127.81482088565826, 0.09600000455975533, -0.04800000227987766, 1.008000047877431, 0.0, 0.0, 0.0, 0.0, 0.0, 1.7063900368397007E9, 0.0, 2024-01-27 16:13:56.839
81.0, -282.9159518480301, -343.9511191248894, -253.95416659116745, -64.38611763715744, 0.09600000455975533, -0.04800000227987766, 1.008000047877431, 0.0, 0.0, 0.0, 0.0, 0.0, 1.7063900368554444E9, 0.0, 2024-01-27 16:13:56.855
81.0, -370.9980756044388, -324.32412415742874, -225.94979572296143, -107.46976512670517, 0.09600000455975533, -0.04800000227987766, 1.008000047877431, 0.0, 0.0, 0.0, 0.0, 0.0, 1.7063900368554444E9, 0.0, 2024-01-27 16:13:56.855
82.0, -373.3916115760803, -314.27127307653427, -203.45055758953094, -142.41539031267166, 0.09600000455975533, -0.04800000227987766, 1.008000047877431, 0.0, 0.0, 0.0, 0.0, 0.0, 1.7063900368561215E9, 0.0, 2024-01-27 16:13:56.856
82.0, -282.1978910565376, -331.7440856695175, -243.42260831594467, -84.01311260461807, 0.09600000455975533, -0.04800000227987766, 1.008000047877431, 0.0, 0.0, 0.0, 0.0, 0.0, 1.7063900368561215E9, 0.0, 2024-01-27 16:13:56.856
83.0, -341.55758315324783, -334.3769752383232, -245.3374370932579, -87.12470936775208, 0.09600000455975533, -0.04800000227987766, 1.008000047877431, 0.0, 0.0, 0.0, 0.0, 0.0, 1.7063900368699224E9, 0.0, 2024-01-27 16:13:56.869
83.0, -401.87468963861465, -317.1435162425041, -206.08344715833664, -146.48440146446228, 0.09600000455975533, -0.04800000227987766, 1.008000047877431, 0.0, 0.0, 0.0, 0.0, 0.0, 1.7063900368699224E9, 0.0, 2024-01-27 16:13:56.869
84.0, -312.5957978963852, -336.77051120996475, -227.86462450027466, -102.44333958625793, 0.09600000455975533, -0.04800000227987766, 1.008000047877431, 0.0, 0.0, 0.0, 0.0, 0.0, 1.706390036885818E9, 0.0, 2024-01-27 16:13:56.885
84.0, -308.2874331474304, -339.1640471816063, -236.72070759534836, -62.71064245700836, 0.09600000455975533, -0.04800000227987766, 1.008000047877431, 0.0, 0.0, 0.0, 0.0, 0.0, 1.706390036885818E9, 0.0, 2024-01-27 16:13:56.885
85.0, -394.9334353208542, -309.4842011332512, -203.2112039923668, -123.74580973386765, 0.09600000455975533, -0.04800000227987766, 1.008000047877431, 0.0, 0.0, 0.0, 0.0, 0.0, 1.706390036886174E9, 0.0, 2024-01-27 16:13:56.886
85.0, -346.10530149936676, -319.05834501981735, -202.49314320087433, -119.91615217924118, 0.09600000455975533, -0.04800000227987766, 1.008000047877431, 0.0, 0.0, 0.0, 0.0, 0.0, 1.706390036886174E9, 0.0, 2024-01-27 16:13:56.886
86.0, -287.463670194149, -337.0098648071289, -247.01291227340698, -58.64163130521774, 0.09600000455975533, -0.04800000227987766, 1.008000047877431, 0.0, 0.0, 0.0, 0.0, 0.0, 1.7063900368997E9, 0.0, 2024-01-27 16:13:56.899
86.0, -377.46062272787094, -325.76024574041367, -218.52983421087265, -98.61368203163147, 0.09600000455975533, -0.04800000227987766, 1.008000047877431, 0.0, 0.0, 0.0, 0.0, 0.0, 1.7063900368997E9, 0.0, 2024-01-27 16:13:56.899
87.0, -381.05092668533325, -317.6222234368324, -199.62090003490448, -141.2186223268509, 0.09600000455975533, -0.04800000227987766, 1.008000047877431, 0.0, 0.0, 0.0, 0.0, 0.0, 1.7063900369154406E9, 0.0, 2024-01-27 16:13:56.915
87.0, -291.53268134593964, -337.9672791957855, -236.9600611925125, -80.66216224431992, 0.09600000455975533, -0.04800000227987766, 1.008000047877431, 0.0, 0.0, 0.0, 0.0, 0.0, 1.7063900369154406E9, 0.0, 2024-01-27 16:13:56.915
88.0, -348.25948387384415, -337.72792559862137, -239.5929507613182, -81.61957663297653, 0.09600000455975533, -0.04800000227987766, 1.008000047877431, 0.0, 0.0, 0.0, 0.0, 0.0, 1.7063900369162676E9, 0.0, 2024-01-27 16:13:56.916
88.0, -407.8585295677185, -320.01575940847397, -202.25378960371017, -148.15987664461136, 0.09600000455975533, -0.04800000227987766, 1.008000047877431, 0.0, 0.0, 0.0, 0.0, 0.0, 1.7063900369162676E9, 0.0, 2024-01-27 16:13:56.916
89.0, -317.8615770339966, -336.77051120996475, -220.68401658535004, -102.92204678058624, 0.09600000455975533, -0.04800000227987766, 1.008000047877431, 0.0, 0.0, 0.0, 0.0, 0.0, 1.7063900369296987E9, 0.0, 2024-01-27 16:13:56.929
89.0, -327.43572092056274, -348.25948387384415, -252.03933781385422, -70.60931116342545, 0.09600000455975533, -0.04800000227987766, 1.008000047877431, 0.0, 0.0, 0.0, 0.0, 0.0, 1.7063900369296987E9, 0.0, 2024-01-27 16:13:56.929
90.0, -416.47525906562805, -331.98343926668167, -213.0247014760971, -134.27736800909042, 0.09600000455975533, -0.04800000227987766, 1.008000047877431, 0.0, 0.0, 0.0, 0.0, 0.0, 1.7063900369455416E9, 0.0, 2024-01-27 16:13:56.945
90.0, -357.354920566082, -326.238952934742, -205.36538636684418, -122.07033455371857, 0.09600000455975533, -0.04800000227987766, 1.008000047877431, 0.0, 0.0, 0.0, 0.0, 0.0, 1.7063900369455416E9, 0.0, 2024-01-27 16:13:56.945
91.0, -293.2081565260887, -341.0788759589195, -241.98648673295975, -59.12033849954605, 0.09600000455975533, -0.03200000151991844, 1.008000047877431, 0.0, 0.0, 0.0, 0.0, 0.0, 1.706390036946149E9, 0.0, 2024-01-27 16:13:56.946
91.0, -384.16252344846725, -328.6324889063835, -219.48724859952927, -96.22014605998993, 0.09600000455975533, -0.03200000151991844, 1.008000047877431, 0.0, 0.0, 0.0, 0.0, 0.0, 1.706390036946149E9, 0.0, 2024-01-27 16:13:56.946
92.0, -379.3754515051842, -312.5957978963852, -188.6106345653534, -130.92641764879227, 0.09600000455975533, -0.03200000151991844, 1.008000047877431, 0.0, 0.0, 0.0, 0.0, 0.0, 1.706390036959803E9, 0.0, 2024-01-27 16:13:56.959
92.0, -292.49009573459625, -338.44598639011383, -236.9600611925125, -71.80607914924622, 0.09600000455975533, -0.03200000151991844, 1.008000047877431, 0.0, 0.0, 0.0, 0.0, 0.0, 1.706390036959803E9, 0.0, 2024-01-27 16:13:56.959
93.0, -348.02013027668, -339.88210797309875, -232.65169644355774, -77.0718582868576, 0.09600000455975533, -0.03200000151991844, 1.008000047877431, 0.0, 0.0, 0.0, 0.0, 0.0, 1.7063900369761696E9, 0.0, 2024-01-27 16:13:56.976
93.0, -411.9275407195091, -321.4518809914589, -201.29637521505356, -141.93668311834335, 0.09600000455975533, -0.03200000151991844, 1.008000047877431, 0.0, 0.0, 0.0, 0.0, 0.0, 1.7063900369761696E9, 0.0, 2024-01-27 16:13:56.976
94.0, -320.9731737971306, -336.29180401563644, -227.86462450027466, -101.96463239192963, 0.09600000455975533, -0.03200000151991844, 1.008000047877431, 0.0, 0.0, 0.0, 0.0, 0.0, 1.7063900369767923E9, 0.0, 2024-01-27 16:13:56.976
94.0, -317.8615770339966, -344.4298263192177, -247.4916194677353, -67.49771440029144, 0.09600000455975533, -0.03200000151991844, 1.008000047877431, 0.0, 0.0, 0.0, 0.0, 0.0, 1.7063900369767923E9, 0.0, 2024-01-27 16:13:56.976
95.0, -404.50757920742035, -321.4518809914589, -203.2112039923668, -126.37869930267334, 0.09600000455975533, -0.03200000151991844, 1.008000047877431, 0.0, 0.0, 0.0, 0.0, 0.0, 1.7063900369896626E9, 0.0, 2024-01-27 16:13:56.989
95.0, -351.131727039814, -323.6060633659363, -207.51956874132156, -123.74580973386765, 0.09600000455975533, -0.03200000151991844, 1.008000047877431, 0.0, 0.0, 0.0, 0.0, 0.0, 1.7063900369896626E9, 0.0, 2024-01-27 16:13:56.989
96.0, -294.4049245119095, -345.14788711071014, -247.73097306489944, -61.753228068351746, 0.09600000455975533, -0.03200000151991844, 1.008000047877431, 0.0, 0.0, 0.0, 0.0, 0.0, 1.7063900370053964E9, 0.0, 2024-01-27 16:13:57.005
96.0, -379.3754515051842, -327.1963673233986, -223.79561334848404, -102.44333958625793, 0.09600000455975533, -0.03200000151991844, 1.008000047877431, 0.0, 0.0, 0.0, 0.0, 0.0, 1.7063900370053964E9, 0.0, 2024-01-27 16:13:57.005
97.0, -380.09351229667664, -310.9203227162361, -198.18477845191956, -138.5857327580452, 0.09600000455975533, -0.03200000151991844, 1.008000047877431, 0.0, 0.0, 0.0, 0.0, 0.0, 1.7063900370061288E9, 0.0, 2024-01-27 16:13:57.006
97.0, -287.70302379131317, -333.8982680439949, -235.04523241519928, -73.72090792655945, 0.09600000455975533, -0.03200000151991844, 1.008000047877431, 0.0, 0.0, 0.0, 0.0, 0.0, 1.7063900370061288E9, 0.0, 2024-01-27 16:13:57.006
98.0, -349.21689826250076, -334.13762164115906, -233.60911083221436, -73.72090792655945, 0.09600000455975533, -0.03200000151991844, 1.008000047877431, 0.0, 0.0, 0.0, 0.0, 0.0, 1.7063900370357316E9, 0.0, 2024-01-27 16:13:57.035
98.0, -408.09788316488266, -315.46804106235504, -193.63706010580063, -136.19219678640366, 0.09600000455975533, -0.03200000151991844, 1.008000047877431, 0.0, 0.0, 0.0, 0.0, 0.0, 1.7063900370357316E9, 0.0, 2024-01-27 16:13:57.035
99.0, -317.6222234368324, -330.3079640865326, -220.68401658535004, -93.58725649118423, 0.09600000455975533, -0.03200000151991844, 1.008000047877431, 0.0, 0.0, 0.0, 0.0, 0.0, 1.7063900370361483E9, 0.0, 2024-01-27 16:13:57.036
99.0, -322.4092953801155, -343.7117655277252, -244.14066910743713, -63.428703248500824, 0.09600000455975533, -0.03200000151991844, 1.008000047877431, 0.0, 0.0, 0.0, 0.0, 0.0, 1.7063900370361483E9, 0.0, 2024-01-27 16:13:57.036
0.0, -357.8336277604103, -325.28153854608536, -212.5459942817688, -123.74580973386765, 0.09600000455975533, -0.03200000151991844, 0.9920000471174717, 0.0, 0.0, 0.0, 0.0, 0.0, 1.706390037050676E9, 0.0, 2024-01-27 16:13:57.050
0.0, -299.6707036495209, -349.4562518596649, -247.01291227340698, -61.9925816655159, 0.09600000455975533, -0.03200000151991844, 0.9920000471174717, 0.0, 0.0, 0.0, 0.0, 0.0, 1.706390037050676E9, 0.0, 2024-01-27 16:13:57.050
1.0, -388.470888197422, -334.3769752383232, -219.72660219669342, -100.0498036146164, 0.09600000455975533, -0.03200000151991844, 0.9920000471174717, 0.0, 0.0, 0.0, 0.0, 0.0, 1.706390037051238E9, 0.0, 2024-01-27 16:13:57.051
1.0, -394.69408172369003, -328.1537817120552, -198.4241320490837, -137.38896477222443, 0.09600000455975533, -0.03200000151991844, 0.9920000471174717, 0.0, 0.0, 0.0, 0.0, 0.0, 1.706390037051238E9, 0.0, 2024-01-27 16:13:57.051
2.0, -296.55910688638687, -341.796936750412, -241.50777953863144, -76.83250468969345, 0.09600000455975533, -0.03200000151991844, 0.9920000471174717, 0.0, 0.0, 0.0, 0.0, 0.0, 1.7063900370646973E9, 0.0, 2024-01-27 16:13:57.064
2.0, -344.1904727220535, -335.81309682130814, -234.80587881803513, -76.11444389820099, 0.09600000455975533, -0.03200000151991844, 0.9920000471174717, 0.0, 0.0, 0.0, 0.0, 0.0, 1.7063900370646973E9, 0.0, 2024-01-27 16:13:57.064
3.0, -400.6779216527939, -312.83515149354935, -189.0893417596817, -133.55930721759796, 0.09600000455975533, -0.03200000151991844, 0.9920000471174717, 0.0, 0.0, 0.0, 0.0, 0.0, 1.7063900370805497E9, 0.0, 2024-01-27 16:13:57.080
3.0, -314.7499802708626, -331.02602487802505, -224.0349669456482, -97.4169140458107, 0.09600000455975533, -0.03200000151991844, 0.9920000471174717, 0.0, 0.0, 0.0, 0.0, 0.0, 1.7063900370805497E9, 0.0, 2024-01-27 16:13:57.080
4.0, -306.13325077295303, -335.81309682130814, -244.3800227046013, -64.14676403999329, 0.09600000455975533, -0.03200000151991844, 0.9920000471174717, 0.0, 0.0, 0.0, 0.0, 0.0, 1.7063900370811408E9, 0.0, 2024-01-27 16:13:57.081
4.0, -399.0024464726448, -321.21252739429474, -210.3918119072914, -129.01158887147903, 0.09600000455975533, -0.03200000151991844, 0.9920000471174717, 0.0, 0.0, 0.0, 0.0, 0.0, 1.7063900370811408E9, 0.0, 2024-01-27 16:13:57.081
5.0, -341.796936750412, -317.3828698396683, -206.8015079498291, -119.91615217924118, 0.09600000455975533, -0.03200000151991844, 0.9920000471174717, 0.0, 0.0, 0.0, 0.0, 0.0, 1.7063900370948257E9, 0.0, 2024-01-27 16:13:57.094
5.0, -284.8307806253433, -338.685339987278, -247.01291227340698, -63.18934965133667, 0.09600000455975533, -0.03200000151991844, 0.9920000471174717, 0.0, 0.0, 0.0, 0.0, 0.0, 1.7063900370948257E9, 0.0, 2024-01-27 16:13:57.094
6.0, -377.93932992219925, -324.80283135175705, -218.52983421087265, -99.81045001745224, 0.09600000455975533, -0.03200000151991844, 0.9920000471174717, 0.0, 0.0, 0.0, 0.0, 0.0, 1.7063900371108203E9, 0.0, 2024-01-27 16:13:57.110
6.0, -377.2212691307068, -311.87773710489273, -191.7222313284874, -133.3199536204338, 0.09600000455975533, -0.03200000151991844, 0.9920000471174717, 0.0, 0.0, 0.0, 0.0, 0.0, 1.7063900371108203E9, 0.0, 2024-01-27 16:13:57.110
7.0, -282.4372446537018, -333.4195608496666, -234.80587881803513, -72.28478634357452, 0.09600000455975533, -0.03200000151991844, 0.9920000471174717, 0.0, 0.0, 0.0, 0.0, 0.0, 1.7063900371112132E9, 0.0, 2024-01-27 16:13:57.111
7.0, -335.0950360298157, -325.28153854608536, -234.56652522087097, -74.19961512088776, 0.09600000455975533, -0.03200000151991844, 0.9920000471174717, 0.0, 0.0, 0.0, 0.0, 0.0, 1.7063900371112132E9, 0.0, 2024-01-27 16:13:57.111
8.0, -396.3695569038391, -308.04807955026627, -192.91899931430817, -133.3199536204338, 0.09600000455975533, -0.03200000151991844, 0.9920000471174717, 0.0, 0.0, 0.0, 0.0, 0.0, 1.7063900371246617E9, 0.0, 2024-01-27 16:13:57.124
8.0, -303.97906839847565, -321.69123458862305, -216.37565183639526, -94.54467087984085, 0.09600000455975533, -0.03200000151991844, 0.9920000471174717, 0.0, 0.0, 0.0, 0.0, 0.0, 1.7063900371246617E9, 0.0, 2024-01-27 16:13:57.124
9.0, -299.6707036495209, -329.350549697876, -240.31101155281067, -61.9925816655159, 0.09600000455975533, -0.03200000151991844, 0.9920000471174717, 0.0, 0.0, 0.0, 0.0, 0.0, 1.7063900371403964E9, 0.0, 2024-01-27 16:13:57.140
9.0, -400.6779216527939, -316.1861018538475, -205.84409356117249, -128.29352807998657, 0.09600000455975533, -0.03200000151991844, 0.9920000471174717, 0.0, 0.0, 0.0, 0.0, 0.0, 1.7063900371403964E9, 0.0, 2024-01-27 16:13:57.140
10.0, -342.03629034757614, -315.46804106235504, -208.71633672714233, -125.66063851118088, 0.09600000455975533, -0.03200000151991844, 0.9920000471174717, 0.0, 0.0, 0.0, 0.0, 0.0, 1.7063900371411097E9, 0.0, 2024-01-27 16:13:57.141
10.0, -284.352073431015, -337.24921840429306, -249.88515543937683, -62.231935262680054, 0.09600000455975533, -0.03200000151991844, 0.9920000471174717, 0.0, 0.0, 0.0, 0.0, 0.0, 1.7063900371411097E9, 0.0, 2024-01-27 16:13:57.141
11.0, -376.26385474205017, -325.76024574041367, -226.6678565144539, -106.51235073804855, 0.09600000455975533, -0.04800000227987766, 0.9920000471174717, 0.0, 0.0, 0.0, 0.0, 0.0, 1.7063900371549523E9, 0.0, 2024-01-27 16:13:57.154
11.0, -383.9231698513031, -320.4944666028023, -198.66348564624786, -142.1760367155075, 0.09600000455975533, -0.04800000227987766, 0.9920000471174717, 0.0, 0.0, 0.0, 0.0, 0.0, 1.7063900371549523E9, 0.0, 2024-01-27 16:13:57.154
12.0, -285.0701342225075, -334.61632883548737, -237.67812198400497, -74.67832231521606, 0.11200000531971455, -0.04800000227987766, 0.9920000471174717, 0.0, 0.0, 0.0, 0.0, 0.0, 1.7063900371709044E9, 0.0, 2024-01-27 16:13:57.170
12.0, -342.7543511390686, -336.0524504184723, -243.66196191310883, -84.25246620178223, 0.11200000531971455, -0.04800000227987766, 0.9920000471174717, 0.0, 0.0, 0.0, 0.0, 0.0, 1.7063900371709044E9, 0.0, 2024-01-27 16:13:57.170
13.0, -413.84236949682236, -321.69123458862305, -197.70607125759125, -146.48440146446228, 0.11200000531971455, -0.04800000227987766, 0.9920000471174717, 0.0, 0.0, 0.0, 0.0, 0.0, 1.7063900371714027E9, 0.0, 2024-01-27 16:13:57.171
13.0, -314.98933386802673, -330.3079640865326, -222.12013816833496, -98.61368203163147, 0.11200000531971455, -0.04800000227987766, 0.9920000471174717, 0.0, 0.0, 0.0, 0.0, 0.0, 1.7063900371714027E9, 0.0, 2024-01-27 16:13:57.171
14.0, -317.6222234368324, -342.99370473623276, -248.92774105072021, -69.89125037193298, 0.11200000531971455, -0.04800000227987766, 0.9920000471174717, 0.0, 0.0, 0.0, 0.0, 0.0, 1.7063900371847136E9, 0.0, 2024-01-27 16:13:57.184
14.0, -405.2256399989128, -324.5634777545929, -211.34922629594803, -133.79866081476212, 0.11200000531971455, -0.04800000227987766, 0.9920000471174717, 0.0, 0.0, 0.0, 0.0, 0.0, 1.7063900371847136E9, 0.0, 2024-01-27 16:13:57.184
15.0, -349.21689826250076, -325.0421849489212, -212.78534787893295, -126.85740649700165, 0.11200000531971455, -0.04800000227987766, 0.9920000471174717, 0.0, 0.0, 0.0, 0.0, 0.0, 1.706390037200392E9, 0.0, 2024-01-27 16:13:57.200
15.0, -297.0378140807152, -344.66917991638184, -253.95416659116745, -65.82223922014236, 0.11200000531971455, -0.04800000227987766, 0.9920000471174717, 0.0, 0.0, 0.0, 0.0, 0.0, 1.706390037200392E9, 0.0, 2024-01-27 16:13:57.200
16.0, -378.6573907136917, -328.39313530921936, -220.68401658535004, -108.66653311252594, 0.11200000531971455, -0.04800000227987766, 0.9920000471174717, 0.0, 0.0, 0.0, 0.0, 0.0, 1.7063900372010927E9, 0.0, 2024-01-27 16:13:57.201
16.0, -377.2212691307068, -309.4842011332512, -198.90283924341202, -141.6973295211792, 0.11200000531971455, -0.04800000227987766, 0.9920000471174717, 0.0, 0.0, 0.0, 0.0, 0.0, 1.7063900372010927E9, 0.0, 2024-01-27 16:13:57.201
17.0, -283.8733662366867, -334.13762164115906, -240.78971874713898, -81.14086943864822, 0.11200000531971455, -0.04800000227987766, 0.9920000471174717, 0.0, 0.0, 0.0, 0.0, 0.0, 1.7063900372146828E9, 0.0, 2024-01-27 16:13:57.214
17.0, -333.8982680439949, -325.28153854608536, -236.0026468038559, -77.78991907835007, 0.11200000531971455, -0.04800000227987766, 0.9920000471174717, 0.0, 0.0, 0.0, 0.0, 0.0, 1.7063900372146828E9, 0.0, 2024-01-27 16:13:57.214
18.0, -394.69408172369003, -308.2874331474304, -198.18477845191956, -148.87793743610382, 0.11200000531971455, -0.04800000227987766, 0.9920000471174717, 0.0, 0.0, 0.0, 0.0, 0.0, 1.706390037230372E9, 0.0, 2024-01-27 16:13:57.230
18.0, -299.6707036495209, -321.4518809914589, -224.75302773714066, -105.79428994655609, 0.11200000531971455, -0.04800000227987766, 0.9920000471174717, 0.0, 0.0, 0.0, 0.0, 0.0, 1.706390037230372E9, 0.0, 2024-01-27 16:13:57.230
19.0, -304.2184219956398, -335.0950360298157, -252.03933781385422, -73.24220073223114, 0.11200000531971455, -0.04800000227987766, 0.9920000471174717, 0.0, 0.0, 0.0, 0.0, 0.0, 1.7063900372310889E9, 0.0, 2024-01-27 16:13:57.231
19.0, -398.28438568115234, -321.4518809914589, -216.1362982392311, -136.67090398073196, 0.11200000531971455, -0.04800000227987766, 0.9920000471174717, 0.0, 0.0, 0.0, 0.0, 0.0, 1.7063900372310889E9, 0.0, 2024-01-27 16:13:57.231
20.0, -343.9511191248894, -320.4944666028023, -214.93953025341034, -134.51672160625458, 0.11200000531971455, -0.04800000227987766, 0.9920000471174717, 0.0, 0.0, 0.0, 0.0, 0.0, 1.706390037245156E9, 0.0, 2024-01-27 16:13:57.245
20.0, -291.2933277487755, -345.8659479022026, -259.21994572877884, -73.72090792655945, 0.11200000531971455, -0.04800000227987766, 0.9920000471174717, 0.0, 0.0, 0.0, 0.0, 0.0, 1.706390037245156E9, 0.0, 2024-01-27 16:13:57.245
21.0, -380.09351229667664, -330.3079640865326, -229.06139248609543, -110.58136188983917, 0.11200000531971455, -0.04800000227987766, 0.9920000471174717, 0.0, 0.0, 0.0, 0.0, 0.0, 1.706390037260511E9, 0.0, 2024-01-27 16:13:57.260
21.0, -388.2315346002579, -322.4092953801155, -207.2802151441574, -149.59599822759628, 0.11200000531971455, -0.04800000227987766, 0.9920000471174717, 0.0, 0.0, 0.0, 0.0, 0.0, 1.706390037260511E9, 0.0, 2024-01-27 16:13:57.260
22.0, -292.96880292892456, -341.796936750412, -249.16709464788437, -87.60341656208038, 0.11200000531971455, -0.04800000227987766, 0.9920000471174717, 0.0, 0.0, 0.0, 0.0, 0.0, 1.7063900372610867E9, 0.0, 2024-01-27 16:13:57.261
22.0, -348.73819106817245, -342.99370473623276, -250.12450903654099, -91.43307411670685, 0.11200000531971455, -0.04800000227987766, 0.9920000471174717, 0.0, 0.0, 0.0, 0.0, 0.0, 1.7063900372610867E9, 0.0, 2024-01-27 16:13:57.261
23.0, -402.83210402727127, -314.98933386802673, -203.6899111866951, -152.94694858789444, 0.11200000531971455, -0.04800000227987766, 0.9920000471174717, 0.0, 0.0, 0.0, 0.0, 0.0, 1.7063900372747684E9, 0.0, 2024-01-27 16:13:57.274
23.0, -301.82488602399826, -322.64864897727966, -222.59884536266327, -99.33174282312393, 0.11200000531971455, -0.04800000227987766, 0.9920000471174717, 0.0, 0.0, 0.0, 0.0, 0.0, 1.7063900372747684E9, 0.0, 2024-01-27 16:13:57.274
24.0, -301.82488602399826, -330.7866712808609, -245.57679069042206, -67.7370679974556, 0.11200000531971455, -0.04800000227987766, 0.9920000471174717, 0.0, 0.0, 0.0, 0.0, 0.0, 1.7063900372906125E9, 0.0, 2024-01-27 16:13:57.290
24.0, -390.38571697473526, -308.2874331474304, -208.23762953281403, -131.16577124595642, 0.11200000531971455, -0.04800000227987766, 0.9920000471174717, 0.0, 0.0, 0.0, 0.0, 0.0, 1.7063900372906125E9, 0.0, 2024-01-27 16:13:57.290
25.0, -333.4195608496666, -307.56937235593796, -200.81766802072525, -117.52261620759964, 0.11200000531971455, -0.04800000227987766, 0.9920000471174717, 0.0, 0.0, 0.0, 0.0, 0.0, 1.706390037291175E9, 0.0, 2024-01-27 16:13:57.291
25.0, -275.017283141613, -330.54731768369675, -248.4490338563919, -65.82223922014236, 0.11200000531971455, -0.04800000227987766, 0.9920000471174717, 0.0, 0.0, 0.0, 0.0, 0.0, 1.706390037291175E9, 0.0, 2024-01-27 16:13:57.291
26.0, -365.7322964668274, -316.42545545101166, -218.52983421087265, -102.68269318342209, 0.11200000531971455, -0.04800000227987766, 0.9920000471174717, 0.0, 0.0, 0.0, 0.0, 0.0, 1.7063900373051147E9, 0.0, 2024-01-27 16:13:57.305
26.0, -367.1684180498123, -307.56937235593796, -202.25378960371017, -141.45797592401505, 0.11200000531971455, -0.04800000227987766, 0.9920000471174717, 0.0, 0.0, 0.0, 0.0, 0.0, 1.7063900373051147E9, 0.0, 2024-01-27 16:13:57.305
27.0, -279.0862942934036, -324.80283135175705, -231.93363565206528, -73.72090792655945, 0.11200000531971455, -0.04800000227987766, 0.9920000471174717, 0.0, 0.0, 0.0, 0.0, 0.0, 1.706390037320347E9, 0.0, 2024-01-27 16:13:57.320
27.0, -336.29180401563644, -327.91442811489105, -236.9600611925125, -79.7047478556633, 0.11200000531971455, -0.04800000227987766, 0.9920000471174717, 0.0, 0.0, 0.0, 0.0, 0.0, 1.706390037320347E9, 0.0, 2024-01-27 16:13:57.320
28.0, -399.72050726413727, -309.0054939389229, -194.59447449445724, -140.02185434103012, 0.11200000531971455, -0.04800000227987766, 0.9920000471174717, 0.0, 0.0, 0.0, 0.0, 0.0, 1.7063900373210924E9, 0.0, 2024-01-27 16:13:57.321
28.0, -314.0319194793701, -325.5208921432495, -224.5136741399765, -102.68269318342209, 0.11200000531971455, -0.04800000227987766, 0.9920000471174717, 0.0, 0.0, 0.0, 0.0, 0.0, 1.7063900373210924E9, 0.0, 2024-01-27 16:13:57.321
29.0, -310.9203227162361, -341.55758315324783, -245.8161442875862, -67.97642159461975, 0.11200000531971455, -0.04800000227987766, 0.9920000471174717, 0.0, 0.0, 0.0, 0.0, 0.0, 1.706390037334689E9, 0.0, 2024-01-27 16:13:57.334
29.0, -403.7895184159279, -321.4518809914589, -207.2802151441574, -127.0967600941658, 0.11200000531971455, -0.04800000227987766, 0.9920000471174717, 0.0, 0.0, 0.0, 0.0, 0.0, 1.706390037334689E9, 0.0, 2024-01-27 16:13:57.334
30.0, -349.21689826250076, -321.9305881857872, -206.8015079498291, -118.00132340192795, 0.11200000531971455, -0.04800000227987766, 0.9920000471174717, 0.0, 0.0, 0.0, 0.0, 0.0, 1.7063900373504896E9, 0.0, 2024-01-27 16:13:57.350
30.0, -290.575266957283, -346.8233622908592, -255.62964177131653, -66.77965360879898, 0.11200000531971455, -0.04800000227987766, 0.9920000471174717, 0.0, 0.0, 0.0, 0.0, 0.0, 1.7063900373504896E9, 0.0, 2024-01-27 16:13:57.350
31.0, -383.9231698513031, -335.81309682130814, -224.0349669456482, -103.6401075720787, 0.11200000531971455, -0.03200000151991844, 0.9920000471174717, 0.0, 0.0, 0.0, 0.0, 0.0, 1.7063900373511949E9, 0.0, 2024-01-27 16:13:57.351
31.0, -383.20510905981064, -320.2551130056381, -198.66348564624786, -141.45797592401505, 0.11200000531971455, -0.03200000151991844, 0.9920000471174717, 0.0, 0.0, 0.0, 0.0, 0.0, 1.7063900373511949E9, 0.0, 2024-01-27 16:13:57.351
32.0, -291.7720349431038, -338.685339987278, -234.80587881803513, -74.43896871805191, 0.09600000455975533, -0.03200000151991844, 0.9920000471174717, 0.0, 0.0, 0.0, 0.0, 0.0, 1.7063900373646991E9, 0.0, 2024-01-27 16:13:57.364
32.0, -341.0788759589195, -335.0950360298157, -232.17298924922943, -70.60931116342545, 0.09600000455975533, -0.03200000151991844, 0.9920000471174717, 0.0, 0.0, 0.0, 0.0, 0.0, 1.7063900373646991E9, 0.0, 2024-01-27 16:13:57.364
33.0, -403.3108112215996, -310.9203227162361, -189.80740255117416, -134.99542880058289, 0.09600000455975533, -0.03200000151991844, 0.9920000471174717, 0.0, 0.0, 0.0, 0.0, 0.0, 1.706390037380344E9, 0.0, 2024-01-27 16:13:57.380
33.0, -312.5957978963852, -324.5634777545929, -214.70017665624619, -94.06596368551254, 0.09600000455975533, -0.03200000151991844, 0.9920000471174717, 0.0, 0.0, 0.0, 0.0, 0.0, 1.706390037380344E9, 0.0, 2024-01-27 16:13:57.380
34.0, -306.61195796728134, -335.3343896269798, -238.6355363726616, -56.487448930740356, 0.09600000455975533, -0.03200000151991844, 0.9920000471174717, 0.0, 0.0, 0.0, 0.0, 0.0, 1.7063900373810637E9, 0.0, 2024-01-27 16:13:57.381
34.0, -408.3372367620468, -322.16994178295135, -201.77508240938187, -121.3522737622261, 0.09600000455975533, -0.03200000151991844, 0.9920000471174717, 0.0, 0.0, 0.0, 0.0, 0.0, 1.7063900373810637E9, 0.0, 2024-01-27 16:13:57.381
35.0, -352.5678486227989, -321.9305881857872, -202.97185039520264, -119.19809138774872, 0.09600000455975533, -0.03200000151991844, 0.9920000471174717, 0.0, 0.0, 0.0, 0.0, 0.0, 1.706390037395008E9, 0.0, 2024-01-27 16:13:57.395
35.0, -293.44751012325287, -343.9511191248894, -245.3374370932579, -61.51387447118759, 0.09600000455975533, -0.03200000151991844, 0.9920000471174717, 0.0, 0.0, 0.0, 0.0, 0.0, 1.706390037395008E9, 0.0, 2024-01-27 16:13:57.395
36.0, -383.68381625413895, -331.02602487802505, -228.34333169460297, -103.6401075720787, 0.09600000455975533, -0.03200000151991844, 0.9920000471174717, 0.0, 0.0, 0.0, 0.0, 0.0, 1.7063900374107344E9, 0.0, 2024-01-27 16:13:57.410
36.0, -387.75282740592957, -323.6060633659363, -199.86025363206863, -140.97926872968674, 0.09600000455975533, -0.03200000151991844, 0.9920000471174717, 0.0, 0.0, 0.0, 0.0, 0.0, 1.7063900374107344E9, 0.0, 2024-01-27 16:13:57.410
37.0, -290.575266957283, -340.6001687645912, -236.0026468038559, -76.83250468969345, 0.09600000455975533, -0.03200000151991844, 0.9920000471174717, 0.0, 0.0, 0.0, 0.0, 0.0, 1.7063900374112115E9, 0.0, 2024-01-27 16:13:57.411
37.0, -346.8233622908592, -336.77051120996475, -240.78971874713898, -80.66216224431992, 0.09600000455975533, -0.03200000151991844, 0.9920000471174717, 0.0, 0.0, 0.0, 0.0, 0.0, 1.7063900374112115E9, 0.0, 2024-01-27 16:13:57.411
38.0, -413.6030158996582, -315.7073946595192, -201.0570216178894, -143.85151189565659, 0.09600000455975533, -0.03200000151991844, 0.9920000471174717, 0.0, 0.0, 0.0, 0.0, 0.0, 1.7063900374246607E9, 0.0, 2024-01-27 16:13:57.424
38.0, -312.5957978963852, -325.5208921432495, -217.09371262788773, -98.13497483730316, 0.09600000455975533, -0.03200000151991844, 0.9920000471174717, 0.0, 0.0, 0.0, 0.0, 0.0, 1.7063900374246607E9, 0.0, 2024-01-27 16:13:57.424
39.0, -314.7499802708626, -339.88210797309875, -243.18325471878052, -61.9925816655159, 0.09600000455975533, -0.03200000151991844, 0.9920000471174717, 0.0, 0.0, 0.0, 0.0, 0.0, 1.7063900374404106E9, 0.0, 2024-01-27 16:13:57.440
39.0, -407.3798223733902, -320.2551130056381, -204.64732557535172, -124.22451692819595, 0.09600000455975533, -0.03200000151991844, 0.9920000471174717, 0.0, 0.0, 0.0, 0.0, 0.0, 1.7063900374404106E9, 0.0, 2024-01-27 16:13:57.440
40.0, -347.5414230823517, -317.8615770339966, -196.03059607744217, -115.1290802359581, 0.09600000455975533, -0.03200000151991844, 0.9920000471174717, 0.0, 0.0, 0.0, 0.0, 0.0, 1.70639003744113E9, 0.0, 2024-01-27 16:13:57.441
40.0, -290.0965597629547, -336.77051120996475, -241.02907234430313, -60.31710648536682, 0.09600000455975533, -0.03200000151991844, 0.9920000471174717, 0.0, 0.0, 0.0, 0.0, 0.0, 1.70639003744113E9, 0.0, 2024-01-27 16:13:57.441
41.0, -382.72640186548233, -325.76024574041367, -217.57241982221603, -100.0498036146164, 0.09600000455975533, -0.03200000151991844, 0.9920000471174717, 0.0, 0.0, 0.0, 0.0, 0.0, 1.706390037454778E9, 0.0, 2024-01-27 16:13:57.454
41.0, -386.79541301727295, -319.7764058113098, -197.4667176604271, -143.61215829849243, 0.09600000455975533, -0.03200000151991844, 0.9920000471174717, 0.0, 0.0, 0.0, 0.0, 0.0, 1.706390037454778E9, 0.0, 2024-01-27 16:13:57.454
42.0, -293.9262173175812, -339.88210797309875, -241.50777953863144, -84.01311260461807, 0.09600000455975533, -0.03200000151991844, 0.9920000471174717, 0.0, 0.0, 0.0, 0.0, 0.0, 1.706390037470513E9, 0.0, 2024-01-27 16:13:57.470
42.0, -347.78077667951584, -338.685339987278, -239.5929507613182, -80.66216224431992, 0.09600000455975533, -0.03200000151991844, 0.9920000471174717, 0.0, 0.0, 0.0, 0.0, 0.0, 1.706390037470513E9, 0.0, 2024-01-27 16:13:57.470
43.0, -404.50757920742035, -310.68096911907196, -200.0996072292328, -142.89409750699997, 0.09600000455975533, -0.03200000151991844, 0.9920000471174717, 0.0, 0.0, 0.0, 0.0, 0.0, 1.706390037471336E9, 0.0, 2024-01-27 16:13:57.471
43.0, -317.8615770339966, -330.7866712808609, -221.4020773768425, -104.35816836357117, 0.09600000455975533, -0.03200000151991844, 0.9920000471174717, 0.0, 0.0, 0.0, 0.0, 0.0, 1.706390037471336E9, 0.0, 2024-01-27 16:13:57.471
44.0, -309.9629083275795, -336.5311576128006, -238.87488996982574, -62.949996054172516, 0.09600000455975533, -0.03200000151991844, 0.9920000471174717, 0.0, 0.0, 0.0, 0.0, 0.0, 1.7063900374846737E9, 0.0, 2024-01-27 16:13:57.484
44.0, -401.6353360414505, -317.8615770339966, -197.9454248547554, -125.42128491401672, 0.09600000455975533, -0.03200000151991844, 0.9920000471174717, 0.0, 0.0, 0.0, 0.0, 0.0, 1.7063900374846737E9, 0.0, 2024-01-27 16:13:57.484
45.0, -347.30206948518753, -314.0319194793701, -200.5783144235611, -120.39485937356949, 0.09600000455975533, -0.03200000151991844, 0.9920000471174717, 0.0, 0.0, 0.0, 0.0, 0.0, 1.706390037500712E9, 0.0, 2024-01-27 16:13:57.500
45.0, -289.37849897146225, -336.0524504184723, -246.29485148191452, -59.83839929103851, 0.09600000455975533, -0.03200000151991844, 0.9920000471174717, 0.0, 0.0, 0.0, 0.0, 0.0, 1.706390037500712E9, 0.0, 2024-01-27 16:13:57.500
46.0, -378.89674431085587, -323.6060633659363, -215.1788838505745, -103.87946116924286, 0.09600000455975533, -0.03200000151991844, 0.9920000471174717, 0.0, 0.0, 0.0, 0.0, 0.0, 1.706390037501221E9, 0.0, 2024-01-27 16:13:57.501
46.0, -384.8805842399597, -312.35644429922104, -189.80740255117416, -134.51672160625458, 0.09600000455975533, -0.03200000151991844, 0.9920000471174717, 0.0, 0.0, 0.0, 0.0, 0.0, 1.706390037501221E9, 0.0, 2024-01-27 16:13:57.501
47.0, -289.37849897146225, -330.7866712808609, -234.80587881803513, -75.15702950954437, 0.09600000455975533, -0.03200000151991844, 0.9920000471174717, 0.0, 0.0, 0.0, 0.0, 0.0, 1.7063900375148757E9, 0.0, 2024-01-27 16:13:57.514
47.0, -340.36081516742706, -328.39313530921936, -230.49751406908035, -79.7047478556633, 0.09600000455975533, -0.03200000151991844, 0.9920000471174717, 0.0, 0.0, 0.0, 0.0, 0.0, 1.7063900375148757E9, 0.0, 2024-01-27 16:13:57.514
48.0, -406.66176158189774, -319.53705221414566, -198.66348564624786, -145.04827988147736, 0.09600000455975533, -0.03200000151991844, 0.9920000471174717, 0.0, 0.0, 0.0, 0.0, 0.0, 1.706390037530444E9, 0.0, 2024-01-27 16:13:57.530
48.0, -310.20226192474365, -323.12735617160797, -223.07755255699158, -99.81045001745224, 0.09600000455975533, -0.03200000151991844, 0.9920000471174717, 0.0, 0.0, 0.0, 0.0, 0.0, 1.706390037530444E9, 0.0, 2024-01-27 16:13:57.530
49.0, -309.9629083275795, -336.5311576128006, -239.83230435848236, -66.30094641447067, 0.09600000455975533, -0.03200000151991844, 0.9920000471174717, 0.0, 0.0, 0.0, 0.0, 0.0, 1.7063900375311227E9, 0.0, 2024-01-27 16:13:57.531
49.0, -401.6353360414505, -315.94674825668335, -205.12603276968002, -126.13934570550919, 0.09600000455975533, -0.03200000151991844, 0.9920000471174717, 0.0, 0.0, 0.0, 0.0, 0.0, 1.7063900375311227E9, 0.0, 2024-01-27 16:13:57.531
50.0, -352.0891414284706, -322.16994178295135, -208.47698312997818, -124.22451692819595, 0.09600000455975533, -0.03200000151991844, 0.9920000471174717, 0.0, 0.0, 0.0, 0.0, 0.0, 1.706390037544689E9, 0.0, 2024-01-27 16:13:57.544
50.0, -287.9423773884773, -339.88210797309875, -245.57679069042206, -60.79581367969513, 0.09600000455975533, -0.03200000151991844, 0.9920000471174717, 0.0, 0.0, 0.0, 0.0, 0.0, 1.706390037544689E9, 0.0, 2024-01-27 16:13:57.544
51.0, -378.41803711652756, -326.95701372623444, -211.34922629594803, -96.93820685148239, 0.09600000455975533, -0.03200000151991844, 0.9920000471174717, 0.0, 0.0, 0.0, 0.0, 0.0, 1.7063900375606904E9, 0.0, 2024-01-27 16:13:57.560
51.0, -383.4444626569748, -317.3828698396683, -200.81766802072525, -139.5431471467018, 0.09600000455975533, -0.03200000151991844, 0.9920000471174717, 0.0, 0.0, 0.0, 0.0, 0.0, 1.7063900375606904E9, 0.0, 2024-01-27 16:13:57.560
52.0, -286.9849629998207, -330.3079640865326, -236.72070759534836, -74.91767591238022, 0.09600000455975533, -0.03200000151991844, 0.9920000471174717, 0.0, 0.0, 0.0, 0.0, 0.0, 1.7063900375612907E9, 0.0, 2024-01-27 16:13:57.561
52.0, -334.8556824326515, -324.0847705602646, -231.21557486057281, -74.67832231521606, 0.09600000455975533, -0.03200000151991844, 0.9920000471174717, 0.0, 0.0, 0.0, 0.0, 0.0, 1.7063900375612907E9, 0.0, 2024-01-27 16:13:57.561
53.0, -397.5663248896599, -306.8513115644455, -194.3551208972931, -137.38896477222443, 0.09600000455975533, -0.03200000151991844, 0.9920000471174717, 0.0, 0.0, 0.0, 0.0, 0.0, 1.70639003757472E9, 0.0, 2024-01-27 16:13:57.574
53.0, -307.56937235593796, -320.73382019996643, -213.50340867042542, -91.1937205195427, 0.09600000455975533, -0.03200000151991844, 0.9920000471174717, 0.0, 0.0, 0.0, 0.0, 0.0, 1.70639003757472E9, 0.0, 2024-01-27 16:13:57.574
54.0, -309.0054939389229, -338.44598639011383, -244.14066910743713, -64.14676403999329, 0.09600000455975533, -0.03200000151991844, 0.9920000471174717, 0.0, 0.0, 0.0, 0.0, 0.0, 1.7063900375904331E9, 0.0, 2024-01-27 16:13:57.590
54.0, -400.6779216527939, -317.3828698396683, -205.12603276968002, -118.71938419342041, 0.09600000455975533, -0.03200000151991844, 0.9920000471174717, 0.0, 0.0, 0.0, 0.0, 0.0, 1.7063900375904331E9, 0.0, 2024-01-27 16:13:57.590
55.0, -345.8659479022026, -316.90416264533997, -199.62090003490448, -114.88972663879395, 0.09600000455975533, -0.03200000151991844, 0.9920000471174717, 0.0, 0.0, 0.0, 0.0, 0.0, 1.7063900375910976E9, 0.0, 2024-01-27 16:13:57.591
55.0, -285.78819501399994, -337.9672791957855, -238.39618277549744, -53.1364985704422, 0.09600000455975533, -0.03200000151991844, 0.9920000471174717, 0.0, 0.0, 0.0, 0.0, 0.0, 1.7063900375910976E9, 0.0, 2024-01-27 16:13:57.591
56.0, -374.82773315906525, -323.6060633659363, -215.1788838505745, -90.71501332521439, 0.09600000455975533, -0.03200000151991844, 0.9920000471174717, 0.0, 0.0, 0.0, 0.0, 0.0, 1.706390037605012E9, 0.0, 2024-01-27 16:13:57.605
56.0, -376.7425619363785, -308.2874331474304, -195.55188888311386, -133.08060002326965, 0.09600000455975533, -0.03200000151991844, 0.9920000471174717, 0.0, 0.0, 0.0, 0.0, 0.0, 1.706390037605012E9, 0.0, 2024-01-27 16:13:57.605
57.0, -282.4372446537018, -333.18020725250244, -234.80587881803513, -69.65189677476883, 0.09600000455975533, -0.03200000151991844, 0.9920000471174717, 0.0, 0.0, 0.0, 0.0, 0.0, 1.7063900376203918E9, 0.0, 2024-01-27 16:13:57.620
57.0, -335.573743224144, -331.50473207235336, -234.32717162370682, -70.36995756626129, 0.09600000455975533, -0.03200000151991844, 0.9920000471174717, 0.0, 0.0, 0.0, 0.0, 0.0, 1.7063900376203918E9, 0.0, 2024-01-27 16:13:57.620
58.0, -399.9598608613014, -313.0745050907135, -191.96158492565155, -135.4741359949112, 0.09600000455975533, -0.03200000151991844, 0.9920000471174717, 0.0, 0.0, 0.0, 0.0, 0.0, 1.7063900376211047E9, 0.0, 2024-01-27 16:13:57.621
58.0, -311.3990299105644, -322.4092953801155, -214.93953025341034, -93.10854929685593, 0.09600000455975533, -0.03200000151991844, 0.9920000471174717, 0.0, 0.0, 0.0, 0.0, 0.0, 1.7063900376211047E9, 0.0, 2024-01-27 16:13:57.621
59.0, -308.5267867445946, -333.4195608496666, -244.14066910743713, -56.72680252790451, 0.09600000455975533, -0.03200000151991844, 0.9920000471174717, 0.0, 0.0, 0.0, 0.0, 0.0, 1.706390037634886E9, 0.0, 2024-01-27 16:13:57.634
59.0, -400.91727524995804, -318.10093063116074, -204.40797197818756, -121.11292016506195, 0.09600000455975533, -0.03200000151991844, 0.9920000471174717, 0.0, 0.0, 0.0, 0.0, 0.0, 1.706390037634886E9, 0.0, 2024-01-27 16:13:57.634
60.0, -353.52526301145554, -319.7764058113098, -205.12603276968002, -123.9851633310318, 0.09600000455975533, -0.03200000151991844, 0.9920000471174717, 0.0, 0.0, 0.0, 0.0, 0.0, 1.7063900376508768E9, 0.0, 2024-01-27 16:13:57.650
60.0, -285.78819501399994, -335.573743224144, -249.40644824504852, -61.51387447118759, 0.09600000455975533, -0.03200000151991844, 0.9920000471174717, 0.0, 0.0, 0.0, 0.0, 0.0, 1.7063900376508768E9, 0.0, 2024-01-27 16:13:57.650
61.0, -377.6999763250351, -326.95701372623444, -221.64143097400665, -105.07622915506363, 0.09600000455975533, -0.03200000151991844, 0.9920000471174717, 0.0, 0.0, 0.0, 0.0, 0.0, 1.7063900376511607E9, 0.0, 2024-01-27 16:13:57.651
61.0, -377.6999763250351, -316.42545545101166, -202.01443600654602, -137.38896477222443, 0.09600000455975533, -0.03200000151991844, 0.9920000471174717, 0.0, 0.0, 0.0, 0.0, 0.0, 1.7063900376511607E9, 0.0, 2024-01-27 16:13:57.651
62.0, -283.15530544519424, -330.06861048936844, -231.45492845773697, -73.9602615237236, 0.09600000455975533, -0.03200000151991844, 0.9920000471174717, 0.0, 0.0, 0.0, 0.0, 0.0, 1.7063900376647403E9, 0.0, 2024-01-27 16:13:57.664
62.0, -333.18020725250244, -328.87184250354767, -235.04523241519928, -73.00284713506699, 0.09600000455975533, -0.03200000151991844, 0.9920000471174717, 0.0, 0.0, 0.0, 0.0, 0.0, 1.7063900376647403E9, 0.0, 2024-01-27 16:13:57.664
63.0, -398.0450320839882, -305.41518998146057, -188.84998816251755, -132.3625392317772, 0.09600000455975533, -0.03200000151991844, 0.9920000471174717, 0.0, 0.0, 0.0, 0.0, 0.0, 1.7063900376807163E9, 0.0, 2024-01-27 16:13:57.680
63.0, -303.02165400981903, -313.31385868787766, -210.87051910161972, -88.80018454790115, 0.09600000455975533, -0.03200000151991844, 0.9920000471174717, 0.0, 0.0, 0.0, 0.0, 0.0, 1.7063900376807163E9, 0.0, 2024-01-27 16:13:57.680
64.0, -301.1068252325058, -328.1537817120552, -232.17298924922943, -57.92357051372528, 0.09600000455975533, -0.03200000151991844, 0.9920000471174717, 0.0, 0.0, 0.0, 0.0, 0.0, 1.70639003768128E9, 0.0, 2024-01-27 16:13:57.681
64.0, -396.8482640981674, -314.7499802708626, -200.5783144235611, -124.22451692819595, 0.09600000455975533, -0.03200000151991844, 0.9920000471174717, 0.0, 0.0, 0.0, 0.0, 0.0, 1.70639003768128E9, 0.0, 2024-01-27 16:13:57.681
