%OpenBCI Raw EXG Data
%Number of channels = 4
%Sample Rate = 200 Hz
%Board = OpenBCI_GUI$BoardGanglionBLE
Sample Index, EXG Channel 0, EXG Channel 1, EXG Channel 2, EXG Channel 3, Accel Channel 0, Accel Channel 1, Accel Channel 2, Other, Other, Other, Other, Other, Timestamp, Other, Timestamp (Formatted)
77.0, -373.15225797891617, -415.51784467697144, -224.5136741399765, -20.823762953281403, 0.0, 0.0, 0.0, 0.0, 0.0, 0.0, 0.0, 0.0, 1.705451098279661E9, 0.0, 2024-01-16 19:24:58.279
77.0, 0.0, 0.0, 0.0, 0.0, 0.0, 0.0, 0.0, 0.0, 0.0, 0.0, 0.0, 0.0, 1.705451098279661E9, 0.0, 2024-01-16 19:24:58.279
0.0, -460.27696734666824, -417.911380648613, -224.27432054281235, -124.22451692819595, 0.0, 0.0, 0.9760000463575125, 0.0, 0.0, 0.0, 0.0, 0.0, 1.7054510983222835E9, 0.0, 2024-01-16 19:24:58.322
0.0, -368.3651860356331, -409.29465115070343, -221.64143097400665, -9.334790289402008, 0.0, 0.0, 0.9760000463575125, 0.0, 0.0, 0.0, 0.0, 0.0, 1.7054510983222835E9, 0.0, 2024-01-16 19:24:58.322
1.0, -365.97165006399155, -431.7938892841339, -240.31101155281067, -76.11444389820099, 0.0, -0.9760000463575125, 0.9760000463575125, 0.0, 0.0, 0.0, 0.0, 0.0, 1.7054510983370073E9, 0.0, 2024-01-16 19:24:58.337
1.0, -454.2931274175644, -421.5016846060753, -237.43876838684082, -150.79276621341705, 0.0, -0.9760000463575125, 0.9760000463575125, 0.0, 0.0, 0.0, 0.0, 0.0, 1.7054510983370073E9, 0.0, 2024-01-16 19:24:58.337
2.0, -401.39598244428635, -403.3108112215996, -219.72660219669342, -41.88687950372696, -0.9760000463575125, -0.9760000463575125, 0.9760000463575125, 0.0, 0.0, 0.0, 0.0, 0.0, 1.7054510983514104E9, 0.0, 2024-01-16 19:24:58.351
2.0, -338.44598639011383, -415.0391374826431, -236.0026468038559, -32.07338201999664, -0.9760000463575125, -0.9760000463575125, 0.9760000463575125, 0.0, 0.0, 0.0, 0.0, 0.0, 1.7054510983514104E9, 0.0, 2024-01-16 19:24:58.351
3.0, -429.40035331249237, -423.6558669805527, -242.46519392728806, -146.24504786729813, -0.9760000463575125, -0.9760000463575125, 0.9760000463575125, 0.0, 0.0, 0.0, 0.0, 0.0, 1.705451098352121E9, 0.0, 2024-01-16 19:24:58.352
3.0, -434.4267788529396, -409.29465115070343, -221.8807845711708, -80.90151584148407, -0.9760000463575125, -0.9760000463575125, 0.9760000463575125, 0.0, 0.0, 0.0, 0.0, 0.0, 1.705451098352121E9, 0.0, 2024-01-16 19:24:58.352
4.0, -381.2902802824974, -415.7571982741356, -220.44466298818588, -42.12623310089111, -0.9760000463575125, -0.9760000463575125, 0.9760000463575125, 0.0, 0.0, 0.0, 0.0, 0.0, 1.7054510983657236E9, 0.0, 2024-01-16 19:24:58.365
4.0, -393.01860654354095, -427.246170938015, -242.94390112161636, -97.4169140458107, -0.9760000463575125, -0.9760000463575125, 0.9760000463575125, 0.0, 0.0, 0.0, 0.0, 0.0, 1.7054510983657236E9, 0.0, 2024-01-16 19:24:58.365
5.0, -407.8585295677185, -414.799783885479, -225.94979572296143, -98.13497483730316, -0.9760000463575125, -0.9760000463575125, 0.9760000463575125, 0.0, 0.0, 0.0, 0.0, 0.0, 1.7054510983814485E9, 0.0, 2024-01-16 19:24:58.381
5.0, -390.86442416906357, -414.32107669115067, -225.71044212579727, -48.110073029994965, -0.9760000463575125, -0.9760000463575125, 0.9760000463575125, 0.0, 0.0, 0.0, 0.0, 0.0, 1.7054510983814485E9, 0.0, 2024-01-16 19:24:58.381
6.0, -386.31670582294464, -426.28875654935837, -244.61937630176544, -78.98668706417084, -0.9760000463575125, -0.9760000463575125, 0.9760000463575125, 0.0, 0.0, 0.0, 0.0, 0.0, 1.7054510983821416E9, 0.0, 2024-01-16 19:24:58.382
6.0, -414.5604302883148, -423.6558669805527, -241.02907234430313, -110.82071548700333, -0.9760000463575125, -0.9760000463575125, 0.9760000463575125, 0.0, 0.0, 0.0, 0.0, 0.0, 1.7054510983821416E9, 0.0, 2024-01-16 19:24:58.382
7.0, -407.8585295677185, -421.26233100891113, -223.31690615415573, -60.07775288820267, -0.9760000463575125, -0.9760000463575125, 0.9760000463575125, 0.0, 0.0, 0.0, 0.0, 0.0, 1.705451098395769E9, 0.0, 2024-01-16 19:24:58.395
7.0, -385.5986450314522, -423.8952205777168, -234.80587881803513, -60.79581367969513, -0.9760000463575125, -0.9760000463575125, 0.9760000463575125, 0.0, 0.0, 0.0, 0.0, 0.0, 1.705451098395769E9, 0.0, 2024-01-16 19:24:58.395
8.0, -405.46499359607697, -427.00681734085083, -241.7471331357956, -107.46976512670517, -0.9760000463575125, -0.9760000463575125, 0.9760000463575125, 0.0, 0.0, 0.0, 0.0, 0.0, 1.7054510984117215E9, 0.0, 2024-01-16 19:24:58.411
8.0, -419.3475022315979, -424.85263496637344, -233.60911083221436, -78.98668706417084, -0.9760000463575125, -0.9760000463575125, 0.9760000463575125, 0.0, 0.0, 0.0, 0.0, 0.0, 1.7054510984117215E9, 0.0, 2024-01-16 19:24:58.411
9.0, -393.7366673350334, -423.8952205777168, -235.04523241519928, -52.17908418178558, -0.9760000463575125, -0.9760000463575125, 0.9760000463575125, 0.0, 0.0, 0.0, 0.0, 0.0, 1.7054510984123173E9, 0.0, 2024-01-16 19:24:58.412
9.0, -408.8159439563751, -430.11841410398483, -243.90131551027298, -95.74143886566162, -0.9760000463575125, -0.9760000463575125, 0.9760000463575125, 0.0, 0.0, 0.0, 0.0, 0.0, 1.7054510984123173E9, 0.0, 2024-01-16 19:24:58.412
10.0, -417.1933198571205, -418.8687950372696, -231.21557486057281, -106.75170433521271, -0.9760000463575125, -0.9760000463575125, 0.49600002355873585, 0.0, 0.0, 0.0, 0.0, 0.0, 1.705451098425848E9, 0.0, 2024-01-16 19:24:58.425
10.0, -386.0773522257805, -406.1830543875694, -227.6252709031105, -61.27452087402344, -0.9760000463575125, -0.9760000463575125, 0.49600002355873585, 0.0, 0.0, 0.0, 0.0, 0.0, 1.705451098425848E9, 0.0, 2024-01-16 19:24:58.425
11.0, -409.5340047478676, -449.9847626686096, -263.76766407489777, -104.59752196073532, -0.9760000463575125, -0.49600002355873585, 0.49600002355873585, 0.0, 0.0, 0.0, 0.0, 0.0, 1.705451098441663E9, 0.0, 2024-01-16 19:24:58.441
11.0, -403.0714576244354, -410.4914191365242, -224.0349669456482, -85.9279413819313, -0.9760000463575125, -0.49600002355873585, 0.49600002355873585, 0.0, 0.0, 0.0, 0.0, 0.0, 1.705451098441663E9, 0.0, 2024-01-16 19:24:58.441
12.0, -385.83799862861633, -393.49731373786926, -202.49314320087433, -40.450757920742035, -0.49600002355873585, -0.49600002355873585, 0.49600002355873585, 0.0, 0.0, 0.0, 0.0, 0.0, 1.7054510984423E9, 0.0, 2024-01-16 19:24:58.442
12.0, -360.70587092638016, -387.9921810030937, -192.679645717144, -22.020530939102173, -0.49600002355873585, -0.49600002355873585, 0.49600002355873585, 0.0, 0.0, 0.0, 0.0, 0.0, 1.7054510984423E9, 0.0, 2024-01-16 19:24:58.442
13.0, -384.16252344846725, -384.64123064279556, -186.69580578804016, -56.2480953335762, -0.49600002355873585, -0.49600002355873585, 0.49600002355873585, 0.0, 0.0, 0.0, 0.0, 0.0, 1.7054510984557197E9, 0.0, 2024-01-16 19:24:58.455
13.0, -374.82773315906525, -351.84978783130646, -161.56367808580399, -20.58440935611725, -0.49600002355873585, -0.49600002355873585, 0.49600002355873585, 0.0, 0.0, 0.0, 0.0, 0.0, 1.7054510984557197E9, 0.0, 2024-01-16 19:24:58.455
14.0, -338.685339987278, -341.796936750412, -148.87793743610382, 29.679846048355103, -0.49600002355873585, -0.49600002355873585, 0.49600002355873585, 0.0, 0.0, 0.0, 0.0, 0.0, 1.7054510984716237E9, 0.0, 2024-01-16 19:24:58.471
14.0, -352.32849502563477, -347.30206948518753, -152.94694858789444, -5.505132734775543, -0.49600002355873585, -0.49600002355873585, 0.49600002355873585, 0.0, 0.0, 0.0, 0.0, 0.0, 1.7054510984716237E9, 0.0, 2024-01-16 19:24:58.471
15.0, -369.801307618618, -330.7866712808609, -130.6870640516281, 9.334790289402008, -0.49600002355873585, -0.49600002355873585, 0.49600002355873585, 0.0, 0.0, 0.0, 0.0, 0.0, 1.7054510984721408E9, 0.0, 2024-01-16 19:24:58.472
15.0, -340.36081516742706, -324.5634777545929, -112.73554426431656, 60.79581367969513, -0.49600002355873585, -0.49600002355873585, 0.49600002355873585, 0.0, 0.0, 0.0, 0.0, 0.0, 1.7054510984721408E9, 0.0, 2024-01-16 19:24:58.472
16.0, -328.87184250354767, -321.9305881857872, -123.74580973386765, 39.253989934921265, -0.49600002355873585, -0.49600002355873585, 0.49600002355873585, 0.0, 0.0, 0.0, 0.0, 0.0, 1.7054510984856956E9, 0.0, 2024-01-16 19:24:58.485
16.0, -352.5678486227989, -312.5957978963852, -119.67679858207703, 12.925094246864319, -0.49600002355873585, -0.49600002355873585, 0.49600002355873585, 0.0, 0.0, 0.0, 0.0, 0.0, 1.7054510984856956E9, 0.0, 2024-01-16 19:24:58.485
17.0, -338.92469358444214, -306.8513115644455, -114.41101944446564, 50.98231619596481, -0.49600002355873585, -0.49600002355873585, 0.49600002355873585, 0.0, 0.0, 0.0, 0.0, 0.0, 1.7054510985016277E9, 0.0, 2024-01-16 19:24:58.501
17.0, -322.8880025744438, -316.90416264533997, -116.80455541610718, 59.83839929103851, -0.49600002355873585, -0.49600002355873585, 0.49600002355873585, 0.0, 0.0, 0.0, 0.0, 0.0, 1.7054510985016277E9, 0.0, 2024-01-16 19:24:58.501
18.0, -348.9775446653366, -316.6648090481758, -119.67679858207703, 21.541823744773865, -0.49600002355873585, -0.49600002355873585, 0.49600002355873585, 0.0, 0.0, 0.0, 0.0, 0.0, 1.7054510985021255E9, 0.0, 2024-01-16 19:24:58.502
18.0, -356.15815258026123, -308.5267867445946, -108.9058867096901, 44.75912266969681, -0.49600002355873585, -0.49600002355873585, 0.49600002355873585, 0.0, 0.0, 0.0, 0.0, 0.0, 1.7054510985021255E9, 0.0, 2024-01-16 19:24:58.502
19.0, -323.84541696310043, -305.41518998146057, -105.07622915506363, 67.97642159461975, -0.49600002355873585, -0.49600002355873585, 0.49600002355873585, 0.0, 0.0, 0.0, 0.0, 0.0, 1.7054510985156927E9, 0.0, 2024-01-16 19:24:58.515
19.0, -346.3446550965309, -325.9995993375778, -125.42128491401672, 23.935359716415405, -0.49600002355873585, -0.49600002355873585, 0.49600002355873585, 0.0, 0.0, 0.0, 0.0, 0.0, 1.7054510985156927E9, 0.0, 2024-01-16 19:24:58.515
20.0, -366.92906445264816, -317.1435162425041, -126.13934570550919, 14.361215829849243, -0.49600002355873585, -0.49600002355873585, 0.7360000349581242, 0.0, 0.0, 0.0, 0.0, 0.0, 1.7054510985314176E9, 0.0, 2024-01-16 19:24:58.531
20.0, -350.41366624832153, -324.5634777545929, -124.46387052536011, 47.15265864133835, -0.49600002355873585, -0.49600002355873585, 0.7360000349581242, 0.0, 0.0, 0.0, 0.0, 0.0, 1.7054510985314176E9, 0.0, 2024-01-16 19:24:58.531
21.0, -354.00397020578384, -344.4298263192177, -150.79276621341705, 13.882508635520935, -0.49600002355873585, -0.7360000349581242, 0.7360000349581242, 0.0, 0.0, 0.0, 0.0, 0.0, 1.7054510985321407E9, 0.0, 2024-01-16 19:24:58.532
21.0, -384.4018770456314, -345.8659479022026, -152.46824139356613, -15.797337412834167, -0.49600002355873585, -0.7360000349581242, 0.7360000349581242, 0.0, 0.0, 0.0, 0.0, 0.0, 1.7054510985321407E9, 0.0, 2024-01-16 19:24:58.532
22.0, -370.2800148129463, -337.0098648071289, -142.89409750699997, 18.90893417596817, -0.7360000349581242, -0.7360000349581242, 0.7360000349581242, 0.0, 0.0, 0.0, 0.0, 0.0, 1.705451098545912E9, 0.0, 2024-01-16 19:24:58.545
22.0, -354.7220309972763, -349.69560545682907, -158.69143491983414, 10.531558275222778, -0.7360000349581242, -0.7360000349581242, 0.7360000349581242, 0.0, 0.0, 0.0, 0.0, 0.0, 1.705451098545912E9, 0.0, 2024-01-16 19:24:58.545
23.0, -387.0347666144371, -366.45035725831985, -171.61652916669846, -38.29657554626465, -0.7360000349581242, -0.7360000349581242, 0.7360000349581242, 0.0, 0.0, 0.0, 0.0, 0.0, 1.7054510985615833E9, 0.0, 2024-01-16 19:24:58.561
23.0, -389.42830258607864, -358.3123349547386, -162.9997996687889, -12.685740649700165, -0.7360000349581242, -0.7360000349581242, 0.7360000349581242, 0.0, 0.0, 0.0, 0.0, 0.0, 1.7054510985615833E9, 0.0, 2024-01-16 19:24:58.561
24.0, -361.18457812070847, -358.55168855190277, -162.9997996687889, 10.292204678058624, -0.7360000349581242, -0.7360000349581242, 0.7360000349581242, 0.0, 0.0, 0.0, 0.0, 0.0, 1.7054510985621805E9, 0.0, 2024-01-16 19:24:58.562
24.0, -383.20510905981064, -375.0670867562294, -182.8661482334137, -38.5359291434288, -0.7360000349581242, -0.7360000349581242, 0.7360000349581242, 0.0, 0.0, 0.0, 0.0, 0.0, 1.7054510985621805E9, 0.0, 2024-01-16 19:24:58.562
25.0, -399.4811536669731, -361.9026389122009, -175.20683312416077, -47.15265864133835, -0.7360000349581242, -0.7360000349581242, 0.7360000349581242, 0.0, 0.0, 0.0, 0.0, 0.0, 1.705451098575724E9, 0.0, 2024-01-16 19:24:58.575
25.0, -378.6573907136917, -366.92906445264816, -174.01006513834, 0.7180607914924622, -0.7360000349581242, -0.7360000349581242, 0.7360000349581242, 0.0, 0.0, 0.0, 0.0, 0.0, 1.705451098575724E9, 0.0, 2024-01-16 19:24:58.575
26.0, -380.8115730881691, -389.6676561832428, -192.44029211997986, -38.057221949100494, -0.7360000349581242, -0.7360000349581242, 0.7360000349581242, 0.0, 0.0, 0.0, 0.0, 0.0, 1.705451098592544E9, 0.0, 2024-01-16 19:24:58.592
26.0, -402.83210402727127, -387.0347666144371, -197.4667176604271, -70.8486647605896, -0.7360000349581242, -0.7360000349581242, 0.7360000349581242, 0.0, 0.0, 0.0, 0.0, 0.0, 1.705451098592544E9, 0.0, 2024-01-16 19:24:58.592
27.0, -393.49731373786926, -376.024501144886, -183.58420902490616, -26.328895688056946, -0.7360000349581242, -0.7360000349581242, 0.7360000349581242, 0.0, 0.0, 0.0, 0.0, 0.0, 1.7054510986067865E9, 0.0, 2024-01-16 19:24:58.606
27.0, -377.2212691307068, -385.5986450314522, -191.7222313284874, -22.49923813343048, -0.7360000349581242, -0.7360000349581242, 0.7360000349581242, 0.0, 0.0, 0.0, 0.0, 0.0, 1.7054510986067865E9, 0.0, 2024-01-16 19:24:58.606
28.0, -401.87468963861465, -397.0876176953316, -204.64732557535172, -68.69448238611221, -0.7360000349581242, -0.7360000349581242, 0.7360000349581242, 0.0, 0.0, 0.0, 0.0, 0.0, 1.705451098607309E9, 0.0, 2024-01-16 19:24:58.607
28.0, -408.8159439563751, -393.2579601407051, -189.32869535684586, -44.75912266969681, -0.7360000349581242, -0.7360000349581242, 0.7360000349581242, 0.0, 0.0, 0.0, 0.0, 0.0, 1.705451098607309E9, 0.0, 2024-01-16 19:24:58.607
29.0, -386.31670582294464, -390.6250705718994, -193.39770650863647, -11.010265469551086, -0.7360000349581242, -0.7360000349581242, 0.7360000349581242, 0.0, 0.0, 0.0, 0.0, 0.0, 1.7054510986215203E9, 0.0, 2024-01-16 19:24:58.621
29.0, -393.01860654354095, -399.72050726413727, -203.92926478385925, -61.27452087402344, -0.7360000349581242, -0.7360000349581242, 0.7360000349581242, 0.0, 0.0, 0.0, 0.0, 0.0, 1.7054510986215203E9, 0.0, 2024-01-16 19:24:58.621
30.0, -411.4488335251808, -393.49731373786926, -195.55188888311386, -60.31710648536682, -0.7360000349581242, -0.7360000349581242, 0.8480000402778387, 0.0, 0.0, 0.0, 0.0, 0.0, 1.7054510986221204E9, 0.0, 2024-01-16 19:24:58.622
30.0, -393.01860654354095, -392.53989934921265, -190.04675614833832, -16.51539820432663, -0.7360000349581242, -0.7360000349581242, 0.8480000402778387, 0.0, 0.0, 0.0, 0.0, 0.0, 1.7054510986221204E9, 0.0, 2024-01-16 19:24:58.622
31.0, -384.16252344846725, -396.13020330667496, -202.25378960371017, -39.253989934921265, -0.7360000349581242, -0.8480000402778387, 0.8480000402778387, 0.0, 0.0, 0.0, 0.0, 0.0, 1.7054510986357062E9, 0.0, 2024-01-16 19:24:58.635
31.0, -414.32107669115067, -393.49731373786926, -202.97185039520264, -72.04543274641037, -0.7360000349581242, -0.8480000402778387, 0.8480000402778387, 0.0, 0.0, 0.0, 0.0, 0.0, 1.7054510986357062E9, 0.0, 2024-01-16 19:24:58.635
32.0, -399.9598608613014, -382.247694671154, -185.73839139938354, -20.823762953281403, -0.8480000402778387, -0.8480000402778387, 0.8480000402778387, 0.0, 0.0, 0.0, 0.0, 0.0, 1.7054510986514256E9, 0.0, 2024-01-16 19:24:58.651
32.0, -380.57221949100494, -388.7102417945862, -196.26994967460632, -20.823762953281403, -0.8480000402778387, -0.8480000402778387, 0.8480000402778387, 0.0, 0.0, 0.0, 0.0, 0.0, 1.7054510986514256E9, 0.0, 2024-01-16 19:24:58.651
33.0, -402.5927504301071, -396.13020330667496, -199.14219284057617, -61.51387447118759, -0.8480000402778387, -0.8480000402778387, 0.8480000402778387, 0.0, 0.0, 0.0, 0.0, 0.0, 1.7054510986521966E9, 0.0, 2024-01-16 19:24:58.652
33.0, -403.3108112215996, -387.0347666144371, -191.7222313284874, -42.12623310089111, -0.8480000402778387, -0.8480000402778387, 0.8480000402778387, 0.0, 0.0, 0.0, 0.0, 0.0, 1.7054510986521966E9, 0.0, 2024-01-16 19:24:58.652
34.0, -383.4444626569748, -391.1037777662277, -194.8338280916214, -12.207033455371857, -0.8480000402778387, -0.8480000402778387, 0.8480000402778387, 0.0, 0.0, 0.0, 0.0, 0.0, 1.705451098665698E9, 0.0, 2024-01-16 19:24:58.665
34.0, -398.76309287548065, -402.35339683294296, -207.04086154699326, -61.27452087402344, -0.8480000402778387, -0.8480000402778387, 0.8480000402778387, 0.0, 0.0, 0.0, 0.0, 0.0, 1.705451098665698E9, 0.0, 2024-01-16 19:24:58.665
35.0, -416.2359054684639, -392.3005457520485, -198.18477845191956, -62.231935262680054, -0.8480000402778387, -0.8480000402778387, 0.8480000402778387, 0.0, 0.0, 0.0, 0.0, 0.0, 1.7054510986814327E9, 0.0, 2024-01-16 19:24:58.681
35.0, -387.27412021160126, -384.64123064279556, -194.3551208972931, -16.994105398654938, -0.8480000402778387, -0.8480000402778387, 0.8480000402778387, 0.0, 0.0, 0.0, 0.0, 0.0, 1.7054510986814327E9, 0.0, 2024-01-16 19:24:58.681
36.0, -386.5560594201088, -396.8482640981674, -208.47698312997818, -45.716537058353424, -0.8480000402778387, -0.8480000402778387, 0.8480000402778387, 0.0, 0.0, 0.0, 0.0, 0.0, 1.7054510986821885E9, 0.0, 2024-01-16 19:24:58.682
36.0, -410.0127119421959, -399.4811536669731, -212.5459942817688, -73.00284713506699, -0.8480000402778387, -0.8480000402778387, 0.8480000402778387, 0.0, 0.0, 0.0, 0.0, 0.0, 1.7054510986821885E9, 0.0, 2024-01-16 19:24:58.682
37.0, -397.3269712924957, -387.0347666144371, -192.91899931430817, -31.35532122850418, -0.8480000402778387, -0.8480000402778387, 0.8480000402778387, 0.0, 0.0, 0.0, 0.0, 0.0, 1.7054510986960263E9, 0.0, 2024-01-16 19:24:58.696
37.0, -381.05092668533325, -396.60891050100327, -202.49314320087433, -31.594674825668335, -0.8480000402778387, -0.8480000402778387, 0.8480000402778387, 0.0, 0.0, 0.0, 0.0, 0.0, 1.7054510986960263E9, 0.0, 2024-01-16 19:24:58.696
38.0, -404.02887201309204, -403.7895184159279, -218.7691878080368, -75.63573670387268, -0.8480000402778387, -0.8480000402778387, 0.8480000402778387, 0.0, 0.0, 0.0, 0.0, 0.0, 1.7054510987114651E9, 0.0, 2024-01-16 19:24:58.711
38.0, -406.66176158189774, -388.94959539175034, -197.9454248547554, -47.63136583566666, -0.8480000402778387, -0.8480000402778387, 0.8480000402778387, 0.0, 0.0, 0.0, 0.0, 0.0, 1.7054510987114651E9, 0.0, 2024-01-16 19:24:58.711
39.0, -383.20510905981064, -394.2153745293617, -201.29637521505356, -20.10570216178894, -0.8480000402778387, -0.8480000402778387, 0.8480000402778387, 0.0, 0.0, 0.0, 0.0, 0.0, 1.7054510987121856E9, 0.0, 2024-01-16 19:24:58.712
39.0, -395.17278891801834, -405.46499359607697, -222.83819895982742, -71.08801835775375, -0.8480000402778387, -0.8480000402778387, 0.8480000402778387, 0.0, 0.0, 0.0, 0.0, 0.0, 1.7054510987121856E9, 0.0, 2024-01-16 19:24:58.712
40.0, -406.66176158189774, -391.1037777662277, -212.30664068460464, -69.17318958044052, -0.8480000402778387, -0.8480000402778387, 0.9120000433176756, 0.0, 0.0, 0.0, 0.0, 0.0, 1.7054510987260869E9, 0.0, 2024-01-16 19:24:58.726
40.0, -385.11993783712387, -390.1463633775711, -197.70607125759125, -23.456652522087097, -0.8480000402778387, -0.8480000402778387, 0.9120000433176756, 0.0, 0.0, 0.0, 0.0, 0.0, 1.7054510987260869E9, 0.0, 2024-01-16 19:24:58.726
41.0, -385.83799862861633, -409.5340047478676, -210.15245831012726, -56.487448930740356, -0.8480000402778387, -0.9120000433176756, 0.9120000433176756, 0.0, 0.0, 0.0, 0.0, 0.0, 1.705451098757763E9, 0.0, 2024-01-16 19:24:58.757
41.0, -414.0817230939865, -404.2682256102562, -220.9233701825142, -92.39048850536346, -0.8480000402778387, -0.9120000433176756, 0.9120000433176756, 0.0, 0.0, 0.0, 0.0, 0.0, 1.705451098757763E9, 0.0, 2024-01-16 19:24:58.757
42.0, -398.5237392783165, -395.17278891801834, -207.99827593564987, -45.95589065551758, -0.9120000433176756, -0.9120000433176756, 0.9120000433176756, 0.0, 0.0, 0.0, 0.0, 0.0, 1.7054510987584772E9, 0.0, 2024-01-16 19:24:58.758
42.0, -383.9231698513031, -409.5340047478676, -217.57241982221603, -38.5359291434288, -0.9120000433176756, -0.9120000433176756, 0.9120000433176756, 0.0, 0.0, 0.0, 0.0, 0.0, 1.7054510987584772E9, 0.0, 2024-01-16 19:24:58.758
43.0, -403.7895184159279, -411.4488335251808, -217.33306622505188, -81.38022303581238, -0.9120000433176756, -0.9120000433176756, 0.9120000433176756, 0.0, 0.0, 0.0, 0.0, 0.0, 1.705451098759235E9, 0.0, 2024-01-16 19:24:58.759
43.0, -406.9011151790619, -395.65149611234665, -207.99827593564987, -59.83839929103851, -0.9120000433176756, -0.9120000433176756, 0.9120000433176756, 0.0, 0.0, 0.0, 0.0, 0.0, 1.705451098759235E9, 0.0, 2024-01-16 19:24:58.759
44.0, -387.9921810030937, -406.9011151790619, -209.9131047129631, -35.663685977458954, -0.9120000433176756, -0.9120000433176756, 0.9120000433176756, 0.0, 0.0, 0.0, 0.0, 0.0, 1.705451098759964E9, 0.0, 2024-01-16 19:24:58.759
44.0, -403.55016481876373, -418.62944144010544, -225.23173493146896, -81.38022303581238, -0.9120000433176756, -0.9120000433176756, 0.9120000433176756, 0.0, 0.0, 0.0, 0.0, 0.0, 1.705451098759964E9, 0.0, 2024-01-16 19:24:58.759
45.0, -408.09788316488266, -401.6353360414505, -214.22146946191788, -79.7047478556633, -0.9120000433176756, -0.9120000433176756, 0.9120000433176756, 0.0, 0.0, 0.0, 0.0, 0.0, 1.705451098771042E9, 0.0, 2024-01-16 19:24:58.771
45.0, -387.0347666144371, -396.60891050100327, -202.49314320087433, -28.243724465370178, -0.9120000433176756, -0.9120000433176756, 0.9120000433176756, 0.0, 0.0, 0.0, 0.0, 0.0, 1.705451098771042E9, 0.0, 2024-01-16 19:24:58.771
46.0, -390.6250705718994, -415.99655187129974, -227.86462450027466, -60.556460082530975, -0.9120000433176756, -0.9120000433176756, 0.9120000433176756, 0.0, 0.0, 0.0, 0.0, 0.0, 1.705451098785722E9, 0.0, 2024-01-16 19:24:58.785
46.0, -410.4914191365242, -407.8585295677185, -226.18914932012558, -87.60341656208038, -0.9120000433176756, -0.9120000433176756, 0.9120000433176756, 0.0, 0.0, 0.0, 0.0, 0.0, 1.705451098785722E9, 0.0, 2024-01-16 19:24:58.785
47.0, -400.91727524995804, -406.66176158189774, -211.10987269878387, -44.75912266969681, -0.9120000433176756, -0.9120000433176756, 0.9120000433176756, 0.0, 0.0, 0.0, 0.0, 0.0, 1.7054510988014536E9, 0.0, 2024-01-16 19:24:58.801
47.0, -382.9657554626465, -415.2784910798073, -224.9923813343048, -49.06748741865158, -0.9120000433176756, -0.9120000433176756, 0.9120000433176756, 0.0, 0.0, 0.0, 0.0, 0.0, 1.7054510988014536E9, 0.0, 2024-01-16 19:24:58.801
48.0, -404.50757920742035, -414.32107669115067, -227.86462450027466, -92.39048850536346, -0.9120000433176756, -0.9120000433176756, 0.9120000433176756, 0.0, 0.0, 0.0, 0.0, 0.0, 1.7054510988021355E9, 0.0, 2024-01-16 19:24:58.802
48.0, -410.73077273368835, -405.9437007904053, -209.9131047129631, -62.47128885984421, -0.9120000433176756, -0.9120000433176756, 0.9120000433176756, 0.0, 0.0, 0.0, 0.0, 0.0, 1.7054510988021355E9, 0.0, 2024-01-16 19:24:58.802
49.0, -378.6573907136917, -401.39598244428635, -216.1362982392311, -37.81786835193634, -0.9120000433176756, -0.9120000433176756, 0.9120000433176756, 0.0, 0.0, 0.0, 0.0, 0.0, 1.705451098815817E9, 0.0, 2024-01-16 19:24:58.815
49.0, -402.5927504301071, -418.62944144010544, -224.0349669456482, -77.0718582868576, -0.9120000433176756, -0.9120000433176756, 0.9120000433176756, 0.0, 0.0, 0.0, 0.0, 0.0, 1.705451098815817E9, 0.0, 2024-01-16 19:24:58.815
50.0, -410.4914191365242, -406.4224079847336, -210.3918119072914, -75.63573670387268, -0.9120000433176756, -0.9120000433176756, 0.944000044837594, 0.0, 0.0, 0.0, 0.0, 0.0, 1.7054510988317008E9, 0.0, 2024-01-16 19:24:58.831
50.0, -382.4870482683182, -395.65149611234665, -203.2112039923668, -23.69600611925125, -0.9120000433176756, -0.9120000433176756, 0.944000044837594, 0.0, 0.0, 0.0, 0.0, 0.0, 1.7054510988317008E9, 0.0, 2024-01-16 19:24:58.831
51.0, -376.98191553354263, -409.0552975535393, -215.41823744773865, -54.81197375059128, -0.9120000433176756, -0.944000044837594, 0.944000044837594, 0.0, 0.0, 0.0, 0.0, 0.0, 1.705451098832209E9, 0.0, 2024-01-16 19:24:58.832
51.0, -400.91727524995804, -397.80567848682404, -216.85435903072357, -85.20988059043884, -0.9120000433176756, -0.944000044837594, 0.944000044837594, 0.0, 0.0, 0.0, 0.0, 0.0, 1.705451098832209E9, 0.0, 2024-01-16 19:24:58.832
52.0, -391.8218385577202, -392.3005457520485, -204.64732557535172, -47.3920122385025, -0.944000044837594, -0.944000044837594, 0.944000044837594, 0.0, 0.0, 0.0, 0.0, 0.0, 1.705451098845926E9, 0.0, 2024-01-16 19:24:58.845
52.0, -386.0773522257805, -414.799783885479, -224.27432054281235, -42.60494029521942, -0.944000044837594, -0.944000044837594, 0.944000044837594, 0.0, 0.0, 0.0, 0.0, 0.0, 1.705451098845926E9, 0.0, 2024-01-16 19:24:58.845
53.0, -410.25206553936005, -418.8687950372696, -233.8484644293785, -96.22014605998993, -0.944000044837594, -0.944000044837594, 0.944000044837594, 0.0, 0.0, 0.0, 0.0, 0.0, 1.7054510988617415E9, 0.0, 2024-01-16 19:24:58.861
53.0, -412.6456015110016, -414.0817230939865, -220.20530939102173, -67.01900720596313, -0.944000044837594, -0.944000044837594, 0.944000044837594, 0.0, 0.0, 0.0, 0.0, 0.0, 1.7054510988617415E9, 0.0, 2024-01-16 19:24:58.861
54.0, -398.5237392783165, -422.21974539756775, -229.54009968042374, -47.3920122385025, -0.944000044837594, -0.944000044837594, 0.944000044837594, 0.0, 0.0, 0.0, 0.0, 0.0, 1.705451098862234E9, 0.0, 2024-01-16 19:24:58.862
54.0, -407.14046877622604, -427.96423172950745, -240.55036514997482, -88.560830950737, -0.944000044837594, -0.944000044837594, 0.944000044837594, 0.0, 0.0, 0.0, 0.0, 0.0, 1.705451098862234E9, 0.0, 2024-01-16 19:24:58.862
55.0, -423.6558669805527, -417.43267345428467, -225.71044212579727, -84.25246620178223, -0.944000044837594, -0.944000044837594, 0.944000044837594, 0.0, 0.0, 0.0, 0.0, 0.0, 1.7054510988757746E9, 0.0, 2024-01-16 19:24:58.875
55.0, -391.58248496055603, -409.29465115070343, -214.70017665624619, -40.21140432357788, -0.944000044837594, -0.944000044837594, 0.944000044837594, 0.0, 0.0, 0.0, 0.0, 0.0, 1.7054510988757746E9, 0.0, 2024-01-16 19:24:58.875
56.0, -393.97602093219757, -425.33134216070175, -237.19941478967667, -69.89125037193298, -0.944000044837594, -0.944000044837594, 0.944000044837594, 0.0, 0.0, 0.0, 0.0, 0.0, 1.7054510988917737E9, 0.0, 2024-01-16 19:24:58.891
56.0, -412.88495510816574, -416.47525906562805, -227.86462450027466, -98.85303562879562, -0.944000044837594, -0.944000044837594, 0.944000044837594, 0.0, 0.0, 0.0, 0.0, 0.0, 1.7054510988917737E9, 0.0, 2024-01-16 19:24:58.891
57.0, -399.9598608613014, -409.0552975535393, -219.96595579385757, -54.093912959098816, -0.944000044837594, -0.944000044837594, 0.944000044837594, 0.0, 0.0, 0.0, 0.0, 0.0, 1.705451098892306E9, 0.0, 2024-01-16 19:24:58.892
57.0, -383.4444626569748, -421.26233100891113, -227.6252709031105, -51.46102339029312, -0.944000044837594, -0.944000044837594, 0.944000044837594, 0.0, 0.0, 0.0, 0.0, 0.0, 1.705451098892306E9, 0.0, 2024-01-16 19:24:58.892
58.0, -402.1140432357788, -417.1933198571205, -232.8910500407219, -90.71501332521439, -0.944000044837594, -0.944000044837594, 0.944000044837594, 0.0, 0.0, 0.0, 0.0, 0.0, 1.7054510989057229E9, 0.0, 2024-01-16 19:24:58.905
58.0, -415.2784910798073, -414.32107669115067, -218.05112701654434, -72.28478634357452, -0.944000044837594, -0.944000044837594, 0.944000044837594, 0.0, 0.0, 0.0, 0.0, 0.0, 1.7054510989057229E9, 0.0, 2024-01-16 19:24:58.905
59.0, -405.2256399989128, -420.7836238145828, -228.1039780974388, -47.15265864133835, -0.944000044837594, -0.944000044837594, 0.944000044837594, 0.0, 0.0, 0.0, 0.0, 0.0, 1.7054510989216423E9, 0.0, 2024-01-16 19:24:58.921
59.0, -414.5604302883148, -425.81004935503006, -235.76329320669174, -83.77375900745392, -0.944000044837594, -0.944000044837594, 0.944000044837594, 0.0, 0.0, 0.0, 0.0, 0.0, 1.7054510989216423E9, 0.0, 2024-01-16 19:24:58.921
60.0, -432.7513036727905, -416.95396625995636, -223.07755255699158, -88.560830950737, -0.944000044837594, -0.944000044837594, 0.9600000455975533, 0.0, 0.0, 0.0, 0.0, 0.0, 1.7054510989223027E9, 0.0, 2024-01-16 19:24:58.922
60.0, -411.4488335251808, -416.7146126627922, -219.96595579385757, -38.057221949100494, -0.944000044837594, -0.944000044837594, 0.9600000455975533, 0.0, 0.0, 0.0, 0.0, 0.0, 1.7054510989223027E9, 0.0, 2024-01-16 19:24:58.922
61.0, -405.9437007904053, -427.7248781323433, -236.24200040102005, -68.93383598327637, -0.944000044837594, -0.9600000455975533, 0.9600000455975533, 0.0, 0.0, 0.0, 0.0, 0.0, 1.7054510989360583E9, 0.0, 2024-01-16 19:24:58.936
61.0, -427.246170938015, -418.15073424577713, -228.34333169460297, -93.82661008834839, -0.944000044837594, -0.9600000455975533, 0.9600000455975533, 0.0, 0.0, 0.0, 0.0, 0.0, 1.7054510989360583E9, 0.0, 2024-01-16 19:24:58.936
62.0, -418.15073424577713, -408.8159439563751, -215.89694464206696, -44.75912266969681, -0.9600000455975533, -0.9600000455975533, 0.9600000455975533, 0.0, 0.0, 0.0, 0.0, 0.0, 1.705451098951668E9, 0.0, 2024-01-16 19:24:58.951
62.0, -401.39598244428635, -421.9803918004036, -227.38591730594635, -52.17908418178558, -0.9600000455975533, -0.9600000455975533, 0.9600000455975533, 0.0, 0.0, 0.0, 0.0, 0.0, 1.705451098951668E9, 0.0, 2024-01-16 19:24:58.951
63.0, -423.17715978622437, -420.7836238145828, -230.01880687475204, -92.39048850536346, -0.9600000455975533, -0.9600000455975533, 0.9600000455975533, 0.0, 0.0, 0.0, 0.0, 0.0, 1.705451098952253E9, 0.0, 2024-01-16 19:24:58.952
63.0, -423.6558669805527, -414.5604302883148, -211.58857989311218, -60.07775288820267, -0.9600000455975533, -0.9600000455975533, 0.9600000455975533, 0.0, 0.0, 0.0, 0.0, 0.0, 1.705451098952253E9, 0.0, 2024-01-16 19:24:58.952
64.0, -405.2256399989128, -416.7146126627922, -223.55625975131989, -42.12623310089111, -0.9600000455975533, -0.9600000455975533, 0.9600000455975533, 0.0, 0.0, 0.0, 0.0, 0.0, 1.705451098966218E9, 0.0, 2024-01-16 19:24:58.966
64.0, -413.36366230249405, -423.17715978622437, -237.67812198400497, -87.36406296491623, -0.9600000455975533, -0.9600000455975533, 0.9600000455975533, 0.0, 0.0, 0.0, 0.0, 0.0, 1.705451098966218E9, 0.0, 2024-01-16 19:24:58.966
65.0, -427.48552453517914, -410.73077273368835, -221.8807845711708, -83.29505181312561, -0.9600000455975533, -0.9600000455975533, 0.9600000455975533, 0.0, 0.0, 0.0, 0.0, 0.0, 1.7054510989814413E9, 0.0, 2024-01-16 19:24:58.981
65.0, -402.1140432357788, -405.9437007904053, -214.22146946191788, -38.29657554626465, -0.9600000455975533, -0.9600000455975533, 0.9600000455975533, 0.0, 0.0, 0.0, 0.0, 0.0, 1.7054510989814413E9, 0.0, 2024-01-16 19:24:58.981
66.0, -400.1992144584656, -420.3049166202545, -228.82203888893127, -70.60931116342545, -0.9600000455975533, -0.9600000455975533, 0.9600000455975533, 0.0, 0.0, 0.0, 0.0, 0.0, 1.705451098982109E9, 0.0, 2024-01-16 19:24:58.982
66.0, -418.3900878429413, -412.40624791383743, -217.09371262788773, -85.9279413819313, -0.9600000455975533, -0.9600000455975533, 0.9600000455975533, 0.0, 0.0, 0.0, 0.0, 0.0, 1.705451098982109E9, 0.0, 2024-01-16 19:24:58.982
67.0, -403.3108112215996, -399.24180006980896, -207.99827593564987, -36.381746768951416, -0.9600000455975533, -0.9600000455975533, 0.9600000455975533, 0.0, 0.0, 0.0, 0.0, 0.0, 1.7054510989957173E9, 0.0, 2024-01-16 19:24:58.995
67.0, -389.90700978040695, -412.88495510816574, -217.57241982221603, -44.041061878204346, -0.9600000455975533, -0.9600000455975533, 0.9600000455975533, 0.0, 0.0, 0.0, 0.0, 0.0, 1.7054510989957173E9, 0.0, 2024-01-16 19:24:58.995
68.0, -406.4224079847336, -410.4914191365242, -224.75302773714066, -90.71501332521439, -0.9600000455975533, -0.9600000455975533, 0.9600000455975533, 0.0, 0.0, 0.0, 0.0, 0.0, 1.7054510990115097E9, 0.0, 2024-01-16 19:24:59.011
68.0, -409.77335834503174, -399.4811536669731, -214.70017665624619, -60.31710648536682, -0.9600000455975533, -0.9600000455975533, 0.9600000455975533, 0.0, 0.0, 0.0, 0.0, 0.0, 1.7054510990115097E9, 0.0, 2024-01-16 19:24:59.011
69.0, -383.20510905981064, -405.2256399989128, -216.1362982392311, -35.4243323802948, -0.9600000455975533, -0.9600000455975533, 0.9600000455975533, 0.0, 0.0, 0.0, 0.0, 0.0, 1.7054510990121608E9, 0.0, 2024-01-16 19:24:59.012
69.0, -404.50757920742035, -423.4165133833885, -234.08781802654266, -85.68858778476715, -0.9600000455975533, -0.9600000455975533, 0.9600000455975533, 0.0, 0.0, 0.0, 0.0, 0.0, 1.7054510990121608E9, 0.0, 2024-01-16 19:24:59.012
70.0, -420.06556302309036, -413.1243087053299, -223.79561334848404, -87.60341656208038, -0.9600000455975533, -0.9600000455975533, 0.9600000455975533, 0.0, 0.0, 0.0, 0.0, 0.0, 1.705451099026256E9, 0.0, 2024-01-16 19:24:59.026
70.0, -407.14046877622604, -414.799783885479, -222.35949176549911, -44.041061878204346, -0.9600000455975533, -0.9600000455975533, 0.9600000455975533, 0.0, 0.0, 0.0, 0.0, 0.0, 1.705451099026256E9, 0.0, 2024-01-16 19:24:59.026
71.0, -400.43856805562973, -425.81004935503006, -232.41234284639359, -60.556460082530975, -0.9600000455975533, -0.9600000455975533, 0.9600000455975533, 0.0, 0.0, 0.0, 0.0, 0.0, 1.7054510990414224E9, 0.0, 2024-01-16 19:24:59.041
71.0, -420.3049166202545, -416.95396625995636, -232.17298924922943, -93.58725649118423, -0.9600000455975533, -0.9600000455975533, 0.9600000455975533, 0.0, 0.0, 0.0, 0.0, 0.0, 1.7054510990414224E9, 0.0, 2024-01-16 19:24:59.041
72.0, -410.25206553936005, -406.9011151790619, -215.89694464206696, -49.06748741865158, -0.9600000455975533, -0.9600000455975533, 0.9600000455975533, 0.0, 0.0, 0.0, 0.0, 0.0, 1.7054510990421557E9, 0.0, 2024-01-16 19:24:59.042
72.0, -392.7792529463768, -417.911380648613, -228.1039780974388, -44.2804154753685, -0.9600000455975533, -0.9600000455975533, 0.9600000455975533, 0.0, 0.0, 0.0, 0.0, 0.0, 1.7054510990421557E9, 0.0, 2024-01-16 19:24:59.042
73.0, -409.5340047478676, -413.6030158996582, -228.82203888893127, -91.91178131103516, -0.9600000455975533, -0.9600000455975533, 0.9600000455975533, 0.0, 0.0, 0.0, 0.0, 0.0, 1.7054510990557418E9, 0.0, 2024-01-16 19:24:59.055
73.0, -405.46499359607697, -400.43856805562973, -215.89694464206696, -60.31710648536682, -0.9600000455975533, -0.9600000455975533, 0.9600000455975533, 0.0, 0.0, 0.0, 0.0, 0.0, 1.7054510990557418E9, 0.0, 2024-01-16 19:24:59.055
74.0, -388.470888197422, -411.20947992801666, -216.1362982392311, -33.27015000581741, -0.9600000455975533, -0.9600000455975533, 0.9600000455975533, 0.0, 0.0, 0.0, 0.0, 0.0, 1.7054510990715723E9, 0.0, 2024-01-16 19:24:59.071
74.0, -396.13020330667496, -415.0391374826431, -226.42850291728973, -72.28478634357452, -0.9600000455975533, -0.9600000455975533, 0.9600000455975533, 0.0, 0.0, 0.0, 0.0, 0.0, 1.7054510990715723E9, 0.0, 2024-01-16 19:24:59.071
75.0, -407.3798223733902, -398.5237392783165, -216.85435903072357, -73.72090792655945, -0.9600000455975533, -0.9600000455975533, 0.9600000455975533, 0.0, 0.0, 0.0, 0.0, 0.0, 1.7054510990721583E9, 0.0, 2024-01-16 19:24:59.072
75.0, -394.4547281265259, -410.0127119421959, -219.96595579385757, -35.663685977458954, -0.9600000455975533, -0.9600000455975533, 0.9600000455975533, 0.0, 0.0, 0.0, 0.0, 0.0, 1.7054510990721583E9, 0.0, 2024-01-16 19:24:59.072
76.0, -394.9334353208542, -422.69845259189606, -233.8484644293785, -66.06159281730652, -0.9600000455975533, -0.9600000455975533, 0.9600000455975533, 0.0, 0.0, 0.0, 0.0, 0.0, 1.7054510990857327E9, 0.0, 2024-01-16 19:24:59.085
76.0, -416.47525906562805, -417.43267345428467, -227.38591730594635, -95.50208526849747, -0.9600000455975533, -0.9600000455975533, 0.9600000455975533, 0.0, 0.0, 0.0, 0.0, 0.0, 1.7054510990857327E9, 0.0, 2024-01-16 19:24:59.085
77.0, -404.02887201309204, -405.46499359607697, -220.68401658535004, -50.0249018073082, -0.9600000455975533, -0.9600000455975533, 0.9600000455975533, 0.0, 0.0, 0.0, 0.0, 0.0, 1.705451099101505E9, 0.0, 2024-01-16 19:24:59.101
77.0, -389.6676561832428, -419.3475022315979, -232.8910500407219, -56.00874173641205, -0.9600000455975533, -0.9600000455975533, 0.9600000455975533, 0.0, 0.0, 0.0, 0.0, 0.0, 1.705451099101505E9, 0.0, 2024-01-16 19:24:59.101
78.0, -410.73077273368835, -417.43267345428467, -235.5239396095276, -88.560830950737, -0.9600000455975533, -0.9600000455975533, 0.9600000455975533, 0.0, 0.0, 0.0, 0.0, 0.0, 1.705451099102126E9, 0.0, 2024-01-16 19:24:59.102
78.0, -420.3049166202545, -416.7146126627922, -226.42850291728973, -64.86482483148575, -0.9600000455975533, -0.9600000455975533, 0.9600000455975533, 0.0, 0.0, 0.0, 0.0, 0.0, 1.705451099102126E9, 0.0, 2024-01-16 19:24:59.102
79.0, -393.49731373786926, -413.6030158996582, -221.16272377967834, -35.663685977458954, -0.9600000455975533, -0.9600000455975533, 0.9600000455975533, 0.0, 0.0, 0.0, 0.0, 0.0, 1.7054510991157413E9, 0.0, 2024-01-16 19:24:59.115
79.0, -406.66176158189774, -423.17715978622437, -240.55036514997482, -84.01311260461807, -0.9600000455975533, -0.9600000455975533, 0.9600000455975533, 0.0, 0.0, 0.0, 0.0, 0.0, 1.7054510991157413E9, 0.0, 2024-01-16 19:24:59.115
80.0, -415.99655187129974, -408.57659035921097, -230.49751406908035, -86.88535577058792, -0.9600000455975533, -0.9600000455975533, 0.9760000463575125, 0.0, 0.0, 0.0, 0.0, 0.0, 1.7054510991314907E9, 0.0, 2024-01-16 19:24:59.131
80.0, -397.3269712924957, -410.9701263308525, -226.6678565144539, -43.80170828104019, -0.9600000455975533, -0.9600000455975533, 0.9760000463575125, 0.0, 0.0, 0.0, 0.0, 0.0, 1.7054510991314907E9, 0.0, 2024-01-16 19:24:59.131
81.0, -392.3005457520485, -416.7146126627922, -236.24200040102005, -71.08801835775375, -0.9600000455975533, -0.9760000463575125, 0.9760000463575125, 0.0, 0.0, 0.0, 0.0, 0.0, 1.7054510991321378E9, 0.0, 2024-01-16 19:24:59.132
81.0, -418.15073424577713, -418.8687950372696, -235.5239396095276, -101.24657160043716, -0.9600000455975533, -0.9760000463575125, 0.9760000463575125, 0.0, 0.0, 0.0, 0.0, 0.0, 1.7054510991321378E9, 0.0, 2024-01-16 19:24:59.132
82.0, -400.1992144584656, -410.25206553936005, -221.4020773768425, -50.98231619596481, -0.9760000463575125, -0.9760000463575125, 0.9760000463575125, 0.0, 0.0, 0.0, 0.0, 0.0, 1.7054510991623008E9, 0.0, 2024-01-16 19:24:59.162
82.0, -388.7102417945862, -422.21974539756775, -235.04523241519928, -58.162924110889435, -0.9760000463575125, -0.9760000463575125, 0.9760000463575125, 0.0, 0.0, 0.0, 0.0, 0.0, 1.7054510991623008E9, 0.0, 2024-01-16 19:24:59.162
83.0, -409.77335834503174, -421.9803918004036, -242.7045475244522, -103.40075397491455, -0.9760000463575125, -0.9760000463575125, 0.9760000463575125, 0.0, 0.0, 0.0, 0.0, 0.0, 1.705451099162823E9, 0.0, 2024-01-16 19:24:59.162
83.0, -410.25206553936005, -406.66176158189774, -222.12013816833496, -71.80607914924622, -0.9760000463575125, -0.9760000463575125, 0.9760000463575125, 0.0, 0.0, 0.0, 0.0, 0.0, 1.705451099162823E9, 0.0, 2024-01-16 19:24:59.162
84.0, -385.11993783712387, -411.68818712234497, -233.3697572350502, -46.19524425268173, -0.9760000463575125, -0.9760000463575125, 0.9760000463575125, 0.0, 0.0, 0.0, 0.0, 0.0, 1.7054510991636465E9, 0.0, 2024-01-16 19:24:59.163
84.0, -400.43856805562973, -424.134574174881, -237.19941478967667, -87.60341656208038, -0.9760000463575125, -0.9760000463575125, 0.9760000463575125, 0.0, 0.0, 0.0, 0.0, 0.0, 1.7054510991636465E9, 0.0, 2024-01-16 19:24:59.163
85.0, -422.69845259189606, -420.7836238145828, -233.8484644293785, -89.99695253372192, -0.9760000463575125, -0.9760000463575125, 0.9760000463575125, 0.0, 0.0, 0.0, 0.0, 0.0, 1.7054510991761E9, 0.0, 2024-01-16 19:24:59.176
85.0, -404.98628640174866, -425.33134216070175, -235.76329320669174, -51.22166979312897, -0.9760000463575125, -0.9760000463575125, 0.9760000463575125, 0.0, 0.0, 0.0, 0.0, 0.0, 1.7054510991761E9, 0.0, 2024-01-16 19:24:59.176
86.0, -402.5927504301071, -434.9054860472679, -249.64580184221268, -81.38022303581238, -0.9760000463575125, -0.9760000463575125, 0.9760000463575125, 0.0, 0.0, 0.0, 0.0, 0.0, 1.705451099191456E9, 0.0, 2024-01-16 19:24:59.191
86.0, -429.40035331249237, -435.3841932415962, -242.2258403301239, -106.2729971408844, -0.9760000463575125, -0.9760000463575125, 0.9760000463575125, 0.0, 0.0, 0.0, 0.0, 0.0, 1.705451099191456E9, 0.0, 2024-01-16 19:24:59.191
87.0, -423.6558669805527, -424.85263496637344, -231.93363565206528, -65.58288562297821, -0.9760000463575125, -0.9760000463575125, 0.9760000463575125, 0.0, 0.0, 0.0, 0.0, 0.0, 1.7054510991921625E9, 0.0, 2024-01-16 19:24:59.192
87.0, -399.24180006980896, -428.2035853266716, -237.19941478967667, -55.53003454208374, -0.9760000463575125, -0.9760000463575125, 0.9760000463575125, 0.0, 0.0, 0.0, 0.0, 0.0, 1.7054510991921625E9, 0.0, 2024-01-16 19:24:59.192
88.0, -425.5706957578659, -430.8364748954773, -244.8587298989296, -107.94847232103348, -0.9760000463575125, -0.9760000463575125, 0.9760000463575125, 0.0, 0.0, 0.0, 0.0, 0.0, 1.7054510992060795E9, 0.0, 2024-01-16 19:24:59.206
88.0, -423.8952205777168, -418.3900878429413, -226.42850291728973, -77.78991907835007, -0.9760000463575125, -0.9760000463575125, 0.9760000463575125, 0.0, 0.0, 0.0, 0.0, 0.0, 1.7054510992060795E9, 0.0, 2024-01-16 19:24:59.206
89.0, -400.91727524995804, -428.6822925209999, -230.01880687475204, -50.74296259880066, -0.9760000463575125, -0.9760000463575125, 0.9760000463575125, 0.0, 0.0, 0.0, 0.0, 0.0, 1.7054510992214158E9, 0.0, 2024-01-16 19:24:59.221
89.0, -409.5340047478676, -433.23001086711884, -250.6032162308693, -90.95436692237854, -0.9760000463575125, -0.9760000463575125, 0.9760000463575125, 0.0, 0.0, 0.0, 0.0, 0.0, 1.7054510992214158E9, 0.0, 2024-01-16 19:24:59.221
90.0, -433.23001086711884, -429.40035331249237, -237.91747558116913, -101.24657160043716, -0.9760000463575125, -0.9760000463575125, 0.9760000463575125, 0.0, 0.0, 0.0, 0.0, 0.0, 1.705451099222194E9, 0.0, 2024-01-16 19:24:59.222
90.0, -410.25206553936005, -423.4165133833885, -229.54009968042374, -54.572620153427124, -0.9760000463575125, -0.9760000463575125, 0.9760000463575125, 0.0, 0.0, 0.0, 0.0, 0.0, 1.705451099222194E9, 0.0, 2024-01-16 19:24:59.222
91.0, -404.2682256102562, -435.3841932415962, -255.39028817415237, -87.60341656208038, -0.9760000463575125, -0.9760000463575125, 0.9760000463575125, 0.0, 0.0, 0.0, 0.0, 0.0, 1.705451099235736E9, 0.0, 2024-01-16 19:24:59.235
91.0, -417.1933198571205, -418.3900878429413, -242.46519392728806, -105.07622915506363, -0.9760000463575125, -0.9760000463575125, 0.9760000463575125, 0.0, 0.0, 0.0, 0.0, 0.0, 1.705451099235736E9, 0.0, 2024-01-16 19:24:59.235
92.0, -411.68818712234497, -424.6132813692093, -234.56652522087097, -67.01900720596313, -0.9760000463575125, -0.9760000463575125, 0.9760000463575125, 0.0, 0.0, 0.0, 0.0, 0.0, 1.705451099252025E9, 0.0, 2024-01-16 19:24:59.252
92.0, -398.5237392783165, -438.7351436018944, -248.68838745355606, -73.4815543293953, -0.9760000463575125, -0.9760000463575125, 0.9760000463575125, 0.0, 0.0, 0.0, 0.0, 0.0, 1.705451099252025E9, 0.0, 2024-01-16 19:24:59.252
93.0, -420.06556302309036, -437.0596684217453, -250.36386263370514, -115.84714102745056, -0.9760000463575125, -0.9760000463575125, 0.9760000463575125, 0.0, 0.0, 0.0, 0.0, 0.0, 1.7054510992521255E9, 0.0, 2024-01-16 19:24:59.252
93.0, -424.37392777204514, -424.85263496637344, -236.0026468038559, -77.78991907835007, -0.9760000463575125, -0.9760000463575125, 0.9760000463575125, 0.0, 0.0, 0.0, 0.0, 0.0, 1.7054510992521255E9, 0.0, 2024-01-16 19:24:59.252
94.0, -400.6779216527939, -431.07582849264145, -235.5239396095276, -53.1364985704422, -0.9760000463575125, -0.9760000463575125, 0.9760000463575125, 0.0, 0.0, 0.0, 0.0, 0.0, 1.705451099283099E9, 0.0, 2024-01-16 19:24:59.283
94.0, -410.4914191365242, -434.4267788529396, -245.3374370932579, -97.89562124013901, -0.9760000463575125, -0.9760000463575125, 0.9760000463575125, 0.0, 0.0, 0.0, 0.0, 0.0, 1.705451099283099E9, 0.0, 2024-01-16 19:24:59.283
95.0, -427.48552453517914, -424.85263496637344, -237.91747558116913, -95.02337807416916, -0.9760000463575125, -0.9760000463575125, 0.9760000463575125, 0.0, 0.0, 0.0, 0.0, 0.0, 1.7054510992835417E9, 0.0, 2024-01-16 19:24:59.283
95.0, -401.87468963861465, -425.0919885635376, -227.86462450027466, -51.22166979312897, -0.9760000463575125, -0.9760000463575125, 0.9760000463575125, 0.0, 0.0, 0.0, 0.0, 0.0, 1.7054510992835417E9, 0.0, 2024-01-16 19:24:59.283
96.0, -402.1140432357788, -431.3151820898056, -248.20968025922775, -81.38022303581238, -0.9760000463575125, -0.9760000463575125, 0.9760000463575125, 0.0, 0.0, 0.0, 0.0, 0.0, 1.7054510992843373E9, 0.0, 2024-01-16 19:24:59.284
96.0, -420.06556302309036, -425.0919885635376, -237.19941478967667, -108.66653311252594, -0.9760000463575125, -0.9760000463575125, 0.9760000463575125, 0.0, 0.0, 0.0, 0.0, 0.0, 1.7054510992843373E9, 0.0, 2024-01-16 19:24:59.284
97.0, -415.2784910798073, -420.3049166202545, -227.86462450027466, -71.56672555208206, -0.9760000463575125, -0.9760000463575125, 0.9760000463575125, 0.0, 0.0, 0.0, 0.0, 0.0, 1.705451099311412E9, 0.0, 2024-01-16 19:24:59.311
97.0, -398.0450320839882, -427.00681734085083, -237.43876838684082, -61.03516727685928, -0.9760000463575125, -0.9760000463575125, 0.9760000463575125, 0.0, 0.0, 0.0, 0.0, 0.0, 1.705451099311412E9, 0.0, 2024-01-16 19:24:59.311
98.0, -420.3049166202545, -430.11841410398483, -242.46519392728806, -101.00721800327301, -0.9760000463575125, -0.9760000463575125, 0.9760000463575125, 0.0, 0.0, 0.0, 0.0, 0.0, 1.7054510993121233E9, 0.0, 2024-01-16 19:24:59.312
98.0, -431.3151820898056, -426.7674637436867, -240.78971874713898, -79.22604066133499, -0.9760000463575125, -0.9760000463575125, 0.9760000463575125, 0.0, 0.0, 0.0, 0.0, 0.0, 1.7054510993121233E9, 0.0, 2024-01-16 19:24:59.312
0.0, -411.20947992801666, -438.4957900047302, -250.84256982803345, -102.20398598909378, -0.9760000463575125, -0.9760000463575125, 0.9760000463575125, 0.0, 0.0, 0.0, 0.0, 0.0, 1.7054510993268209E9, 0.0, 2024-01-16 19:24:59.326
0.0, -432.7513036727905, -429.1609997153282, -241.7471331357956, -98.37432843446732, -0.9760000463575125, -0.9760000463575125, 0.9760000463575125, 0.0, 0.0, 0.0, 0.0, 0.0, 1.7054510993268209E9, 0.0, 2024-01-16 19:24:59.326
1.0, -410.73077273368835, -424.85263496637344, -229.06139248609543, -56.487448930740356, -0.9760000463575125, -0.20800000987946987, 0.9760000463575125, 0.0, 0.0, 0.0, 0.0, 0.0, 1.705451099327261E9, 0.0, 2024-01-16 19:24:59.327
1.0, -403.0714576244354, -437.77772921323776, -248.92774105072021, -88.80018454790115, -0.9760000463575125, -0.20800000987946987, 0.9760000463575125, 0.0, 0.0, 0.0, 0.0, 0.0, 1.705451099327261E9, 0.0, 2024-01-16 19:24:59.327
2.0, -425.5706957578659, -428.44293892383575, -242.46519392728806, -116.08649462461472, -0.04800000227987766, -0.20800000987946987, 0.9760000463575125, 0.0, 0.0, 0.0, 0.0, 0.0, 1.705451099340723E9, 0.0, 2024-01-16 19:24:59.340
2.0, -420.06556302309036, -428.6822925209999, -236.9600611925125, -78.02927267551422, -0.04800000227987766, -0.20800000987946987, 0.9760000463575125, 0.0, 0.0, 0.0, 0.0, 0.0, 1.705451099340723E9, 0.0, 2024-01-16 19:24:59.340
3.0, -402.5927504301071, -435.86290043592453, -253.7148129940033, -77.31121188402176, -0.04800000227987766, -0.20800000987946987, 0.9760000463575125, 0.0, 0.0, 0.0, 0.0, 0.0, 1.705451099356676E9, 0.0, 2024-01-16 19:24:59.356
3.0, -425.5706957578659, -442.804154753685, -255.39028817415237, -119.19809138774872, -0.04800000227987766, -0.20800000987946987, 0.9760000463575125, 0.0, 0.0, 0.0, 0.0, 0.0, 1.705451099356676E9, 0.0, 2024-01-16 19:24:59.356
4.0, -427.00681734085083, -427.96423172950745, -230.01880687475204, -90.47565972805023, -0.04800000227987766, -0.20800000987946987, 0.9760000463575125, 0.0, 0.0, 0.0, 0.0, 0.0, 1.7054510993572032E9, 0.0, 2024-01-16 19:24:59.357
4.0, -409.0552975535393, -433.469364464283, -237.67812198400497, -62.949996054172516, -0.04800000227987766, -0.20800000987946987, 0.9760000463575125, 0.0, 0.0, 0.0, 0.0, 0.0, 1.7054510993572032E9, 0.0, 2024-01-16 19:24:59.357
5.0, -412.40624791383743, -435.6235468387604, -239.5929507613182, -94.784024477005, -0.04800000227987766, -0.20800000987946987, 0.9760000463575125, 0.0, 0.0, 0.0, 0.0, 0.0, 1.7054510993706849E9, 0.0, 2024-01-16 19:24:59.370
5.0, -427.00681734085083, -424.85263496637344, -234.56652522087097, -98.13497483730316, -0.04800000227987766, -0.20800000987946987, 0.9760000463575125, 0.0, 0.0, 0.0, 0.0, 0.0, 1.7054510993706849E9, 0.0, 2024-01-16 19:24:59.370
6.0, -408.09788316488266, -422.4590989947319, -234.56652522087097, -62.71064245700836, -0.04800000227987766, -0.20800000987946987, 0.9760000463575125, 0.0, 0.0, 0.0, 0.0, 0.0, 1.7054510993865457E9, 0.0, 2024-01-16 19:24:59.386
6.0, -407.3798223733902, -437.29902201890945, -239.83230435848236, -87.12470936775208, -0.04800000227987766, -0.20800000987946987, 0.9760000463575125, 0.0, 0.0, 0.0, 0.0, 0.0, 1.7054510993865457E9, 0.0, 2024-01-16 19:24:59.386
7.0, -427.246170938015, -438.0170828104019, -242.2258403301239, -112.73554426431656, -0.04800000227987766, -0.20800000987946987, 0.9760000463575125, 0.0, 0.0, 0.0, 0.0, 0.0, 1.7054510993872344E9, 0.0, 2024-01-16 19:24:59.387
7.0, -422.9378061890602, -430.59712129831314, -227.6252709031105, -69.65189677476883, -0.04800000227987766, -0.20800000987946987, 0.9760000463575125, 0.0, 0.0, 0.0, 0.0, 0.0, 1.7054510993872344E9, 0.0, 2024-01-16 19:24:59.387
8.0, -401.1566288471222, -437.0596684217453, -234.08781802654266, -67.01900720596313, -0.04800000227987766, -0.20800000987946987, 0.9760000463575125, 0.0, 0.0, 0.0, 0.0, 0.0, 1.705451099400957E9, 0.0, 2024-01-16 19:24:59.400
8.0, -416.47525906562805, -431.55453568696976, -245.3374370932579, -105.07622915506363, -0.04800000227987766, -0.20800000987946987, 0.9760000463575125, 0.0, 0.0, 0.0, 0.0, 0.0, 1.705451099400957E9, 0.0, 2024-01-16 19:24:59.400
9.0, -417.6720270514488, -414.799783885479, -222.59884536266327, -71.56672555208206, -0.04800000227987766, -0.20800000987946987, 0.9760000463575125, 0.0, 0.0, 0.0, 0.0, 0.0, 1.7054510994164658E9, 0.0, 2024-01-16 19:24:59.416
9.0, -389.90700978040695, -415.51784467697144, -227.1465637087822, -51.700376987457275, -0.04800000227987766, -0.20800000987946987, 0.9760000463575125, 0.0, 0.0, 0.0, 0.0, 0.0, 1.7054510994164658E9, 0.0, 2024-01-16 19:24:59.416
10.0, -399.0024464726448, -427.7248781323433, -237.91747558116913, -98.85303562879562, -0.04800000227987766, -0.20800000987946987, 0.9760000463575125, 0.0, 0.0, 0.0, 0.0, 0.0, 1.7054510994171803E9, 0.0, 2024-01-16 19:24:59.417
10.0, -420.06556302309036, -423.8952205777168, -229.7794532775879, -101.96463239192963, -0.04800000227987766, -0.20800000987946987, 0.9760000463575125, 0.0, 0.0, 0.0, 0.0, 0.0, 1.7054510994171803E9, 0.0, 2024-01-16 19:24:59.417
11.0, -400.6779216527939, -418.8687950372696, -220.9233701825142, -54.093912959098816, -0.04800000227987766, -0.20800000987946987, 0.9760000463575125, 0.0, 0.0, 0.0, 0.0, 0.0, 1.7054510994307628E9, 0.0, 2024-01-16 19:24:59.430
11.0, -394.9334353208542, -427.48552453517914, -234.08781802654266, -77.0718582868576, -0.04800000227987766, -0.20800000987946987, 0.9760000463575125, 0.0, 0.0, 0.0, 0.0, 0.0, 1.7054510994307628E9, 0.0, 2024-01-16 19:24:59.430
12.0, -420.3049166202545, -424.37392777204514, -232.17298924922943, -105.31558275222778, -0.04800000227987766, -0.20800000987946987, 0.9760000463575125, 0.0, 0.0, 0.0, 0.0, 0.0, 1.70545109946146E9, 0.0, 2024-01-16 19:24:59.461
12.0, -402.35339683294296, -410.9701263308525, -213.74276226758957, -57.44486331939697, -0.04800000227987766, -0.20800000987946987, 0.9760000463575125, 0.0, 0.0, 0.0, 0.0, 0.0, 1.70545109946146E9, 0.0, 2024-01-16 19:24:59.461
13.0, -385.5986450314522, -417.6720270514488, -224.9923813343048, -56.2480953335762, -0.04800000227987766, -0.20800000987946987, 0.9760000463575125, 0.0, 0.0, 0.0, 0.0, 0.0, 1.7054510994782257E9, 0.0, 2024-01-16 19:24:59.478
13.0, -407.3798223733902, -419.3475022315979, -226.6678565144539, -101.24657160043716, -0.04800000227987766, -0.20800000987946987, 0.9760000463575125, 0.0, 0.0, 0.0, 0.0, 0.0, 1.7054510994782257E9, 0.0, 2024-01-16 19:24:59.478
14.0, -410.9701263308525, -408.3372367620468, -221.16272377967834, -74.19961512088776, -0.04800000227987766, -0.20800000987946987, 0.9760000463575125, 0.0, 0.0, 0.0, 0.0, 0.0, 1.705451099478912E9, 0.0, 2024-01-16 19:24:59.478
14.0, -384.8805842399597, -415.99655187129974, -225.47108852863312, -50.26425540447235, -0.04800000227987766, -0.20800000987946987, 0.9760000463575125, 0.0, 0.0, 0.0, 0.0, 0.0, 1.705451099478912E9, 0.0, 2024-01-16 19:24:59.478
15.0, -398.5237392783165, -431.7938892841339, -245.3374370932579, -98.13497483730316, -0.04800000227987766, -0.20800000987946987, 0.9760000463575125, 0.0, 0.0, 0.0, 0.0, 0.0, 1.705451099479628E9, 0.0, 2024-01-16 19:24:59.479
15.0, -416.2359054684639, -421.26233100891113, -223.79561334848404, -93.82661008834839, -0.04800000227987766, -0.20800000987946987, 0.9760000463575125, 0.0, 0.0, 0.0, 0.0, 0.0, 1.705451099479628E9, 0.0, 2024-01-16 19:24:59.479
16.0, -389.6676561832428, -415.51784467697144, -218.05112701654434, -48.110073029994965, -0.04800000227987766, -0.20800000987946987, 0.9760000463575125, 0.0, 0.0, 0.0, 0.0, 0.0, 1.7054510994916472E9, 0.0, 2024-01-16 19:24:59.491
16.0, -389.1889489889145, -424.134574174881, -235.5239396095276, -76.83250468969345, -0.04800000227987766, -0.20800000987946987, 0.9760000463575125, 0.0, 0.0, 0.0, 0.0, 0.0, 1.7054510994916472E9, 0.0, 2024-01-16 19:24:59.491
17.0, -415.0391374826431, -421.9803918004036, -236.0026468038559, -109.14524030685425, -0.04800000227987766, -0.20800000987946987, 0.9760000463575125, 0.0, 0.0, 0.0, 0.0, 0.0, 1.7054510994922233E9, 0.0, 2024-01-16 19:24:59.492
17.0, -400.6779216527939, -410.4914191365242, -219.96595579385757, -55.769388139247894, -0.04800000227987766, -0.20800000987946987, 0.9760000463575125, 0.0, 0.0, 0.0, 0.0, 0.0, 1.7054510994922233E9, 0.0, 2024-01-16 19:24:59.492
18.0, -387.9921810030937, -428.92164611816406, -234.32717162370682, -55.290680944919586, -0.04800000227987766, -0.20800000987946987, 0.9760000463575125, 0.0, 0.0, 0.0, 0.0, 0.0, 1.705451099506638E9, 0.0, 2024-01-16 19:24:59.506
18.0, -399.9598608613014, -419.10814863443375, -234.56652522087097, -99.09238922595978, -0.04800000227987766, -0.20800000987946987, 0.9760000463575125, 0.0, 0.0, 0.0, 0.0, 0.0, 1.705451099506638E9, 0.0, 2024-01-16 19:24:59.506
19.0, -407.3798223733902, -412.88495510816574, -231.93363565206528, -66.77965360879898, -0.04800000227987766, -0.20800000987946987, 0.9760000463575125, 0.0, 0.0, 0.0, 0.0, 0.0, 1.7054510995071824E9, 0.0, 2024-01-16 19:24:59.507
19.0, -385.5986450314522, -419.8262094259262, -227.86462450027466, -50.26425540447235, -0.04800000227987766, -0.20800000987946987, 0.9760000463575125, 0.0, 0.0, 0.0, 0.0, 0.0, 1.7054510995071824E9, 0.0, 2024-01-16 19:24:59.507
20.0, -398.5237392783165, -431.7938892841339, -241.26842594146729, -96.22014605998993, -0.04800000227987766, -0.20800000987946987, 0.9760000463575125, 0.0, 0.0, 0.0, 0.0, 0.0, 1.7054510995208757E9, 0.0, 2024-01-16 19:24:59.520
20.0, -409.5340047478676, -413.1243087053299, -234.56652522087097, -94.3053172826767, -0.04800000227987766, -0.20800000987946987, 0.9760000463575125, 0.0, 0.0, 0.0, 0.0, 0.0, 1.7054510995208757E9, 0.0, 2024-01-16 19:24:59.520
21.0, -389.90700978040695, -412.1668943166733, -221.4020773768425, -45.237829864025116, -0.04800000227987766, -0.20800000987946987, 0.9760000463575125, 0.0, 0.0, 0.0, 0.0, 0.0, 1.705451099536442E9, 0.0, 2024-01-16 19:24:59.536
21.0, -384.16252344846725, -416.95396625995636, -227.6252709031105, -68.93383598327637, -0.04800000227987766, -0.20800000987946987, 0.9760000463575125, 0.0, 0.0, 0.0, 0.0, 0.0, 1.705451099536442E9, 0.0, 2024-01-16 19:24:59.536
22.0, -409.77335834503174, -417.6720270514488, -235.76329320669174, -102.44333958625793, -0.04800000227987766, -0.20800000987946987, 0.9760000463575125, 0.0, 0.0, 0.0, 0.0, 0.0, 1.705451099537119E9, 0.0, 2024-01-16 19:24:59.537
22.0, -400.6779216527939, -410.9701263308525, -212.78534787893295, -60.07775288820267, -0.04800000227987766, -0.20800000987946987, 0.9760000463575125, 0.0, 0.0, 0.0, 0.0, 0.0, 1.705451099537119E9, 0.0, 2024-01-16 19:24:59.537
23.0, -380.8115730881691, -424.85263496637344, -233.8484644293785, -67.49771440029144, -0.04800000227987766, -0.20800000987946987, 0.9760000463575125, 0.0, 0.0, 0.0, 0.0, 0.0, 1.7054510995508113E9, 0.0, 2024-01-16 19:24:59.550
23.0, -401.39598244428635, -423.4165133833885, -233.13040363788605, -100.0498036146164, -0.04800000227987766, -0.20800000987946987, 0.9760000463575125, 0.0, 0.0, 0.0, 0.0, 0.0, 1.7054510995508113E9, 0.0, 2024-01-16 19:24:59.550
24.0, -397.80567848682404, -410.0127119421959, -211.82793349027634, -66.30094641447067, -0.04800000227987766, -0.20800000987946987, 0.9760000463575125, 0.0, 0.0, 0.0, 0.0, 0.0, 1.705451099566569E9, 0.0, 2024-01-16 19:24:59.566
24.0, -376.7425619363785, -410.4914191365242, -222.12013816833496, -46.67395144701004, -0.04800000227987766, -0.20800000987946987, 0.9760000463575125, 0.0, 0.0, 0.0, 0.0, 0.0, 1.705451099566569E9, 0.0, 2024-01-16 19:24:59.566
25.0, -385.83799862861633, -415.2784910798073, -212.5459942817688, -86.40664857625961, -0.04800000227987766, -0.20800000987946987, 0.9760000463575125, 0.0, 0.0, 0.0, 0.0, 0.0, 1.705451099567166E9, 0.0, 2024-01-16 19:24:59.567
25.0, -394.2153745293617, -399.4811536669731, -217.33306622505188, -77.31121188402176, -0.04800000227987766, -0.20800000987946987, 0.9760000463575125, 0.0, 0.0, 0.0, 0.0, 0.0, 1.705451099567166E9, 0.0, 2024-01-16 19:24:59.567
26.0, -373.3916115760803, -395.4121425151825, -209.19504392147064, -38.5359291434288, -0.04800000227987766, -0.20800000987946987, 0.9760000463575125, 0.0, 0.0, 0.0, 0.0, 0.0, 1.705451099580777E9, 0.0, 2024-01-16 19:24:59.580
26.0, -367.6471252441406, -408.57659035921097, -219.00854140520096, -60.31710648536682, -0.04800000227987766, -0.20800000987946987, 0.9760000463575125, 0.0, 0.0, 0.0, 0.0, 0.0, 1.705451099580777E9, 0.0, 2024-01-16 19:24:59.580
27.0, -394.69408172369003, -405.46499359607697, -219.72660219669342, -91.91178131103516, -0.04800000227987766, -0.20800000987946987, 0.9760000463575125, 0.0, 0.0, 0.0, 0.0, 0.0, 1.7054510995967896E9, 0.0, 2024-01-16 19:24:59.596
27.0, -390.86442416906357, -401.87468963861465, -201.0570216178894, -48.82813382148743, -0.04800000227987766, -0.20800000987946987, 0.9760000463575125, 0.0, 0.0, 0.0, 0.0, 0.0, 1.7054510995967896E9, 0.0, 2024-01-16 19:24:59.596
28.0, -381.2902802824974, -418.3900878429413, -226.90721011161804, -52.897144973278046, -0.04800000227987766, -0.20800000987946987, 0.9760000463575125, 0.0, 0.0, 0.0, 0.0, 0.0, 1.7054510995971923E9, 0.0, 2024-01-16 19:24:59.597
28.0, -408.09788316488266, -421.74103820323944, -235.5239396095276, -94.54467087984085, -0.04800000227987766, -0.20800000987946987, 0.9760000463575125, 0.0, 0.0, 0.0, 0.0, 0.0, 1.7054510995971923E9, 0.0, 2024-01-16 19:24:59.597
29.0, -407.3798223733902, -413.84236949682236, -226.18914932012558, -74.43896871805191, -0.04800000227987766, -0.20800000987946987, 0.9760000463575125, 0.0, 0.0, 0.0, 0.0, 0.0, 1.7054510996107883E9, 0.0, 2024-01-16 19:24:59.610
29.0, -396.3695569038391, -429.8790605068207, -227.86462450027466, -52.897144973278046, -0.04800000227987766, -0.20800000987946987, 0.9760000463575125, 0.0, 0.0, 0.0, 0.0, 0.0, 1.7054510996107883E9, 0.0, 2024-01-16 19:24:59.610
30.0, -405.9437007904053, -433.9480716586113, -239.5929507613182, -93.10854929685593, -0.04800000227987766, -0.20800000987946987, 0.9760000463575125, 0.0, 0.0, 0.0, 0.0, 0.0, 1.7054510996265287E9, 0.0, 2024-01-16 19:24:59.626
30.0, -427.48552453517914, -426.28875654935837, -230.97622126340866, -95.74143886566162, -0.04800000227987766, -0.20800000987946987, 0.9760000463575125, 0.0, 0.0, 0.0, 0.0, 0.0, 1.7054510996265287E9, 0.0, 2024-01-16 19:24:59.626
31.0, -397.5663248896599, -415.2784910798073, -225.47108852863312, -45.95589065551758, -0.04800000227987766, -0.20800000987946987, 0.9760000463575125, 0.0, 0.0, 0.0, 0.0, 0.0, 1.7054510996271827E9, 0.0, 2024-01-16 19:24:59.627
31.0, -391.3431313633919, -425.33134216070175, -230.49751406908035, -79.94410145282745, -0.04800000227987766, -0.20800000987946987, 0.9760000463575125, 0.0, 0.0, 0.0, 0.0, 0.0, 1.7054510996271827E9, 0.0, 2024-01-16 19:24:59.627
32.0, -414.5604302883148, -423.6558669805527, -237.43876838684082, -100.76786440610886, -0.03200000151991844, -0.20800000987946987, 0.9760000463575125, 0.0, 0.0, 0.0, 0.0, 0.0, 1.7054510996407173E9, 0.0, 2024-01-16 19:24:59.640
32.0, -398.28438568115234, -408.3372367620468, -222.83819895982742, -55.769388139247894, -0.03200000151991844, -0.20800000987946987, 0.9760000463575125, 0.0, 0.0, 0.0, 0.0, 0.0, 1.7054510996407173E9, 0.0, 2024-01-16 19:24:59.640
33.0, -378.89674431085587, -417.6720270514488, -224.0349669456482, -53.1364985704422, -0.03200000151991844, -0.20800000987946987, 0.9760000463575125, 0.0, 0.0, 0.0, 0.0, 0.0, 1.705451099656643E9, 0.0, 2024-01-16 19:24:59.656
33.0, -404.02887201309204, -421.5016846060753, -241.98648673295975, -99.81045001745224, -0.03200000151991844, -0.20800000987946987, 0.9760000463575125, 0.0, 0.0, 0.0, 0.0, 0.0, 1.705451099656643E9, 0.0, 2024-01-16 19:24:59.656
34.0, -403.55016481876373, -414.5604302883148, -212.78534787893295, -67.01900720596313, -0.03200000151991844, -0.20800000987946987, 0.9760000463575125, 0.0, 0.0, 0.0, 0.0, 0.0, 1.7054510996572354E9, 0.0, 2024-01-16 19:24:59.657
34.0, -390.1463633775711, -419.8262094259262, -227.6252709031105, -47.87071943283081, -0.03200000151991844, -0.20800000987946987, 0.9760000463575125, 0.0, 0.0, 0.0, 0.0, 0.0, 1.7054510996572354E9, 0.0, 2024-01-16 19:24:59.657
35.0, -395.65149611234665, -426.28875654935837, -226.6678565144539, -94.784024477005, -0.03200000151991844, -0.20800000987946987, 0.9760000463575125, 0.0, 0.0, 0.0, 0.0, 0.0, 1.705451099670711E9, 0.0, 2024-01-16 19:24:59.670
35.0, -410.25206553936005, -413.36366230249405, -225.94979572296143, -94.06596368551254, -0.03200000151991844, -0.20800000987946987, 0.9760000463575125, 0.0, 0.0, 0.0, 0.0, 0.0, 1.705451099670711E9, 0.0, 2024-01-16 19:24:59.670
36.0, -387.75282740592957, -412.88495510816574, -220.20530939102173, -47.63136583566666, -0.03200000151991844, -0.20800000987946987, 0.9760000463575125, 0.0, 0.0, 0.0, 0.0, 0.0, 1.7054510996866655E9, 0.0, 2024-01-16 19:24:59.686
36.0, -391.8218385577202, -438.4957900047302, -236.4813539981842, -76.11444389820099, -0.03200000151991844, -0.20800000987946987, 0.9760000463575125, 0.0, 0.0, 0.0, 0.0, 0.0, 1.7054510996866655E9, 0.0, 2024-01-16 19:24:59.686
37.0, -400.6779216527939, -421.5016846060753, -239.83230435848236, -96.69885325431824, -0.03200000151991844, -0.20800000987946987, 0.9760000463575125, 0.0, 0.0, 0.0, 0.0, 0.0, 1.7054510996871736E9, 0.0, 2024-01-16 19:24:59.687
37.0, -394.4547281265259, -408.57659035921097, -227.6252709031105, -56.72680252790451, -0.03200000151991844, -0.20800000987946987, 0.9760000463575125, 0.0, 0.0, 0.0, 0.0, 0.0, 1.7054510996871736E9, 0.0, 2024-01-16 19:24:59.687
38.0, -384.16252344846725, -421.74103820323944, -245.8161442875862, -57.92357051372528, -0.03200000151991844, -0.20800000987946987, 0.9760000463575125, 0.0, 0.0, 0.0, 0.0, 0.0, 1.7054510997007048E9, 0.0, 2024-01-16 19:24:59.700
38.0, -394.9334353208542, -418.3900878429413, -239.35359716415405, -96.22014605998993, -0.03200000151991844, -0.20800000987946987, 0.9760000463575125, 0.0, 0.0, 0.0, 0.0, 0.0, 1.7054510997007048E9, 0.0, 2024-01-16 19:24:59.700
39.0, -401.87468963861465, -409.0552975535393, -223.79561334848404, -72.04543274641037, -0.03200000151991844, -0.20800000987946987, 0.9760000463575125, 0.0, 0.0, 0.0, 0.0, 0.0, 1.705451099716406E9, 0.0, 2024-01-16 19:24:59.716
39.0, -376.7425619363785, -410.25206553936005, -223.79561334848404, -45.95589065551758, -0.03200000151991844, -0.20800000987946987, 0.9760000463575125, 0.0, 0.0, 0.0, 0.0, 0.0, 1.705451099716406E9, 0.0, 2024-01-16 19:24:59.716
40.0, -392.7792529463768, -423.4165133833885, -234.08781802654266, -88.80018454790115, -0.03200000151991844, -0.20800000987946987, 0.9760000463575125, 0.0, 0.0, 0.0, 0.0, 0.0, 1.7054510997171626E9, 0.0, 2024-01-16 19:24:59.717
40.0, -408.57659035921097, -412.1668943166733, -229.06139248609543, -89.75759893655777, -0.03200000151991844, -0.20800000987946987, 0.9760000463575125, 0.0, 0.0, 0.0, 0.0, 0.0, 1.7054510997171626E9, 0.0, 2024-01-16 19:24:59.717
41.0, -387.5134738087654, -413.6030158996582, -216.85435903072357, -49.06748741865158, -0.03200000151991844, -0.20800000987946987, 0.9760000463575125, 0.0, 0.0, 0.0, 0.0, 0.0, 1.705451099731218E9, 0.0, 2024-01-16 19:24:59.731
41.0, -386.5560594201088, -428.2035853266716, -228.34333169460297, -73.00284713506699, -0.03200000151991844, -0.20800000987946987, 0.9760000463575125, 0.0, 0.0, 0.0, 0.0, 0.0, 1.705451099731218E9, 0.0, 2024-01-16 19:24:59.731
42.0, -407.14046877622604, -416.7146126627922, -233.3697572350502, -109.62394750118256, -0.03200000151991844, -0.20800000987946987, 0.9760000463575125, 0.0, 0.0, 0.0, 0.0, 0.0, 1.70545109974644E9, 0.0, 2024-01-16 19:24:59.746
42.0, -391.8218385577202, -401.6353360414505, -208.9556903243065, -52.41843777894974, -0.03200000151991844, -0.20800000987946987, 0.9760000463575125, 0.0, 0.0, 0.0, 0.0, 0.0, 1.70545109974644E9, 0.0, 2024-01-16 19:24:59.746
43.0, -370.04066121578217, -417.6720270514488, -226.42850291728973, -58.64163130521774, -0.03200000151991844, -0.20800000987946987, 0.9760000463575125, 0.0, 0.0, 0.0, 0.0, 0.0, 1.705451099747114E9, 0.0, 2024-01-16 19:24:59.747
43.0, -395.4121425151825, -424.134574174881, -226.6678565144539, -99.81045001745224, -0.03200000151991844, -0.20800000987946987, 0.9760000463575125, 0.0, 0.0, 0.0, 0.0, 0.0, 1.705451099747114E9, 0.0, 2024-01-16 19:24:59.747
44.0, -400.1992144584656, -414.799783885479, -223.55625975131989, -70.13060396909714, -0.03200000151991844, -0.20800000987946987, 0.9760000463575125, 0.0, 0.0, 0.0, 0.0, 0.0, 1.7054510997607327E9, 0.0, 2024-01-16 19:24:59.760
44.0, -382.247694671154, -417.43267345428467, -227.6252709031105, -45.95589065551758, -0.03200000151991844, -0.20800000987946987, 0.9760000463575125, 0.0, 0.0, 0.0, 0.0, 0.0, 1.7054510997607327E9, 0.0, 2024-01-16 19:24:59.760
45.0, -389.42830258607864, -422.69845259189606, -246.77355867624283, -88.32147735357285, -0.03200000151991844, -0.20800000987946987, 0.9760000463575125, 0.0, 0.0, 0.0, 0.0, 0.0, 1.7054510997766278E9, 0.0, 2024-01-16 19:24:59.776
45.0, -409.0552975535393, -415.51784467697144, -228.58268529176712, -90.47565972805023, -0.03200000151991844, -0.20800000987946987, 0.9760000463575125, 0.0, 0.0, 0.0, 0.0, 0.0, 1.7054510997766278E9, 0.0, 2024-01-16 19:24:59.776
46.0, -381.52963387966156, -411.4488335251808, -220.20530939102173, -39.97205072641373, -0.03200000151991844, -0.20800000987946987, 0.9760000463575125, 0.0, 0.0, 0.0, 0.0, 0.0, 1.7054510997771423E9, 0.0, 2024-01-16 19:24:59.777
46.0, -380.8115730881691, -422.69845259189606, -228.82203888893127, -75.15702950954437, -0.03200000151991844, -0.20800000987946987, 0.9760000463575125, 0.0, 0.0, 0.0, 0.0, 0.0, 1.7054510997771423E9, 0.0, 2024-01-16 19:24:59.777
47.0, -404.02887201309204, -416.95396625995636, -228.82203888893127, -102.44333958625793, -0.03200000151991844, -0.20800000987946987, 0.9760000463575125, 0.0, 0.0, 0.0, 0.0, 0.0, 1.7054510997907329E9, 0.0, 2024-01-16 19:24:59.790
47.0, -385.83799862861633, -399.24180006980896, -212.5459942817688, -54.572620153427124, -0.03200000151991844, -0.20800000987946987, 0.9760000463575125, 0.0, 0.0, 0.0, 0.0, 0.0, 1.7054510997907329E9, 0.0, 2024-01-16 19:24:59.790
48.0, -376.26385474205017, -419.10814863443375, -231.93363565206528, -58.8809849023819, -0.03200000151991844, -0.20800000987946987, 0.9760000463575125, 0.0, 0.0, 0.0, 0.0, 0.0, 1.7054510998068347E9, 0.0, 2024-01-16 19:24:59.806
48.0, -388.2315346002579, -413.1243087053299, -240.31101155281067, -102.44333958625793, -0.03200000151991844, -0.20800000987946987, 0.9760000463575125, 0.0, 0.0, 0.0, 0.0, 0.0, 1.7054510998068347E9, 0.0, 2024-01-16 19:24:59.806
49.0, -391.8218385577202, -404.98628640174866, -219.72660219669342, -74.43896871805191, -0.03200000151991844, -0.20800000987946987, 0.9760000463575125, 0.0, 0.0, 0.0, 0.0, 0.0, 1.70545109980728E9, 0.0, 2024-01-16 19:24:59.807
49.0, -371.4767827987671, -406.9011151790619, -220.68401658535004, -44.041061878204346, -0.03200000151991844, -0.20800000987946987, 0.9760000463575125, 0.0, 0.0, 0.0, 0.0, 0.0, 1.70545109980728E9, 0.0, 2024-01-16 19:24:59.807
50.0, -380.57221949100494, -415.0391374826431, -231.45492845773697, -89.03953814506531, -0.03200000151991844, -0.20800000987946987, 0.9760000463575125, 0.0, 0.0, 0.0, 0.0, 0.0, 1.7054510998208084E9, 0.0, 2024-01-16 19:24:59.820
50.0, -396.3695569038391, -408.57659035921097, -220.9233701825142, -88.80018454790115, -0.03200000151991844, -0.20800000987946987, 0.9760000463575125, 0.0, 0.0, 0.0, 0.0, 0.0, 1.7054510998208084E9, 0.0, 2024-01-16 19:24:59.820
51.0, -381.52963387966156, -410.4914191365242, -219.72660219669342, -41.88687950372696, -0.03200000151991844, -0.20800000987946987, 0.9760000463575125, 0.0, 0.0, 0.0, 0.0, 0.0, 1.7054510998364656E9, 0.0, 2024-01-16 19:24:59.836
51.0, -374.82773315906525, -418.15073424577713, -231.45492845773697, -86.16729497909546, -0.03200000151991844, -0.20800000987946987, 0.9760000463575125, 0.0, 0.0, 0.0, 0.0, 0.0, 1.7054510998364656E9, 0.0, 2024-01-16 19:24:59.836
52.0, -394.69408172369003, -411.20947992801666, -229.06139248609543, -100.0498036146164, -0.03200000151991844, -0.20800000987946987, 0.9760000463575125, 0.0, 0.0, 0.0, 0.0, 0.0, 1.705451099837114E9, 0.0, 2024-01-16 19:24:59.837
52.0, -380.8115730881691, -399.9598608613014, -212.5459942817688, -51.700376987457275, -0.03200000151991844, -0.20800000987946987, 0.9760000463575125, 0.0, 0.0, 0.0, 0.0, 0.0, 1.705451099837114E9, 0.0, 2024-01-16 19:24:59.837
53.0, -372.4341971874237, -413.6030158996582, -236.0026468038559, -61.03516727685928, -0.03200000151991844, -0.20800000987946987, 0.9760000463575125, 0.0, 0.0, 0.0, 0.0, 0.0, 1.7054510998671637E9, 0.0, 2024-01-16 19:24:59.867
53.0, -393.49731373786926, -412.88495510816574, -230.01880687475204, -103.40075397491455, -0.03200000151991844, -0.20800000987946987, 0.9760000463575125, 0.0, 0.0, 0.0, 0.0, 0.0, 1.7054510998671637E9, 0.0, 2024-01-16 19:24:59.867
54.0, -397.3269712924957, -402.83210402727127, -219.48724859952927, -71.80607914924622, -0.03200000151991844, -0.20800000987946987, 0.9760000463575125, 0.0, 0.0, 0.0, 0.0, 0.0, 1.7054510998678632E9, 0.0, 2024-01-16 19:24:59.867
54.0, -380.09351229667664, -420.3049166202545, -231.45492845773697, -49.78554821014404, -0.03200000151991844, -0.20800000987946987, 0.9760000463575125, 0.0, 0.0, 0.0, 0.0, 0.0, 1.7054510998678632E9, 0.0, 2024-01-16 19:24:59.867
55.0, -399.24180006980896, -434.4267788529396, -245.57679069042206, -96.22014605998993, -0.03200000151991844, -0.20800000987946987, 0.9760000463575125, 0.0, 0.0, 0.0, 0.0, 0.0, 1.705451099868575E9, 0.0, 2024-01-16 19:24:59.868
55.0, -410.4914191365242, -415.2784910798073, -236.72070759534836, -91.91178131103516, -0.03200000151991844, -0.20800000987946987, 0.9760000463575125, 0.0, 0.0, 0.0, 0.0, 0.0, 1.705451099868575E9, 0.0, 2024-01-16 19:24:59.868
56.0, -387.5134738087654, -415.0391374826431, -234.80587881803513, -49.306841015815735, -0.03200000151991844, -0.20800000987946987, 0.9760000463575125, 0.0, 0.0, 0.0, 0.0, 0.0, 1.705451099881123E9, 0.0, 2024-01-16 19:24:59.881
56.0, -392.3005457520485, -426.5281101465225, -246.77355867624283, -82.09828382730484, -0.03200000151991844, -0.20800000987946987, 0.9760000463575125, 0.0, 0.0, 0.0, 0.0, 0.0, 1.705451099881123E9, 0.0, 2024-01-16 19:24:59.881
57.0, -409.0552975535393, -423.4165133833885, -235.04523241519928, -112.0174834728241, -0.03200000151991844, -0.20800000987946987, 0.9760000463575125, 0.0, 0.0, 0.0, 0.0, 0.0, 1.705451099896506E9, 0.0, 2024-01-16 19:24:59.896
57.0, -410.0127119421959, -422.21974539756775, -226.6678565144539, -68.2157751917839, -0.03200000151991844, -0.20800000987946987, 0.9760000463575125, 0.0, 0.0, 0.0, 0.0, 0.0, 1.705451099896506E9, 0.0, 2024-01-16 19:24:59.896
58.0, -394.69408172369003, -438.0170828104019, -242.94390112161636, -68.93383598327637, -0.03200000151991844, -0.20800000987946987, 0.9760000463575125, 0.0, 0.0, 0.0, 0.0, 0.0, 1.705451099897135E9, 0.0, 2024-01-16 19:24:59.897
58.0, -413.84236949682236, -430.11841410398483, -241.7471331357956, -109.86330109834671, -0.03200000151991844, -0.20800000987946987, 0.9760000463575125, 0.0, 0.0, 0.0, 0.0, 0.0, 1.705451099897135E9, 0.0, 2024-01-16 19:24:59.897
59.0, -411.20947992801666, -419.10814863443375, -231.21557486057281, -80.42280864715576, -0.03200000151991844, -0.20800000987946987, 0.9760000463575125, 0.0, 0.0, 0.0, 0.0, 0.0, 1.70545109991114E9, 0.0, 2024-01-16 19:24:59.911
59.0, -392.06119215488434, -426.0494029521942, -227.6252709031105, -47.15265864133835, -0.03200000151991844, -0.20800000987946987, 0.9760000463575125, 0.0, 0.0, 0.0, 0.0, 0.0, 1.70545109991114E9, 0.0, 2024-01-16 19:24:59.911
60.0, -402.83210402727127, -432.03324288129807, -241.26842594146729, -95.50208526849747, -0.03200000151991844, -0.20800000987946987, 0.9760000463575125, 0.0, 0.0, 0.0, 0.0, 0.0, 1.7054510999264772E9, 0.0, 2024-01-16 19:24:59.926
60.0, -417.6720270514488, -424.37392777204514, -241.02907234430313, -104.83687555789948, -0.03200000151991844, -0.20800000987946987, 0.9760000463575125, 0.0, 0.0, 0.0, 0.0, 0.0, 1.7054510999264772E9, 0.0, 2024-01-16 19:24:59.926
61.0, -396.8482640981674, -421.9803918004036, -227.38591730594635, -51.22166979312897, -0.03200000151991844, -0.20800000987946987, 0.9760000463575125, 0.0, 0.0, 0.0, 0.0, 0.0, 1.7054510999271588E9, 0.0, 2024-01-16 19:24:59.927
61.0, -399.72050726413727, -435.86290043592453, -249.40644824504852, -84.97052699327469, -0.03200000151991844, -0.20800000987946987, 0.9760000463575125, 0.0, 0.0, 0.0, 0.0, 0.0, 1.7054510999271588E9, 0.0, 2024-01-16 19:24:59.927
62.0, -411.9275407195091, -423.4165133833885, -231.45492845773697, -105.55493634939194, -0.03200000151991844, -0.20800000987946987, 0.9760000463575125, 0.0, 0.0, 0.0, 0.0, 0.0, 1.7054510999407976E9, 0.0, 2024-01-16 19:24:59.940
62.0, -407.8585295677185, -416.2359054684639, -210.87051910161972, -59.59904569387436, -0.03200000151991844, -0.20800000987946987, 0.9760000463575125, 0.0, 0.0, 0.0, 0.0, 0.0, 1.7054510999407976E9, 0.0, 2024-01-16 19:24:59.940
63.0, -388.94959539175034, -426.5281101465225, -243.18325471878052, -59.83839929103851, -0.03200000151991844, -0.20800000987946987, 0.9760000463575125, 0.0, 0.0, 0.0, 0.0, 0.0, 1.7054510999565947E9, 0.0, 2024-01-16 19:24:59.956
63.0, -415.51784467697144, -431.7938892841339, -249.88515543937683, -106.51235073804855, -0.03200000151991844, -0.20800000987946987, 0.9760000463575125, 0.0, 0.0, 0.0, 0.0, 0.0, 1.7054510999565947E9, 0.0, 2024-01-16 19:24:59.956
64.0, -412.88495510816574, -419.3475022315979, -224.9923813343048, -76.11444389820099, -0.03200000151991844, -0.20800000987946987, 0.9760000463575125, 0.0, 0.0, 0.0, 0.0, 0.0, 1.7054510999572558E9, 0.0, 2024-01-16 19:24:59.957
64.0, -399.4811536669731, -427.48552453517914, -241.02907234430313, -53.85455936193466, -0.03200000151991844, -0.20800000987946987, 0.9760000463575125, 0.0, 0.0, 0.0, 0.0, 0.0, 1.7054510999572558E9, 0.0, 2024-01-16 19:24:59.957
65.0, -401.6353360414505, -432.5119500756264, -250.36386263370514, -92.15113490819931, -0.03200000151991844, -0.20800000987946987, 0.9760000463575125, 0.0, 0.0, 0.0, 0.0, 0.0, 1.705451099970914E9, 0.0, 2024-01-16 19:24:59.970
65.0, -414.799783885479, -423.17715978622437, -237.19941478967667, -94.54467087984085, -0.03200000151991844, -0.20800000987946987, 0.9760000463575125, 0.0, 0.0, 0.0, 0.0, 0.0, 1.705451099970914E9, 0.0, 2024-01-16 19:24:59.970
66.0, -401.6353360414505, -426.5281101465225, -239.83230435848236, -55.769388139247894, -0.03200000151991844, -0.20800000987946987, 0.9760000463575125, 0.0, 0.0, 0.0, 0.0, 0.0, 1.7054510999864247E9, 0.0, 2024-01-16 19:24:59.986
66.0, -397.5663248896599, -438.0170828104019, -247.01291227340698, -81.85893023014069, -0.03200000151991844, -0.20800000987946987, 0.9760000463575125, 0.0, 0.0, 0.0, 0.0, 0.0, 1.7054510999864247E9, 0.0, 2024-01-16 19:24:59.986
67.0, -415.99655187129974, -423.8952205777168, -235.04523241519928, -107.94847232103348, -0.03200000151991844, -0.20800000987946987, 0.9760000463575125, 0.0, 0.0, 0.0, 0.0, 0.0, 1.7054510999871361E9, 0.0, 2024-01-16 19:24:59.987
67.0, -398.28438568115234, -417.6720270514488, -225.23173493146896, -58.162924110889435, -0.03200000151991844, -0.20800000987946987, 0.9760000463575125, 0.0, 0.0, 0.0, 0.0, 0.0, 1.7054510999871361E9, 0.0, 2024-01-16 19:24:59.987
68.0, -386.0773522257805, -428.44293892383575, -236.72070759534836, -64.86482483148575, -0.03200000151991844, -0.20800000987946987, 0.9760000463575125, 0.0, 0.0, 0.0, 0.0, 0.0, 1.7054511000007396E9, 0.0, 2024-01-16 19:25:00.000
68.0, -407.8585295677185, -427.7248781323433, -238.6355363726616, -106.03364354372025, -0.03200000151991844, -0.20800000987946987, 0.9760000463575125, 0.0, 0.0, 0.0, 0.0, 0.0, 1.7054511000007396E9, 0.0, 2024-01-16 19:25:00.000
69.0, -409.0552975535393, -415.51784467697144, -228.34333169460297, -73.9602615237236, -0.03200000151991844, -0.20800000987946987, 0.9760000463575125, 0.0, 0.0, 0.0, 0.0, 0.0, 1.705451100016458E9, 0.0, 2024-01-16 19:25:00.016
69.0, -383.68381625413895, -420.06556302309036, -225.94979572296143, -49.06748741865158, -0.03200000151991844, -0.20800000987946987, 0.9760000463575125, 0.0, 0.0, 0.0, 0.0, 0.0, 1.705451100016458E9, 0.0, 2024-01-16 19:25:00.016
70.0, -395.65149611234665, -427.7248781323433, -243.18325471878052, -92.39048850536346, -0.03200000151991844, -0.20800000987946987, 0.9760000463575125, 0.0, 0.0, 0.0, 0.0, 0.0, 1.7054511000171533E9, 0.0, 2024-01-16 19:25:00.017
70.0, -414.32107669115067, -419.8262094259262, -228.34333169460297, -87.60341656208038, -0.03200000151991844, -0.20800000987946987, 0.9760000463575125, 0.0, 0.0, 0.0, 0.0, 0.0, 1.7054511000171533E9, 0.0, 2024-01-16 19:25:00.017
71.0, -398.0450320839882, -422.69845259189606, -227.86462450027466, -46.913305044174194, -0.03200000151991844, -0.20800000987946987, 0.9760000463575125, 0.0, 0.0, 0.0, 0.0, 0.0, 1.7054511000308237E9, 0.0, 2024-01-16 19:25:00.030
71.0, -396.8482640981674, -443.2828619480133, -242.46519392728806, -78.50797986984253, -0.03200000151991844, -0.20800000987946987, 0.9760000463575125, 0.0, 0.0, 0.0, 0.0, 0.0, 1.7054511000308237E9, 0.0, 2024-01-16 19:25:00.030
72.0, -416.7146126627922, -429.1609997153282, -237.19941478967667, -107.70911872386932, -0.03200000151991844, -0.20800000987946987, 0.9760000463575125, 0.0, 0.0, 0.0, 0.0, 0.0, 1.7054511000469382E9, 0.0, 2024-01-16 19:25:00.046
72.0, -403.55016481876373, -421.9803918004036, -230.01880687475204, -65.58288562297821, -0.03200000151991844, -0.20800000987946987, 0.9760000463575125, 0.0, 0.0, 0.0, 0.0, 0.0, 1.7054511000469382E9, 0.0, 2024-01-16 19:25:00.046
73.0, -388.94959539175034, -430.59712129831314, -241.7471331357956, -62.71064245700836, -0.03200000151991844, -0.20800000987946987, 0.9760000463575125, 0.0, 0.0, 0.0, 0.0, 0.0, 1.7054511000473204E9, 0.0, 2024-01-16 19:25:00.047
73.0, -405.46499359607697, -428.2035853266716, -243.42260831594467, -108.42717951536179, -0.03200000151991844, -0.20800000987946987, 0.9760000463575125, 0.0, 0.0, 0.0, 0.0, 0.0, 1.7054511000473204E9, 0.0, 2024-01-16 19:25:00.047
74.0, -407.3798223733902, -417.1933198571205, -224.27432054281235, -72.04543274641037, -0.03200000151991844, -0.20800000987946987, 0.9760000463575125, 0.0, 0.0, 0.0, 0.0, 0.0, 1.7054511000608113E9, 0.0, 2024-01-16 19:25:00.060
74.0, -390.38571697473526, -424.85263496637344, -231.21557486057281, -49.54619461297989, -0.03200000151991844, -0.20800000987946987, 0.9760000463575125, 0.0, 0.0, 0.0, 0.0, 0.0, 1.7054511000608113E9, 0.0, 2024-01-16 19:25:00.060
75.0, -399.4811536669731, -432.7513036727905, -248.68838745355606, -98.37432843446732, -0.03200000151991844, -0.20800000987946987, 0.9760000463575125, 0.0, 0.0, 0.0, 0.0, 0.0, 1.7054511000799944E9, 0.0, 2024-01-16 19:25:00.079
75.0, -421.26233100891113, -424.37392777204514, -232.17298924922943, -96.22014605998993, -0.03200000151991844, -0.20800000987946987, 0.9760000463575125, 0.0, 0.0, 0.0, 0.0, 0.0, 1.7054511000799944E9, 0.0, 2024-01-16 19:25:00.079
76.0, -391.3431313633919, -424.134574174881, -228.1039780974388, -49.78554821014404, -0.03200000151991844, -0.20800000987946987, 0.9760000463575125, 0.0, 0.0, 0.0, 0.0, 0.0, 1.7054511000914187E9, 0.0, 2024-01-16 19:25:00.091
76.0, -399.0024464726448, -440.41061878204346, -248.20968025922775, -81.38022303581238, -0.03200000151991844, -0.20800000987946987, 0.9760000463575125, 0.0, 0.0, 0.0, 0.0, 0.0, 1.7054511000914187E9, 0.0, 2024-01-16 19:25:00.091
77.0, -420.06556302309036, -430.8364748954773, -245.09808349609375, -106.2729971408844, -0.03200000151991844, -0.20800000987946987, 0.9760000463575125, 0.0, 0.0, 0.0, 0.0, 0.0, 1.705451100092186E9, 0.0, 2024-01-16 19:25:00.092
77.0, -410.25206553936005, -427.00681734085083, -226.42850291728973, -64.14676403999329, -0.03200000151991844, -0.20800000987946987, 0.9760000463575125, 0.0, 0.0, 0.0, 0.0, 0.0, 1.705451100092186E9, 0.0, 2024-01-16 19:25:00.092
78.0, -391.58248496055603, -431.3151820898056, -233.13040363788605, -63.428703248500824, -0.03200000151991844, -0.20800000987946987, 0.9760000463575125, 0.0, 0.0, 0.0, 0.0, 0.0, 1.7054511001065974E9, 0.0, 2024-01-16 19:25:00.106
78.0, -414.32107669115067, -437.29902201890945, -241.7471331357956, -101.72527879476547, -0.03200000151991844, -0.20800000987946987, 0.9760000463575125, 0.0, 0.0, 0.0, 0.0, 0.0, 1.7054511001065974E9, 0.0, 2024-01-16 19:25:00.106
79.0, -413.84236949682236, -423.6558669805527, -219.2478950023651, -71.32737195491791, -0.03200000151991844, -0.20800000987946987, 0.9760000463575125, 0.0, 0.0, 0.0, 0.0, 0.0, 1.7054511001071925E9, 0.0, 2024-01-16 19:25:00.107
79.0, -389.1889489889145, -426.0494029521942, -218.7691878080368, -45.47718346118927, -0.03200000151991844, -0.20800000987946987, 0.9760000463575125, 0.0, 0.0, 0.0, 0.0, 0.0, 1.7054511001071925E9, 0.0, 2024-01-16 19:25:00.107
80.0, -393.97602093219757, -427.00681734085083, -239.35359716415405, -92.62984210252762, -0.03200000151991844, -0.20800000987946987, 0.9760000463575125, 0.0, 0.0, 0.0, 0.0, 0.0, 1.7054511001207607E9, 0.0, 2024-01-16 19:25:00.120
80.0, -406.9011151790619, -418.8687950372696, -230.97622126340866, -94.06596368551254, -0.03200000151991844, -0.20800000987946987, 0.9760000463575125, 0.0, 0.0, 0.0, 0.0, 0.0, 1.7054511001207607E9, 0.0, 2024-01-16 19:25:00.120
81.0, -378.6573907136917, -404.7469328045845, -211.58857989311218, -42.60494029521942, -0.03200000151991844, -0.20800000987946987, 0.9760000463575125, 0.0, 0.0, 0.0, 0.0, 0.0, 1.7054511001366336E9, 0.0, 2024-01-16 19:25:00.136
81.0, -383.20510905981064, -417.43267345428467, -235.04523241519928, -74.91767591238022, -0.03200000151991844, -0.20800000987946987, 0.9760000463575125, 0.0, 0.0, 0.0, 0.0, 0.0, 1.7054511001366336E9, 0.0, 2024-01-16 19:25:00.136
82.0, -404.98628640174866, -414.32107669115067, -230.7368676662445, -97.65626764297485, -0.03200000151991844, -0.20800000987946987, 0.9760000463575125, 0.0, 0.0, 0.0, 0.0, 0.0, 1.7054511001372304E9, 0.0, 2024-01-16 19:25:00.137
82.0, -392.7792529463768, -410.25206553936005, -227.38591730594635, -58.64163130521774, -0.03200000151991844, -0.20800000987946987, 0.9760000463575125, 0.0, 0.0, 0.0, 0.0, 0.0, 1.7054511001372304E9, 0.0, 2024-01-16 19:25:00.137
83.0, -388.94959539175034, -432.03324288129807, -238.6355363726616, -67.97642159461975, -0.03200000151991844, -0.20800000987946987, 0.9760000463575125, 0.0, 0.0, 0.0, 0.0, 0.0, 1.7054511001507385E9, 0.0, 2024-01-16 19:25:00.150
83.0, -411.4488335251808, -429.8790605068207, -243.66196191310883, -99.81045001745224, -0.03200000151991844, -0.20800000987946987, 0.9760000463575125, 0.0, 0.0, 0.0, 0.0, 0.0, 1.7054511001507385E9, 0.0, 2024-01-16 19:25:00.150
84.0, -402.83210402727127, -414.32107669115067, -223.79561334848404, -68.69448238611221, -0.03200000151991844, -0.20800000987946987, 0.9760000463575125, 0.0, 0.0, 0.0, 0.0, 0.0, 1.7054511001671271E9, 0.0, 2024-01-16 19:25:00.167
84.0, -382.247694671154, -421.5016846060753, -229.54009968042374, -45.716537058353424, -0.03200000151991844, -0.20800000987946987, 0.9760000463575125, 0.0, 0.0, 0.0, 0.0, 0.0, 1.7054511001671271E9, 0.0, 2024-01-16 19:25:00.167
85.0, -394.2153745293617, -426.0494029521942, -234.80587881803513, -91.43307411670685, -0.03200000151991844, -0.20800000987946987, 0.9760000463575125, 0.0, 0.0, 0.0, 0.0, 0.0, 1.7054511001814318E9, 0.0, 2024-01-16 19:25:00.181
85.0, -410.4914191365242, -413.36366230249405, -228.82203888893127, -92.62984210252762, -0.03200000151991844, -0.20800000987946987, 0.9760000463575125, 0.0, 0.0, 0.0, 0.0, 0.0, 1.7054511001814318E9, 0.0, 2024-01-16 19:25:00.181
86.0, -389.6676561832428, -413.1243087053299, -214.70017665624619, -38.5359291434288, -0.03200000151991844, -0.20800000987946987, 0.9760000463575125, 0.0, 0.0, 0.0, 0.0, 0.0, 1.7054511001821318E9, 0.0, 2024-01-16 19:25:00.182
86.0, -392.3005457520485, -430.357767701149, -234.32717162370682, -73.00284713506699, -0.03200000151991844, -0.20800000987946987, 0.9760000463575125, 0.0, 0.0, 0.0, 0.0, 0.0, 1.7054511001821318E9, 0.0, 2024-01-16 19:25:00.182
87.0, -407.61917597055435, -418.15073424577713, -228.82203888893127, -95.98079246282578, -0.03200000151991844, -0.20800000987946987, 0.9760000463575125, 0.0, 0.0, 0.0, 0.0, 0.0, 1.705451100196736E9, 0.0, 2024-01-16 19:25:00.196
87.0, -400.6779216527939, -407.61917597055435, -215.6575910449028, -46.67395144701004, -0.03200000151991844, -0.20800000987946987, 0.9760000463575125, 0.0, 0.0, 0.0, 0.0, 0.0, 1.705451100196736E9, 0.0, 2024-01-16 19:25:00.196
88.0, -379.3754515051842, -421.022977411747, -228.58268529176712, -48.58878022432327, -0.03200000151991844, -0.20800000987946987, 0.9760000463575125, 0.0, 0.0, 0.0, 0.0, 0.0, 1.7054511001972785E9, 0.0, 2024-01-16 19:25:00.197
88.0, -411.4488335251808, -428.2035853266716, -239.5929507613182, -101.00721800327301, -0.03200000151991844, -0.20800000987946987, 0.9760000463575125, 0.0, 0.0, 0.0, 0.0, 0.0, 1.7054511001972785E9, 0.0, 2024-01-16 19:25:00.197
89.0, -405.7043471932411, -413.6030158996582, -231.21557486057281, -74.67832231521606, -0.03200000151991844, -0.20800000987946987, 0.9760000463575125, 0.0, 0.0, 0.0, 0.0, 0.0, 1.705451100210972E9, 0.0, 2024-01-16 19:25:00.210
89.0, -387.5134738087654, -422.9378061890602, -224.75302773714066, -47.3920122385025, -0.03200000151991844, -0.20800000987946987, 0.9760000463575125, 0.0, 0.0, 0.0, 0.0, 0.0, 1.705451100210972E9, 0.0, 2024-01-16 19:25:00.210
90.0, -389.1889489889145, -424.134574174881, -232.41234284639359, -79.94410145282745, -0.03200000151991844, -0.20800000987946987, 0.9760000463575125, 0.0, 0.0, 0.0, 0.0, 0.0, 1.7054511002268775E9, 0.0, 2024-01-16 19:25:00.226
90.0, -401.87468963861465, -413.36366230249405, -224.5136741399765, -80.18345504999161, -0.03200000151991844, -0.20800000987946987, 0.9760000463575125, 0.0, 0.0, 0.0, 0.0, 0.0, 1.7054511002268775E9, 0.0, 2024-01-16 19:25:00.226
91.0, -387.0347666144371, -410.25206553936005, -214.70017665624619, -37.578514754772186, -0.03200000151991844, -0.20800000987946987, 0.9760000463575125, 0.0, 0.0, 0.0, 0.0, 0.0, 1.705451100241655E9, 0.0, 2024-01-16 19:25:00.241
91.0, -385.83799862861633, -426.0494029521942, -226.18914932012558, -68.2157751917839, -0.03200000151991844, -0.20800000987946987, 0.9760000463575125, 0.0, 0.0, 0.0, 0.0, 0.0, 1.705451100241655E9, 0.0, 2024-01-16 19:25:00.241
92.0, -403.55016481876373, -413.84236949682236, -227.6252709031105, -97.65626764297485, -0.03200000151991844, -0.20800000987946987, 0.9760000463575125, 0.0, 0.0, 0.0, 0.0, 0.0, 1.705451100242178E9, 0.0, 2024-01-16 19:25:00.242
92.0, -387.0347666144371, -406.4224079847336, -215.41823744773865, -43.56235468387604, -0.03200000151991844, -0.20800000987946987, 0.9760000463575125, 0.0, 0.0, 0.0, 0.0, 0.0, 1.705451100242178E9, 0.0, 2024-01-16 19:25:00.242
93.0, -372.19484359025955, -412.88495510816574, -221.8807845711708, -48.58878022432327, -0.03200000151991844, -0.20800000987946987, 0.9760000463575125, 0.0, 0.0, 0.0, 0.0, 0.0, 1.7054511002728317E9, 0.0, 2024-01-16 19:25:00.272
93.0, -396.3695569038391, -416.7146126627922, -232.41234284639359, -96.93820685148239, -0.03200000151991844, -0.20800000987946987, 0.9760000463575125, 0.0, 0.0, 0.0, 0.0, 0.0, 1.7054511002728317E9, 0.0, 2024-01-16 19:25:00.272
94.0, -397.80567848682404, -404.98628640174866, -220.9233701825142, -68.2157751917839, -0.03200000151991844, -0.20800000987946987, 0.9760000463575125, 0.0, 0.0, 0.0, 0.0, 0.0, 1.7054511002734988E9, 0.0, 2024-01-16 19:25:00.273
94.0, -376.7425619363785, -416.7146126627922, -226.18914932012558, -44.041061878204346, -0.03200000151991844, -0.20800000987946987, 0.9760000463575125, 0.0, 0.0, 0.0, 0.0, 0.0, 1.7054511002734988E9, 0.0, 2024-01-16 19:25:00.273
95.0, -388.7102417945862, -420.54427021741867, -238.87488996982574, -86.40664857625961, -0.03200000151991844, -0.20800000987946987, 0.9760000463575125, 0.0, 0.0, 0.0, 0.0, 0.0, 1.705451100274249E9, 0.0, 2024-01-16 19:25:00.274
95.0, -410.9701263308525, -417.6720270514488, -228.58268529176712, -89.51824533939362, -0.03200000151991844, -0.20800000987946987, 0.9760000463575125, 0.0, 0.0, 0.0, 0.0, 0.0, 1.705451100274249E9, 0.0, 2024-01-16 19:25:00.274
96.0, -384.16252344846725, -413.1243087053299, -218.52983421087265, -36.62110036611557, -0.03200000151991844, -0.20800000987946987, 0.9760000463575125, 0.0, 0.0, 0.0, 0.0, 0.0, 1.7054511002750201E9, 0.0, 2024-01-16 19:25:00.275
96.0, -388.94959539175034, -427.96423172950745, -235.04523241519928, -70.13060396909714, -0.03200000151991844, -0.20800000987946987, 0.9760000463575125, 0.0, 0.0, 0.0, 0.0, 0.0, 1.7054511002750201E9, 0.0, 2024-01-16 19:25:00.275
97.0, -408.3372367620468, -420.54427021741867, -242.7045475244522, -105.07622915506363, -0.03200000151991844, -0.20800000987946987, 0.9760000463575125, 0.0, 0.0, 0.0, 0.0, 0.0, 1.7054511002859504E9, 0.0, 2024-01-16 19:25:00.285
97.0, -396.60891050100327, -415.7571982741356, -215.6575910449028, -51.46102339029312, -0.03200000151991844, -0.20800000987946987, 0.9760000463575125, 0.0, 0.0, 0.0, 0.0, 0.0, 1.7054511002859504E9, 0.0, 2024-01-16 19:25:00.285
98.0, -382.9657554626465, -425.5706957578659, -227.6252709031105, -57.68421691656113, -0.03200000151991844, -0.20800000987946987, 0.9760000463575125, 0.0, 0.0, 0.0, 0.0, 0.0, 1.7054511003007126E9, 0.0, 2024-01-16 19:25:00.300
98.0, -403.3108112215996, -423.17715978622437, -241.02907234430313, -97.17756044864655, -0.03200000151991844, -0.20800000987946987, 0.9760000463575125, 0.0, 0.0, 0.0, 0.0, 0.0, 1.7054511003007126E9, 0.0, 2024-01-16 19:25:00.300
99.0, -402.35339683294296, -410.9701263308525, -217.8117734193802, -69.17318958044052, -0.03200000151991844, -0.20800000987946987, 0.9760000463575125, 0.0, 0.0, 0.0, 0.0, 0.0, 1.705451100315926E9, 0.0, 2024-01-16 19:25:00.315
99.0, -382.9657554626465, -416.7146126627922, -239.1142435669899, -47.15265864133835, -0.03200000151991844, -0.20800000987946987, 0.9760000463575125, 0.0, 0.0, 0.0, 0.0, 0.0, 1.705451100315926E9, 0.0, 2024-01-16 19:25:00.315
0.0, -410.9701263308525, -417.43267345428467, -226.90721011161804, -88.560830950737, -0.03200000151991844, -0.20800000987946987, 0.9760000463575125, 0.0, 0.0, 0.0, 0.0, 0.0, 1.7054511003317063E9, 0.0, 2024-01-16 19:25:00.331
0.0, -388.7102417945862, -412.88495510816574, -216.85435903072357, -38.057221949100494, -0.03200000151991844, -0.20800000987946987, 0.9760000463575125, 0.0, 0.0, 0.0, 0.0, 0.0, 1.7054511003317063E9, 0.0, 2024-01-16 19:25:00.331
1.0, -384.64123064279556, -424.85263496637344, -236.9600611925125, -73.24220073223114, -0.03200000151991844, -0.20800000987946987, 0.9760000463575125, 0.0, 0.0, 0.0, 0.0, 0.0, 1.7054511003321762E9, 0.0, 2024-01-16 19:25:00.332
1.0, -402.35339683294296, -409.0552975535393, -225.47108852863312, -91.1937205195427, -0.03200000151991844, -0.20800000987946987, 0.9760000463575125, 0.0, 0.0, 0.0, 0.0, 0.0, 1.7054511003321762E9, 0.0, 2024-01-16 19:25:00.332
2.0, -389.90700978040695, -404.98628640174866, -216.37565183639526, -45.95589065551758, -0.03200000151991844, -0.20800000987946987, 0.9760000463575125, 0.0, 0.0, 0.0, 0.0, 0.0, 1.705451100345739E9, 0.0, 2024-01-16 19:25:00.345
2.0, -361.18457812070847, -406.1830543875694, -214.46082305908203, -49.78554821014404, -0.03200000151991844, -0.20800000987946987, 0.9760000463575125, 0.0, 0.0, 0.0, 0.0, 0.0, 1.705451100345739E9, 0.0, 2024-01-16 19:25:00.345
3.0, -383.9231698513031, -399.24180006980896, -220.20530939102173, -90.95436692237854, -0.03200000151991844, -0.20800000987946987, 0.9760000463575125, 0.0, 0.0, 0.0, 0.0, 0.0, 1.7054511003614817E9, 0.0, 2024-01-16 19:25:00.361
3.0, -390.1463633775711, -395.8908497095108, -202.97185039520264, -56.2480953335762, -0.03200000151991844, -0.20800000987946987, 0.9760000463575125, 0.0, 0.0, 0.0, 0.0, 0.0, 1.7054511003614817E9, 0.0, 2024-01-16 19:25:00.361
4.0, -365.7322964668274, -403.0714576244354, -212.78534787893295, -36.14239317178726, -0.03200000151991844, -0.20800000987946987, 0.9760000463575125, 0.0, 0.0, 0.0, 0.0, 0.0, 1.705451100362173E9, 0.0, 2024-01-16 19:25:00.362
4.0, -393.01860654354095, -422.69845259189606, -242.2258403301239, -91.672427713871, -0.03200000151991844, -0.20800000987946987, 0.9760000463575125, 0.0, 0.0, 0.0, 0.0, 0.0, 1.705451100362173E9, 0.0, 2024-01-16 19:25:00.362
5.0, -413.6030158996582, -416.95396625995636, -221.16272377967834, -93.58725649118423, -0.03200000151991844, -0.20800000987946987, 0.9760000463575125, 0.0, 0.0, 0.0, 0.0, 0.0, 1.7054511003760989E9, 0.0, 2024-01-16 19:25:00.376
5.0, -395.17278891801834, -424.6132813692093, -222.12013816833496, -55.769388139247894, -0.03200000151991844, -0.20800000987946987, 0.9760000463575125, 0.0, 0.0, 0.0, 0.0, 0.0, 1.7054511003760989E9, 0.0, 2024-01-16 19:25:00.376
6.0, -402.83210402727127, -436.580961227417, -251.32127702236176, -76.5931510925293, -0.03200000151991844, -0.20800000987946987, 0.9760000463575125, 0.0, 0.0, 0.0, 0.0, 0.0, 1.7054511003914883E9, 0.0, 2024-01-16 19:25:00.391
6.0, -416.7146126627922, -428.6822925209999, -242.2258403301239, -103.1614003777504, -0.03200000151991844, -0.20800000987946987, 0.9760000463575125, 0.0, 0.0, 0.0, 0.0, 0.0, 1.7054511003914883E9, 0.0, 2024-01-16 19:25:00.391
7.0, -403.55016481876373, -415.2784910798073, -232.65169644355774, -60.31710648536682, -0.03200000151991844, -0.20800000987946987, 0.9760000463575125, 0.0, 0.0, 0.0, 0.0, 0.0, 1.7054511003921838E9, 0.0, 2024-01-16 19:25:00.392
7.0, -388.94959539175034, -430.8364748954773, -238.15682917833328, -58.8809849023819, -0.03200000151991844, -0.20800000987946987, 0.9760000463575125, 0.0, 0.0, 0.0, 0.0, 0.0, 1.7054511003921838E9, 0.0, 2024-01-16 19:25:00.392
8.0, -399.0024464726448, -421.74103820323944, -249.88515543937683, -103.1614003777504, -0.03200000151991844, -0.20800000987946987, 0.9760000463575125, 0.0, 0.0, 0.0, 0.0, 0.0, 1.7054511004227428E9, 0.0, 2024-01-16 19:25:00.422
8.0, -405.2256399989128, -414.32107669115067, -210.63116550445557, -70.13060396909714, -0.03200000151991844, -0.20800000987946987, 0.9760000463575125, 0.0, 0.0, 0.0, 0.0, 0.0, 1.7054511004227428E9, 0.0, 2024-01-16 19:25:00.422
9.0, -384.4018770456314, -421.74103820323944, -225.23173493146896, -44.519769072532654, -0.03200000151991844, -0.20800000987946987, 0.9760000463575125, 0.0, 0.0, 0.0, 0.0, 0.0, 1.7054511004229686E9, 0.0, 2024-01-16 19:25:00.422
9.0, -391.8218385577202, -423.8952205777168, -241.7471331357956, -88.08212375640869, -0.03200000151991844, -0.20800000987946987, 0.9760000463575125, 0.0, 0.0, 0.0, 0.0, 0.0, 1.7054511004229686E9, 0.0, 2024-01-16 19:25:00.422
10.0, -406.9011151790619, -415.51784467697144, -210.87051910161972, -84.73117339611053, -0.03200000151991844, -0.20800000987946987, 0.9760000463575125, 0.0, 0.0, 0.0, 0.0, 0.0, 1.7054511004236927E9, 0.0, 2024-01-16 19:25:00.423
10.0, -391.58248496055603, -416.47525906562805, -216.85435903072357, -39.97205072641373, -0.03200000151991844, -0.20800000987946987, 0.9760000463575125, 0.0, 0.0, 0.0, 0.0, 0.0, 1.7054511004236927E9, 0.0, 2024-01-16 19:25:00.423
11.0, -390.86442416906357, -435.14483964443207, -254.91158097982407, -84.49181979894638, -0.03200000151991844, -0.20800000987946987, 0.9760000463575125, 0.0, 0.0, 0.0, 0.0, 0.0, 1.7054511004357758E9, 0.0, 2024-01-16 19:25:00.435
11.0, -412.40624791383743, -427.00681734085083, -245.8161442875862, -109.86330109834671, -0.03200000151991844, -0.20800000987946987, 0.9760000463575125, 0.0, 0.0, 0.0, 0.0, 0.0, 1.7054511004357758E9, 0.0, 2024-01-16 19:25:00.435
12.0, -378.6573907136917, -392.06119215488434, -216.1362982392311, -43.80170828104019, -0.03200000151991844, -0.20800000987946987, 0.9760000463575125, 0.0, 0.0, 0.0, 0.0, 0.0, 1.7054511004518638E9, 0.0, 2024-01-16 19:25:00.451
12.0, -381.52963387966156, -420.7836238145828, -236.4813539981842, -58.162924110889435, -0.03200000151991844, -0.20800000987946987, 0.9760000463575125, 0.0, 0.0, 0.0, 0.0, 0.0, 1.7054511004518638E9, 0.0, 2024-01-16 19:25:00.451
13.0, -394.2153745293617, -416.47525906562805, -228.58268529176712, -89.03953814506531, -0.03200000151991844, -0.20800000987946987, 0.9760000463575125, 0.0, 0.0, 0.0, 0.0, 0.0, 1.7054511004522607E9, 0.0, 2024-01-16 19:25:00.452
13.0, -400.91727524995804, -397.3269712924957, -214.22146946191788, -52.65779137611389, -0.03200000151991844, -0.20800000987946987, 0.9760000463575125, 0.0, 0.0, 0.0, 0.0, 0.0, 1.7054511004522607E9, 0.0, 2024-01-16 19:25:00.452
14.0, -382.4870482683182, -412.1668943166733, -219.2478950023651, -35.4243323802948, -0.03200000151991844, -0.20800000987946987, 0.9760000463575125, 0.0, 0.0, 0.0, 0.0, 0.0, 1.7054511004657698E9, 0.0, 2024-01-16 19:25:00.465
14.0, -402.1140432357788, -430.357767701149, -235.5239396095276, -75.15702950954437, -0.03200000151991844, -0.20800000987946987, 0.9760000463575125, 0.0, 0.0, 0.0, 0.0, 0.0, 1.7054511004657698E9, 0.0, 2024-01-16 19:25:00.465
15.0, -415.99655187129974, -411.68818712234497, -222.83819895982742, -75.63573670387268, -0.03200000151991844, -0.20800000987946987, 0.9760000463575125, 0.0, 0.0, 0.0, 0.0, 0.0, 1.705451100481448E9, 0.0, 2024-01-16 19:25:00.481
15.0, -393.97602093219757, -409.77335834503174, -212.78534787893295, -23.69600611925125, -0.03200000151991844, -0.20800000987946987, 0.9760000463575125, 0.0, 0.0, 0.0, 0.0, 0.0, 1.705451100481448E9, 0.0, 2024-01-16 19:25:00.481
16.0, -385.5986450314522, -414.32107669115067, -229.54009968042374, -49.06748741865158, -0.03200000151991844, -0.20800000987946987, 0.9760000463575125, 0.0, 0.0, 0.0, 0.0, 0.0, 1.7054511004821827E9, 0.0, 2024-01-16 19:25:00.482
16.0, -407.8585295677185, -413.1243087053299, -221.8807845711708, -84.73117339611053, -0.03200000151991844, -0.20800000987946987, 0.9760000463575125, 0.0, 0.0, 0.0, 0.0, 0.0, 1.7054511004821827E9, 0.0, 2024-01-16 19:25:00.482
17.0, -392.7792529463768, -396.8482640981674, -202.01443600654602, -28.483078062534332, -0.03200000151991844, -0.20800000987946987, 0.9760000463575125, 0.0, 0.0, 0.0, 0.0, 0.0, 1.705451100496119E9, 0.0, 2024-01-16 19:25:00.496
17.0, -376.98191553354263, -412.6456015110016, -205.60473996400833, -38.5359291434288, -0.03200000151991844, -0.20800000987946987, 0.9760000463575125, 0.0, 0.0, 0.0, 0.0, 0.0, 1.705451100496119E9, 0.0, 2024-01-16 19:25:00.496
18.0, -397.0876176953316, -407.14046877622604, -233.3697572350502, -78.50797986984253, -0.03200000151991844, -0.20800000987946987, 0.9760000463575125, 0.0, 0.0, 0.0, 0.0, 0.0, 1.7054511005121472E9, 0.0, 2024-01-16 19:25:00.512
18.0, -398.28438568115234, -395.65149611234665, -218.05112701654434, -51.46102339029312, -0.03200000151991844, -0.20800000987946987, 0.9760000463575125, 0.0, 0.0, 0.0, 0.0, 0.0, 1.7054511005121472E9, 0.0, 2024-01-16 19:25:00.512
19.0, -378.6573907136917, -404.7469328045845, -218.52983421087265, -23.69600611925125, -0.03200000151991844, -0.20800000987946987, 0.9760000463575125, 0.0, 0.0, 0.0, 0.0, 0.0, 1.705451100526481E9, 0.0, 2024-01-16 19:25:00.526
19.0, -391.58248496055603, -413.6030158996582, -226.90721011161804, -72.04543274641037, -0.03200000151991844, -0.20800000987946987, 0.9760000463575125, 0.0, 0.0, 0.0, 0.0, 0.0, 1.705451100526481E9, 0.0, 2024-01-16 19:25:00.526
20.0, -407.3798223733902, -406.1830543875694, -208.23762953281403, -73.4815543293953, -0.03200000151991844, -0.20800000987946987, 0.9760000463575125, 0.0, 0.0, 0.0, 0.0, 0.0, 1.705451100527174E9, 0.0, 2024-01-16 19:25:00.527
20.0, -383.20510905981064, -406.4224079847336, -219.96595579385757, -29.679846048355103, -0.03200000151991844, -0.20800000987946987, 0.9760000463575125, 0.0, 0.0, 0.0, 0.0, 0.0, 1.705451100527174E9, 0.0, 2024-01-16 19:25:00.527
21.0, -393.7366673350334, -421.26233100891113, -231.93363565206528, -65.58288562297821, -0.03200000151991844, -0.20800000987946987, 0.9760000463575125, 0.0, 0.0, 0.0, 0.0, 0.0, 1.7054511005417297E9, 0.0, 2024-01-16 19:25:00.541
21.0, -414.32107669115067, -413.1243087053299, -237.19941478967667, -94.54467087984085, -0.03200000151991844, -0.20800000987946987, 0.9760000463575125, 0.0, 0.0, 0.0, 0.0, 0.0, 1.7054511005417297E9, 0.0, 2024-01-16 19:25:00.541
22.0, -399.4811536669731, -405.7043471932411, -215.1788838505745, -42.12623310089111, -0.03200000151991844, -0.20800000987946987, 0.9760000463575125, 0.0, 0.0, 0.0, 0.0, 0.0, 1.7054511005423872E9, 0.0, 2024-01-16 19:25:00.542
22.0, -389.6676561832428, -427.48552453517914, -235.28458601236343, -48.110073029994965, -0.03200000151991844, -0.20800000987946987, 0.9760000463575125, 0.0, 0.0, 0.0, 0.0, 0.0, 1.7054511005423872E9, 0.0, 2024-01-16 19:25:00.542
23.0, -410.0127119421959, -428.6822925209999, -230.49751406908035, -92.86919569969177, -0.03200000151991844, -0.20800000987946987, 0.9760000463575125, 0.0, 0.0, 0.0, 0.0, 0.0, 1.7054511005557325E9, 0.0, 2024-01-16 19:25:00.555
23.0, -412.6456015110016, -413.6030158996582, -229.54009968042374, -59.359692096710205, -0.03200000151991844, -0.20800000987946987, 0.9760000463575125, 0.0, 0.0, 0.0, 0.0, 0.0, 1.7054511005557325E9, 0.0, 2024-01-16 19:25:00.555
24.0, -381.52963387966156, -416.2359054684639, -221.64143097400665, -35.4243323802948, -0.03200000151991844, -0.20800000987946987, 0.9760000463575125, 0.0, 0.0, 0.0, 0.0, 0.0, 1.705451100571634E9, 0.0, 2024-01-16 19:25:00.571
24.0, -404.02887201309204, -430.11841410398483, -233.13040363788605, -87.36406296491623, -0.03200000151991844, -0.20800000987946987, 0.9760000463575125, 0.0, 0.0, 0.0, 0.0, 0.0, 1.705451100571634E9, 0.0, 2024-01-16 19:25:00.571
25.0, -413.36366230249405, -416.2359054684639, -230.97622126340866, -84.25246620178223, -0.03200000151991844, -0.20800000987946987, 0.9760000463575125, 0.0, 0.0, 0.0, 0.0, 0.0, 1.7054511005723536E9, 0.0, 2024-01-16 19:25:00.572
25.0, -400.6779216527939, -426.0494029521942, -221.8807845711708, -43.08364748954773, -0.03200000151991844, -0.20800000987946987, 0.9760000463575125, 0.0, 0.0, 0.0, 0.0, 0.0, 1.7054511005723536E9, 0.0, 2024-01-16 19:25:00.572
26.0, -390.38571697473526, -425.0919885635376, -227.6252709031105, -72.28478634357452, -0.03200000151991844, -0.20800000987946987, 0.9760000463575125, 0.0, 0.0, 0.0, 0.0, 0.0, 1.705451100585766E9, 0.0, 2024-01-16 19:25:00.585
26.0, -414.799783885479, -422.4590989947319, -235.04523241519928, -94.06596368551254, -0.03200000151991844, -0.20800000987946987, 0.9760000463575125, 0.0, 0.0, 0.0, 0.0, 0.0, 1.705451100585766E9, 0.0, 2024-01-16 19:25:00.585
27.0, -405.2256399989128, -410.25206553936005, -218.05112701654434, -47.15265864133835, -0.03200000151991844, -0.20800000987946987, 0.9760000463575125, 0.0, 0.0, 0.0, 0.0, 0.0, 1.7054511006020837E9, 0.0, 2024-01-16 19:25:00.602
27.0, -385.359291434288, -418.8687950372696, -236.72070759534836, -53.1364985704422, -0.03200000151991844, -0.20800000987946987, 0.9760000463575125, 0.0, 0.0, 0.0, 0.0, 0.0, 1.7054511006020837E9, 0.0, 2024-01-16 19:25:00.602
28.0, -402.83210402727127, -420.7836238145828, -237.67812198400497, -90.95436692237854, -0.03200000151991844, -0.20800000987946987, 0.9760000463575125, 0.0, 0.0, 0.0, 0.0, 0.0, 1.705451100602158E9, 0.0, 2024-01-16 19:25:00.602
28.0, -412.40624791383743, -415.7571982741356, -230.01880687475204, -59.83839929103851, -0.03200000151991844, -0.20800000987946987, 0.9760000463575125, 0.0, 0.0, 0.0, 0.0, 0.0, 1.705451100602158E9, 0.0, 2024-01-16 19:25:00.602
29.0, -389.42830258607864, -421.9803918004036, -226.42850291728973, -38.5359291434288, -0.03200000151991844, -0.20800000987946987, 0.9760000463575125, 0.0, 0.0, 0.0, 0.0, 0.0, 1.7054511006159391E9, 0.0, 2024-01-16 19:25:00.615
29.0, -400.91727524995804, -432.7513036727905, -236.24200040102005, -79.7047478556633, -0.03200000151991844, -0.20800000987946987, 0.9760000463575125, 0.0, 0.0, 0.0, 0.0, 0.0, 1.7054511006159391E9, 0.0, 2024-01-16 19:25:00.615
30.0, -419.3475022315979, -416.47525906562805, -223.55625975131989, -79.22604066133499, -0.03200000151991844, -0.20800000987946987, 0.9760000463575125, 0.0, 0.0, 0.0, 0.0, 0.0, 1.7054511006314905E9, 0.0, 2024-01-16 19:25:00.631
30.0, -399.24180006980896, -418.8687950372696, -226.90721011161804, -34.94562518596649, -0.03200000151991844, -0.20800000987946987, 0.9760000463575125, 0.0, 0.0, 0.0, 0.0, 0.0, 1.7054511006314905E9, 0.0, 2024-01-16 19:25:00.631
31.0, -401.39598244428635, -434.18742525577545, -238.39618277549744, -73.72090792655945, -0.03200000151991844, -0.20800000987946987, 0.9760000463575125, 0.0, 0.0, 0.0, 0.0, 0.0, 1.7054511006321502E9, 0.0, 2024-01-16 19:25:00.632
31.0, -424.134574174881, -426.28875654935837, -233.8484644293785, -91.1937205195427, -0.03200000151991844, -0.20800000987946987, 0.9760000463575125, 0.0, 0.0, 0.0, 0.0, 0.0, 1.7054511006321502E9, 0.0, 2024-01-16 19:25:00.632
32.0, -412.40624791383743, -418.15073424577713, -223.07755255699158, -47.3920122385025, -0.03200000151991844, -0.20800000987946987, 0.9760000463575125, 0.0, 0.0, 0.0, 0.0, 0.0, 1.705451100646216E9, 0.0, 2024-01-16 19:25:00.646
32.0, -392.7792529463768, -428.44293892383575, -247.01291227340698, -56.2480953335762, -0.03200000151991844, -0.20800000987946987, 0.9760000463575125, 0.0, 0.0, 0.0, 0.0, 0.0, 1.705451100646216E9, 0.0, 2024-01-16 19:25:00.646
33.0, -412.6456015110016, -427.7248781323433, -243.18325471878052, -97.89562124013901, -0.03200000151991844, -0.20800000987946987, 0.9760000463575125, 0.0, 0.0, 0.0, 0.0, 0.0, 1.705451100661517E9, 0.0, 2024-01-16 19:25:00.661
33.0, -412.6456015110016, -417.911380648613, -224.9923813343048, -68.93383598327637, -0.03200000151991844, -0.20800000987946987, 0.9760000463575125, 0.0, 0.0, 0.0, 0.0, 0.0, 1.705451100661517E9, 0.0, 2024-01-16 19:25:00.661
34.0, -401.1566288471222, -433.469364464283, -236.72070759534836, -49.06748741865158, -0.03200000151991844, -0.20800000987946987, 0.9760000463575125, 0.0, 0.0, 0.0, 0.0, 0.0, 1.7054511006621375E9, 0.0, 2024-01-16 19:25:00.662
34.0, -409.5340047478676, -434.9054860472679, -246.53420507907867, -93.58725649118423, -0.03200000151991844, -0.20800000987946987, 0.9760000463575125, 0.0, 0.0, 0.0, 0.0, 0.0, 1.7054511006621375E9, 0.0, 2024-01-16 19:25:00.662
35.0, -423.17715978622437, -423.8952205777168, -230.97622126340866, -88.560830950737, -0.03200000151991844, -0.20800000987946987, 0.9760000463575125, 0.0, 0.0, 0.0, 0.0, 0.0, 1.7054511006757748E9, 0.0, 2024-01-16 19:25:00.675
35.0, -403.3108112215996, -422.9378061890602, -217.8117734193802, -45.47718346118927, -0.03200000151991844, -0.20800000987946987, 0.9760000463575125, 0.0, 0.0, 0.0, 0.0, 0.0, 1.7054511006757748E9, 0.0, 2024-01-16 19:25:00.675
36.0, -405.7043471932411, -433.70871806144714, -248.4490338563919, -82.57699102163315, -0.03200000151991844, -0.20800000987946987, 0.9760000463575125, 0.0, 0.0, 0.0, 0.0, 0.0, 1.7054511006918025E9, 0.0, 2024-01-16 19:25:00.691
36.0, -424.37392777204514, -428.44293892383575, -246.29485148191452, -101.00721800327301, -0.03200000151991844, -0.20800000987946987, 0.9760000463575125, 0.0, 0.0, 0.0, 0.0, 0.0, 1.7054511006918025E9, 0.0, 2024-01-16 19:25:00.691
37.0, -407.8585295677185, -419.10814863443375, -230.2581604719162, -53.85455936193466, -0.03200000151991844, -0.20800000987946987, 0.9760000463575125, 0.0, 0.0, 0.0, 0.0, 0.0, 1.7054511006924214E9, 0.0, 2024-01-16 19:25:00.692
37.0, -401.39598244428635, -437.5383756160736, -241.02907234430313, -60.556460082530975, -0.03200000151991844, -0.20800000987946987, 0.9760000463575125, 0.0, 0.0, 0.0, 0.0, 0.0, 1.7054511006924214E9, 0.0, 2024-01-16 19:25:00.692
38.0, -418.3900878429413, -429.1609997153282, -249.88515543937683, -99.09238922595978, -0.03200000151991844, -0.20800000987946987, 0.9760000463575125, 0.0, 0.0, 0.0, 0.0, 0.0, 1.7054511007057366E9, 0.0, 2024-01-16 19:25:00.705
38.0, -419.10814863443375, -419.10814863443375, -234.56652522087097, -69.89125037193298, -0.03200000151991844, -0.20800000987946987, 0.9760000463575125, 0.0, 0.0, 0.0, 0.0, 0.0, 1.7054511007057366E9, 0.0, 2024-01-16 19:25:00.705
39.0, -396.13020330667496, -421.26233100891113, -231.21557486057281, -47.3920122385025, -0.03200000151991844, -0.20800000987946987, 0.9760000463575125, 0.0, 0.0, 0.0, 0.0, 0.0, 1.7054511007215748E9, 0.0, 2024-01-16 19:25:00.721
39.0, -402.5927504301071, -430.357767701149, -241.26842594146729, -85.449234187603, -0.03200000151991844, -0.20800000987946987, 0.9760000463575125, 0.0, 0.0, 0.0, 0.0, 0.0, 1.7054511007215748E9, 0.0, 2024-01-16 19:25:00.721
40.0, -420.3049166202545, -421.9803918004036, -220.20530939102173, -85.20988059043884, -0.03200000151991844, -0.20800000987946987, 0.9760000463575125, 0.0, 0.0, 0.0, 0.0, 0.0, 1.705451100722126E9, 0.0, 2024-01-16 19:25:00.722
40.0, -397.80567848682404, -421.5016846060753, -241.50777953863144, -49.06748741865158, -0.03200000151991844, -0.20800000987946987, 0.9760000463575125, 0.0, 0.0, 0.0, 0.0, 0.0, 1.705451100722126E9, 0.0, 2024-01-16 19:25:00.722
41.0, -395.4121425151825, -427.7248781323433, -243.66196191310883, -75.15702950954437, -0.03200000151991844, -0.2240000106394291, 0.9760000463575125, 0.0, 0.0, 0.0, 0.0, 0.0, 1.7054511007361877E9, 0.0, 2024-01-16 19:25:00.736
41.0, -425.0919885635376, -434.18742525577545, -244.8587298989296, -105.55493634939194, -0.03200000151991844, -0.2240000106394291, 0.9760000463575125, 0.0, 0.0, 0.0, 0.0, 0.0, 1.7054511007361877E9, 0.0, 2024-01-16 19:25:00.736
42.0, -412.40624791383743, -426.7674637436867, -228.82203888893127, -51.700376987457275, -0.03200000151991844, -0.2240000106394291, 0.9760000463575125, 0.0, 0.0, 0.0, 0.0, 0.0, 1.705451100751735E9, 0.0, 2024-01-16 19:25:00.751
42.0, -397.5663248896599, -432.5119500756264, -254.6722273826599, -62.47128885984421, -0.03200000151991844, -0.2240000106394291, 0.9760000463575125, 0.0, 0.0, 0.0, 0.0, 0.0, 1.705451100751735E9, 0.0, 2024-01-16 19:25:00.751
43.0, -422.9378061890602, -436.580961227417, -256.10834896564484, -109.14524030685425, -0.03200000151991844, -0.2240000106394291, 0.9760000463575125, 0.0, 0.0, 0.0, 0.0, 0.0, 1.7054511007521808E9, 0.0, 2024-01-16 19:25:00.752
43.0, -412.6456015110016, -418.8687950372696, -224.5136741399765, -71.08801835775375, -0.03200000151991844, -0.2240000106394291, 0.9760000463575125, 0.0, 0.0, 0.0, 0.0, 0.0, 1.7054511007521808E9, 0.0, 2024-01-16 19:25:00.752
44.0, -391.1037777662277, -422.9378061890602, -237.19941478967667, -45.47718346118927, -0.03200000151991844, -0.2240000106394291, 0.9760000463575125, 0.0, 0.0, 0.0, 0.0, 0.0, 1.7054511007659624E9, 0.0, 2024-01-16 19:25:00.765
44.0, -405.7043471932411, -431.7938892841339, -237.43876838684082, -87.60341656208038, -0.03200000151991844, -0.2240000106394291, 0.9760000463575125, 0.0, 0.0, 0.0, 0.0, 0.0, 1.7054511007659624E9, 0.0, 2024-01-16 19:25:00.765
45.0, -422.4590989947319, -422.69845259189606, -228.82203888893127, -89.03953814506531, -0.03200000151991844, -0.2240000106394291, 0.9760000463575125, 0.0, 0.0, 0.0, 0.0, 0.0, 1.7054511007814054E9, 0.0, 2024-01-16 19:25:00.781
45.0, -397.3269712924957, -421.26233100891113, -238.15682917833328, -45.95589065551758, -0.03200000151991844, -0.2240000106394291, 0.9760000463575125, 0.0, 0.0, 0.0, 0.0, 0.0, 1.7054511007814054E9, 0.0, 2024-01-16 19:25:00.781
46.0, -393.7366673350334, -426.5281101465225, -244.8587298989296, -76.35379749536514, -0.03200000151991844, -0.2240000106394291, 0.9760000463575125, 0.0, 0.0, 0.0, 0.0, 0.0, 1.7054511007821429E9, 0.0, 2024-01-16 19:25:00.782
46.0, -419.3475022315979, -426.7674637436867, -244.8587298989296, -101.24657160043716, -0.03200000151991844, -0.2240000106394291, 0.9760000463575125, 0.0, 0.0, 0.0, 0.0, 0.0, 1.7054511007821429E9, 0.0, 2024-01-16 19:25:00.782
47.0, -412.88495510816574, -424.37392777204514, -219.72660219669342, -49.06748741865158, -0.03200000151991844, -0.2240000106394291, 0.9760000463575125, 0.0, 0.0, 0.0, 0.0, 0.0, 1.705451100828549E9, 0.0, 2024-01-16 19:25:00.828
47.0, -390.86442416906357, -428.44293892383575, -242.2258403301239, -55.290680944919586, -0.03200000151991844, -0.2240000106394291, 0.9760000463575125, 0.0, 0.0, 0.0, 0.0, 0.0, 1.705451100828549E9, 0.0, 2024-01-16 19:25:00.828
48.0, -411.4488335251808, -431.07582849264145, -254.6722273826599, -100.5285108089447, -0.03200000151991844, -0.2240000106394291, 0.9760000463575125, 0.0, 0.0, 0.0, 0.0, 0.0, 1.7054511008292212E9, 0.0, 2024-01-16 19:25:00.829
48.0, -413.36366230249405, -413.84236949682236, -237.19941478967667, -64.38611763715744, -0.03200000151991844, -0.2240000106394291, 0.9760000463575125, 0.0, 0.0, 0.0, 0.0, 0.0, 1.7054511008292212E9, 0.0, 2024-01-16 19:25:00.829
49.0, -384.16252344846725, -420.06556302309036, -228.34333169460297, -44.75912266969681, -0.03200000151991844, -0.2240000106394291, 0.9760000463575125, 0.0, 0.0, 0.0, 0.0, 0.0, 1.7054511008299809E9, 0.0, 2024-01-16 19:25:00.829
49.0, -404.2682256102562, -428.44293892383575, -247.9703266620636, -91.672427713871, -0.03200000151991844, -0.2240000106394291, 0.9760000463575125, 0.0, 0.0, 0.0, 0.0, 0.0, 1.7054511008299809E9, 0.0, 2024-01-16 19:25:00.829
50.0, -410.0127119421959, -415.0391374826431, -238.87488996982574, -88.560830950737, -0.03200000151991844, -0.2240000106394291, 0.9760000463575125, 0.0, 0.0, 0.0, 0.0, 0.0, 1.705451100830767E9, 0.0, 2024-01-16 19:25:00.830
50.0, -397.3269712924957, -417.6720270514488, -226.6678565144539, -44.75912266969681, -0.03200000151991844, -0.2240000106394291, 0.9760000463575125, 0.0, 0.0, 0.0, 0.0, 0.0, 1.705451100830767E9, 0.0, 2024-01-16 19:25:00.830
51.0, -398.5237392783165, -434.9054860472679, -250.36386263370514, -79.22604066133499, -0.03200000151991844, -0.2240000106394291, 0.9760000463575125, 0.0, 0.0, 0.0, 0.0, 0.0, 1.7054511008414292E9, 0.0, 2024-01-16 19:25:00.841
51.0, -421.26233100891113, -432.7513036727905, -241.02907234430313, -109.62394750118256, -0.03200000151991844, -0.2240000106394291, 0.9760000463575125, 0.0, 0.0, 0.0, 0.0, 0.0, 1.7054511008414292E9, 0.0, 2024-01-16 19:25:00.841
52.0, -405.46499359607697, -419.10814863443375, -234.56652522087097, -57.68421691656113, -0.03200000151991844, -0.2240000106394291, 0.9760000463575125, 0.0, 0.0, 0.0, 0.0, 0.0, 1.7054511008421547E9, 0.0, 2024-01-16 19:25:00.842
52.0, -390.38571697473526, -427.7248781323433, -231.93363565206528, -56.72680252790451, -0.03200000151991844, -0.2240000106394291, 0.9760000463575125, 0.0, 0.0, 0.0, 0.0, 0.0, 1.7054511008421547E9, 0.0, 2024-01-16 19:25:00.842
53.0, -411.9275407195091, -426.5281101465225, -228.82203888893127, -93.82661008834839, -0.03200000151991844, -0.2240000106394291, 0.9760000463575125, 0.0, 0.0, 0.0, 0.0, 0.0, 1.7054511008563204E9, 0.0, 2024-01-16 19:25:00.856
53.0, -413.6030158996582, -417.1933198571205, -228.1039780974388, -68.69448238611221, -0.03200000151991844, -0.2240000106394291, 0.9760000463575125, 0.0, 0.0, 0.0, 0.0, 0.0, 1.7054511008563204E9, 0.0, 2024-01-16 19:25:00.856
54.0, -390.1463633775711, -418.3900878429413, -233.3697572350502, -47.15265864133835, -0.03200000151991844, -0.2240000106394291, 0.9760000463575125, 0.0, 0.0, 0.0, 0.0, 0.0, 1.705451100872187E9, 0.0, 2024-01-16 19:25:00.872
54.0, -401.1566288471222, -428.6822925209999, -228.58268529176712, -84.73117339611053, -0.03200000151991844, -0.2240000106394291, 0.9760000463575125, 0.0, 0.0, 0.0, 0.0, 0.0, 1.705451100872187E9, 0.0, 2024-01-16 19:25:00.872
55.0, -421.74103820323944, -423.6558669805527, -217.33306622505188, -89.51824533939362, -0.03200000151991844, -0.2240000106394291, 0.9760000463575125, 0.0, 0.0, 0.0, 0.0, 0.0, 1.7054511008729289E9, 0.0, 2024-01-16 19:25:00.872
55.0, -395.65149611234665, -418.3900878429413, -222.12013816833496, -45.237829864025116, -0.03200000151991844, -0.2240000106394291, 0.9760000463575125, 0.0, 0.0, 0.0, 0.0, 0.0, 1.7054511008729289E9, 0.0, 2024-01-16 19:25:00.872
56.0, -399.72050726413727, -432.5119500756264, -240.55036514997482, -68.2157751917839, -0.03200000151991844, -0.2240000106394291, 0.9760000463575125, 0.0, 0.0, 0.0, 0.0, 0.0, 1.7054511008859377E9, 0.0, 2024-01-16 19:25:00.885
56.0, -419.58685582876205, -427.96423172950745, -244.8587298989296, -103.40075397491455, -0.03200000151991844, -0.2240000106394291, 0.9760000463575125, 0.0, 0.0, 0.0, 0.0, 0.0, 1.7054511008859377E9, 0.0, 2024-01-16 19:25:00.885
57.0, -407.3798223733902, -416.95396625995636, -227.86462450027466, -55.769388139247894, -0.03200000151991844, -0.2240000106394291, 0.9760000463575125, 0.0, 0.0, 0.0, 0.0, 0.0, 1.7054511009015095E9, 0.0, 2024-01-16 19:25:00.901
57.0, -387.75282740592957, -426.7674637436867, -232.17298924922943, -59.83839929103851, -0.03200000151991844, -0.2240000106394291, 0.9760000463575125, 0.0, 0.0, 0.0, 0.0, 0.0, 1.7054511009015095E9, 0.0, 2024-01-16 19:25:00.901
58.0, -409.29465115070343, -427.00681734085083, -247.4916194677353, -98.61368203163147, -0.03200000151991844, -0.2240000106394291, 0.9760000463575125, 0.0, 0.0, 0.0, 0.0, 0.0, 1.7054511009021337E9, 0.0, 2024-01-16 19:25:00.902
58.0, -410.9701263308525, -420.3049166202545, -230.97622126340866, -67.7370679974556, -0.03200000151991844, -0.2240000106394291, 0.9760000463575125, 0.0, 0.0, 0.0, 0.0, 0.0, 1.7054511009021337E9, 0.0, 2024-01-16 19:25:00.902
59.0, -389.90700978040695, -423.8952205777168, -226.90721011161804, -46.434597849845886, -0.03200000151991844, -0.2240000106394291, 0.9760000463575125, 0.0, 0.0, 0.0, 0.0, 0.0, 1.7054511009159184E9, 0.0, 2024-01-16 19:25:00.915
59.0, -402.83210402727127, -432.5119500756264, -242.7045475244522, -94.54467087984085, -0.03200000151991844, -0.2240000106394291, 0.9760000463575125, 0.0, 0.0, 0.0, 0.0, 0.0, 1.7054511009159184E9, 0.0, 2024-01-16 19:25:00.915
60.0, -422.21974539756775, -433.70871806144714, -249.88515543937683, -96.22014605998993, -0.03200000151991844, -0.2240000106394291, 0.9760000463575125, 0.0, 0.0, 0.0, 0.0, 0.0, 1.7054511009316165E9, 0.0, 2024-01-16 19:25:00.931
60.0, -400.1992144584656, -424.85263496637344, -236.0026468038559, -53.1364985704422, -0.03200000151991844, -0.2240000106394291, 0.9760000463575125, 0.0, 0.0, 0.0, 0.0, 0.0, 1.7054511009316165E9, 0.0, 2024-01-16 19:25:00.931
61.0, -400.1992144584656, -437.29902201890945, -250.12450903654099, -85.9279413819313, -0.03200000151991844, -0.20800000987946987, 0.9760000463575125, 0.0, 0.0, 0.0, 0.0, 0.0, 1.7054511009321463E9, 0.0, 2024-01-16 19:25:00.932
61.0, -413.1243087053299, -422.9378061890602, -246.53420507907867, -110.34200829267502, -0.03200000151991844, -0.20800000987946987, 0.9760000463575125, 0.0, 0.0, 0.0, 0.0, 0.0, 1.7054511009321463E9, 0.0, 2024-01-16 19:25:00.932
62.0, -410.9701263308525, -422.69845259189606, -235.28458601236343, -60.31710648536682, -0.03200000151991844, -0.20800000987946987, 0.9760000463575125, 0.0, 0.0, 0.0, 0.0, 0.0, 1.7054511009461195E9, 0.0, 2024-01-16 19:25:00.946
62.0, -397.0876176953316, -437.77772921323776, -250.84256982803345, -63.428703248500824, -0.03200000151991844, -0.20800000987946987, 0.9760000463575125, 0.0, 0.0, 0.0, 0.0, 0.0, 1.7054511009461195E9, 0.0, 2024-01-16 19:25:00.946
63.0, -418.8687950372696, -438.7351436018944, -247.4916194677353, -107.70911872386932, -0.03200000151991844, -0.20800000987946987, 0.9760000463575125, 0.0, 0.0, 0.0, 0.0, 0.0, 1.705451100977873E9, 0.0, 2024-01-16 19:25:00.977
