%OpenBCI Raw EXG Data
%Number of channels = 4
%Sample Rate = 200 Hz
%Board = OpenBCI_GUI$BoardGanglionBLE
Sample Index, EXG Channel 0, EXG Channel 1, EXG Channel 2, EXG Channel 3, Accel Channel 0, Accel Channel 1, Accel Channel 2, Other, Other, Other, Other, Other, Timestamp, Other, Timestamp (Formatted)
15.0, 43.56235468387604, 0.7180607914924622, -26.08954209089279, 452.6176522374153, 0.0, 0.0, 0.0, 0.0, 0.0, 0.0, 0.0, 0.0, 1.705430213994512E9, 0.0, 2024-01-16 13:36:53.994
15.0, 0.0, 0.0, 0.0, 0.0, 0.0, 0.0, 0.0, 0.0, 0.0, 0.0, 0.0, 0.0, 1.705430213994512E9, 0.0, 2024-01-16 13:36:53.994
0.0, -98.13497483730316, -199.38154643774033, -174.72812592983246, 302.0642396211624, 0.0, 0.0, 1.008000047877431, 0.0, 0.0, 0.0, 0.0, 0.0, 1.7054302140383644E9, 0.0, 2024-01-16 13:36:54.038
0.0, -23.217298924922943, -69.65189677476883, -73.9602615237236, 393.01860654354095, 0.0, 0.0, 1.008000047877431, 0.0, 0.0, 0.0, 0.0, 0.0, 1.7054302140383644E9, 0.0, 2024-01-16 13:36:54.038
1.0, 43.32300108671188, -20.58440935611725, -41.647525906562805, 449.74540907144547, 0.0, -1.008000047877431, 1.008000047877431, 0.0, 0.0, 0.0, 0.0, 0.0, 1.705430214052997E9, 0.0, 2024-01-16 13:36:54.052
1.0, -66.06159281730652, -172.57394355535507, -157.73402053117752, 334.61632883548737, 0.0, -1.008000047877431, 1.008000047877431, 0.0, 0.0, 0.0, 0.0, 0.0, 1.705430214052997E9, 0.0, 2024-01-16 13:36:54.052
2.0, -61.27452087402344, -129.7296496629715, -125.18193131685257, 338.92469358444214, -1.008000047877431, -1.008000047877431, 1.008000047877431, 0.0, 0.0, 0.0, 0.0, 0.0, 1.70543021406856E9, 0.0, 2024-01-16 13:36:54.068
2.0, 49.78554821014404, 7.898668706417084, -16.994105398654938, 460.9950281381607, -1.008000047877431, -1.008000047877431, 1.008000047877431, 0.0, 0.0, 0.0, 0.0, 0.0, 1.70543021406856E9, 0.0, 2024-01-16 13:36:54.068
3.0, -29.679846048355103, -126.85740649700165, -122.07033455371857, 372.67355078458786, -1.008000047877431, -1.008000047877431, 1.008000047877431, 0.0, 0.0, 0.0, 0.0, 0.0, 1.7054302140827315E9, 0.0, 2024-01-16 13:36:54.082
3.0, -86.16729497909546, -169.46234679222107, -145.76634067296982, 315.2286874651909, -1.008000047877431, -1.008000047877431, 1.008000047877431, 0.0, 0.0, 0.0, 0.0, 0.0, 1.7054302140827315E9, 0.0, 2024-01-16 13:36:54.082
4.0, 27.76501727104187, -1.1967679858207703, -27.525663673877716, 438.25643640756607, -1.008000047877431, -1.008000047877431, 1.008000047877431, 0.0, 0.0, 0.0, 0.0, 0.0, 1.705430214083391E9, 0.0, 2024-01-16 13:36:54.083
4.0, 14.839923024177551, -63.66805684566498, -75.87509030103683, 417.911380648613, -1.008000047877431, -1.008000047877431, 1.008000047877431, 0.0, 0.0, 0.0, 0.0, 0.0, 1.705430214083391E9, 0.0, 2024-01-16 13:36:54.083
5.0, -92.39048850536346, -192.2009385228157, -162.76044607162476, 313.5532122850418, -1.008000047877431, -1.008000047877431, 1.008000047877431, 0.0, 0.0, 0.0, 0.0, 0.0, 1.7054302140977755E9, 0.0, 2024-01-16 13:36:54.097
5.0, -13.403801441192627, -61.51387447118759, -64.38611763715744, 399.9598608613014, -1.008000047877431, -1.008000047877431, 1.008000047877431, 0.0, 0.0, 0.0, 0.0, 0.0, 1.7054302140977755E9, 0.0, 2024-01-16 13:36:54.097
6.0, 40.450757920742035, -14.839923024177551, -33.988210797309875, 454.7718346118927, -1.008000047877431, -1.008000047877431, 1.008000047877431, 0.0, 0.0, 0.0, 0.0, 0.0, 1.70543021409828E9, 0.0, 2024-01-16 13:36:54.098
6.0, -80.66216224431992, -185.25968420505524, -167.30816441774368, 314.7499802708626, -1.008000047877431, -1.008000047877431, 1.008000047877431, 0.0, 0.0, 0.0, 0.0, 0.0, 1.70543021409828E9, 0.0, 2024-01-16 13:36:54.098
7.0, -65.34353202581406, -132.8412464261055, -124.22451692819595, 337.0098648071289, -1.008000047877431, -1.008000047877431, 1.008000047877431, 0.0, 0.0, 0.0, 0.0, 0.0, 1.7054302141118057E9, 0.0, 2024-01-16 13:36:54.111
7.0, 41.88687950372696, -3.3509503602981567, -26.08954209089279, 450.7028234601021, -1.008000047877431, -1.008000047877431, 1.008000047877431, 0.0, 0.0, 0.0, 0.0, 0.0, 1.7054302141118057E9, 0.0, 2024-01-16 13:36:54.111
8.0, -46.19524425268173, -141.6973295211792, -137.38896477222443, 357.354920566082, -1.008000047877431, -1.008000047877431, 1.008000047877431, 0.0, 0.0, 0.0, 0.0, 0.0, 1.7054302141275184E9, 0.0, 2024-01-16 13:36:54.127
8.0, -96.69885325431824, -183.344855427742, -157.2553133368492, 310.20226192474365, -1.008000047877431, -1.008000047877431, 1.008000047877431, 0.0, 0.0, 0.0, 0.0, 0.0, 1.7054302141275184E9, 0.0, 2024-01-16 13:36:54.127
9.0, 34.22756439447403, -6.7019007205963135, -25.850188493728638, 441.1286795735359, -1.008000047877431, -1.008000047877431, 1.008000047877431, 0.0, 0.0, 0.0, 0.0, 0.0, 1.7054302141282032E9, 0.0, 2024-01-16 13:36:54.128
9.0, 14.361215829849243, -62.71064245700836, -75.39638310670853, 418.62944144010544, -1.008000047877431, -1.008000047877431, 1.008000047877431, 0.0, 0.0, 0.0, 0.0, 0.0, 1.7054302141282032E9, 0.0, 2024-01-16 13:36:54.128
10.0, -94.784024477005, -191.96158492565155, -169.70170038938522, 302.7823004126549, -1.008000047877431, -1.008000047877431, 0.5120000243186951, 0.0, 0.0, 0.0, 0.0, 0.0, 1.705430214141944E9, 0.0, 2024-01-16 13:36:54.141
10.0, -21.30247014760971, -67.01900720596313, -76.5931510925293, 384.16252344846725, -1.008000047877431, -1.008000047877431, 0.5120000243186951, 0.0, 0.0, 0.0, 0.0, 0.0, 1.705430214141944E9, 0.0, 2024-01-16 13:36:54.141
11.0, 33.50950360298157, -27.046956479549408, -54.572620153427124, 435.6235468387604, -1.008000047877431, -0.5120000243186951, 0.5120000243186951, 0.0, 0.0, 0.0, 0.0, 0.0, 1.7054302141575663E9, 0.0, 2024-01-16 13:36:54.157
11.0, -75.63573670387268, -182.8661482334137, -167.30816441774368, 324.5634777545929, -1.008000047877431, -0.5120000243186951, 0.5120000243186951, 0.0, 0.0, 0.0, 0.0, 0.0, 1.7054302141575663E9, 0.0, 2024-01-16 13:36:54.157
12.0, -52.65779137611389, -123.9851633310318, -110.34200829267502, 352.32849502563477, -0.5120000243186951, -0.5120000243186951, 0.5120000243186951, 0.0, 0.0, 0.0, 0.0, 0.0, 1.7054302141583667E9, 0.0, 2024-01-16 13:36:54.158
12.0, 50.74296259880066, 3.3509503602981567, -20.10570216178894, 457.4047241806984, -0.5120000243186951, -0.5120000243186951, 0.5120000243186951, 0.0, 0.0, 0.0, 0.0, 0.0, 1.7054302141583667E9, 0.0, 2024-01-16 13:36:54.158
13.0, -36.381746768951416, -134.03801441192627, -124.94257771968842, 365.7322964668274, -0.5120000243186951, -0.5120000243186951, 0.5120000243186951, 0.0, 0.0, 0.0, 0.0, 0.0, 1.7054302141718016E9, 0.0, 2024-01-16 13:36:54.171
13.0, -85.449234187603, -177.36101549863815, -152.46824139356613, 314.98933386802673, -0.5120000243186951, -0.5120000243186951, 0.5120000243186951, 0.0, 0.0, 0.0, 0.0, 0.0, 1.7054302141718016E9, 0.0, 2024-01-16 13:36:54.171
14.0, 24.89277410507202, -14.121862232685089, -34.466917991638184, 433.9480716586113, -0.5120000243186951, -0.5120000243186951, 0.5120000243186951, 0.0, 0.0, 0.0, 0.0, 0.0, 1.705430214187826E9, 0.0, 2024-01-16 13:36:54.187
14.0, 14.600569427013397, -61.753228068351746, -70.13060396909714, 420.54427021741867, -0.5120000243186951, -0.5120000243186951, 0.5120000243186951, 0.0, 0.0, 0.0, 0.0, 0.0, 1.705430214187826E9, 0.0, 2024-01-16 13:36:54.187
15.0, -95.50208526849747, -196.03059607744217, -175.68554031848907, 301.5855324268341, -0.5120000243186951, -0.5120000243186951, 0.5120000243186951, 0.0, 0.0, 0.0, 0.0, 0.0, 1.7054302141881635E9, 0.0, 2024-01-16 13:36:54.188
15.0, -19.866348564624786, -65.82223922014236, -80.18345504999161, 383.9231698513031, -0.5120000243186951, -0.5120000243186951, 0.5120000243186951, 0.0, 0.0, 0.0, 0.0, 0.0, 1.7054302141881635E9, 0.0, 2024-01-16 13:36:54.188
16.0, 31.83402842283249, -30.397906839847565, -48.58878022432327, 437.5383756160736, -0.5120000243186951, -0.5120000243186951, 0.5120000243186951, 0.0, 0.0, 0.0, 0.0, 0.0, 1.7054302142017665E9, 0.0, 2024-01-16 13:36:54.201
16.0, -84.73117339611053, -188.37128096818924, -175.20683312416077, 315.7073946595192, -0.5120000243186951, -0.5120000243186951, 0.5120000243186951, 0.0, 0.0, 0.0, 0.0, 0.0, 1.7054302142017665E9, 0.0, 2024-01-16 13:36:54.201
17.0, -66.06159281730652, -134.51672160625458, -123.02774894237518, 342.2756439447403, -0.5120000243186951, -0.5120000243186951, 0.5120000243186951, 0.0, 0.0, 0.0, 0.0, 0.0, 1.7054302142175891E9, 0.0, 2024-01-16 13:36:54.217
17.0, 50.0249018073082, 5.505132734775543, -21.78117734193802, 459.79826015233994, -0.5120000243186951, -0.5120000243186951, 0.5120000243186951, 0.0, 0.0, 0.0, 0.0, 0.0, 1.7054302142175891E9, 0.0, 2024-01-16 13:36:54.217
18.0, -32.3127356171608, -135.23478239774704, -129.01158887147903, 366.92906445264816, -0.5120000243186951, -0.5120000243186951, 0.5120000243186951, 0.0, 0.0, 0.0, 0.0, 0.0, 1.705430214218211E9, 0.0, 2024-01-16 13:36:54.218
18.0, -84.01311260461807, -170.65911477804184, -152.94694858789444, 320.01575940847397, -0.5120000243186951, -0.5120000243186951, 0.5120000243186951, 0.0, 0.0, 0.0, 0.0, 0.0, 1.705430214218211E9, 0.0, 2024-01-16 13:36:54.218
19.0, 24.17471331357956, -16.754751801490784, -38.5359291434288, 431.07582849264145, -0.5120000243186951, -0.5120000243186951, 0.5120000243186951, 0.0, 0.0, 0.0, 0.0, 0.0, 1.705430214231845E9, 0.0, 2024-01-16 13:36:54.231
19.0, 5.026425540447235, -78.98668706417084, -93.82661008834839, 402.1140432357788, -0.5120000243186951, -0.5120000243186951, 0.5120000243186951, 0.0, 0.0, 0.0, 0.0, 0.0, 1.705430214231845E9, 0.0, 2024-01-16 13:36:54.231
20.0, -96.45949965715408, -200.0996072292328, -177.121661901474, 301.1068252325058, -0.5120000243186951, -0.5120000243186951, 0.7520000357180834, 0.0, 0.0, 0.0, 0.0, 0.0, 1.7054302142476768E9, 0.0, 2024-01-16 13:36:54.247
20.0, -14.600569427013397, -64.38611763715744, -71.56672555208206, 391.1037777662277, -0.5120000243186951, -0.5120000243186951, 0.7520000357180834, 0.0, 0.0, 0.0, 0.0, 0.0, 1.7054302142476768E9, 0.0, 2024-01-16 13:36:54.247
21.0, 43.08364748954773, -22.259884536266327, -43.32300108671188, 445.915751516819, -0.5120000243186951, -0.7520000357180834, 0.7520000357180834, 0.0, 0.0, 0.0, 0.0, 0.0, 1.7054302142483633E9, 0.0, 2024-01-16 13:36:54.248
21.0, -65.1041784286499, -175.92489391565323, -155.10113096237183, 337.0098648071289, -0.5120000243186951, -0.7520000357180834, 0.7520000357180834, 0.0, 0.0, 0.0, 0.0, 0.0, 1.7054302142483633E9, 0.0, 2024-01-16 13:36:54.248
22.0, -46.434597849845886, -117.04390901327133, -107.23041152954102, 356.63685977458954, -0.7520000357180834, -0.7520000357180834, 0.7520000357180834, 0.0, 0.0, 0.0, 0.0, 0.0, 1.7054302142619796E9, 0.0, 2024-01-16 13:36:54.261
22.0, 57.44486331939697, 11.010265469551086, -16.276044607162476, 474.87753677368164, -0.7520000357180834, -0.7520000357180834, 0.7520000357180834, 0.0, 0.0, 0.0, 0.0, 0.0, 1.7054302142619796E9, 0.0, 2024-01-16 13:36:54.261
23.0, -31.115967631340027, -128.77223527431488, -119.19809138774872, 375.0670867562294, -0.7520000357180834, -0.7520000357180834, 0.7520000357180834, 0.0, 0.0, 0.0, 0.0, 0.0, 1.7054302142936108E9, 0.0, 2024-01-16 13:36:54.293
23.0, -84.49181979894638, -164.675274848938, -145.52698707580566, 325.28153854608536, -0.7520000357180834, -0.7520000357180834, 0.7520000357180834, 0.0, 0.0, 0.0, 0.0, 0.0, 1.7054302142936108E9, 0.0, 2024-01-16 13:36:54.293
24.0, 28.483078062534332, -6.7019007205963135, -19.148287773132324, 448.0699338912964, -0.7520000357180834, -0.7520000357180834, 0.7520000357180834, 0.0, 0.0, 0.0, 0.0, 0.0, 1.7054302142943244E9, 0.0, 2024-01-16 13:36:54.294
24.0, 5.983839929103851, -67.01900720596313, -78.98668706417084, 423.4165133833885, -0.7520000357180834, -0.7520000357180834, 0.7520000357180834, 0.0, 0.0, 0.0, 0.0, 0.0, 1.7054302142943244E9, 0.0, 2024-01-16 13:36:54.294
25.0, -96.69885325431824, -191.00417053699493, -164.43592125177383, 314.0319194793701, -0.7520000357180834, -0.7520000357180834, 0.7520000357180834, 0.0, 0.0, 0.0, 0.0, 0.0, 1.7054302143081644E9, 0.0, 2024-01-16 13:36:54.308
25.0, -14.839923024177551, -58.64163130521774, -62.949996054172516, 405.7043471932411, -0.7520000357180834, -0.7520000357180834, 0.7520000357180834, 0.0, 0.0, 0.0, 0.0, 0.0, 1.7054302143081644E9, 0.0, 2024-01-16 13:36:54.308
26.0, 43.80170828104019, -10.292204678058624, -34.70627158880234, 455.01118820905685, -0.7520000357180834, -0.7520000357180834, 0.7520000357180834, 0.0, 0.0, 0.0, 0.0, 0.0, 1.7054302143089237E9, 0.0, 2024-01-16 13:36:54.308
26.0, -75.15702950954437, -178.07907629013062, -163.95721405744553, 324.0847705602646, -0.7520000357180834, -0.7520000357180834, 0.7520000357180834, 0.0, 0.0, 0.0, 0.0, 0.0, 1.7054302143089237E9, 0.0, 2024-01-16 13:36:54.308
27.0, -55.290680944919586, -121.59162735939026, -112.4961906671524, 346.3446550965309, -0.7520000357180834, -0.7520000357180834, 0.7520000357180834, 0.0, 0.0, 0.0, 0.0, 0.0, 1.705430214309638E9, 0.0, 2024-01-16 13:36:54.309
27.0, 51.700376987457275, 9.813497483730316, -20.10570216178894, 458.8408457636833, -0.7520000357180834, -0.7520000357180834, 0.7520000357180834, 0.0, 0.0, 0.0, 0.0, 0.0, 1.705430214309638E9, 0.0, 2024-01-16 13:36:54.309
28.0, -31.83402842283249, -125.42128491401672, -122.54904174804688, 368.8438932299614, -0.7520000357180834, -0.7520000357180834, 0.7520000357180834, 0.0, 0.0, 0.0, 0.0, 0.0, 1.7054302143220017E9, 0.0, 2024-01-16 13:36:54.322
28.0, -86.16729497909546, -174.24941873550415, -149.11729103326797, 317.6222234368324, -0.7520000357180834, -0.7520000357180834, 0.7520000357180834, 0.0, 0.0, 0.0, 0.0, 0.0, 1.7054302143220017E9, 0.0, 2024-01-16 13:36:54.322
29.0, 27.046956479549408, -6.7019007205963135, -30.876614034175873, 437.29902201890945, -0.7520000357180834, -0.7520000357180834, 0.7520000357180834, 0.0, 0.0, 0.0, 0.0, 0.0, 1.705430214337484E9, 0.0, 2024-01-16 13:36:54.337
29.0, 9.574143886566162, -70.8486647605896, -79.22604066133499, 413.1243087053299, -0.7520000357180834, -0.7520000357180834, 0.7520000357180834, 0.0, 0.0, 0.0, 0.0, 0.0, 1.705430214337484E9, 0.0, 2024-01-16 13:36:54.337
30.0, -101.24657160043716, -202.73249679803848, -175.20683312416077, 297.5165212750435, -0.7520000357180834, -0.7520000357180834, 0.8800000417977571, 0.0, 0.0, 0.0, 0.0, 0.0, 1.705430214338225E9, 0.0, 2024-01-16 13:36:54.338
30.0, -18.190873384475708, -63.18934965133667, -75.15702950954437, 390.6250705718994, -0.7520000357180834, -0.7520000357180834, 0.8800000417977571, 0.0, 0.0, 0.0, 0.0, 0.0, 1.705430214338225E9, 0.0, 2024-01-16 13:36:54.338
31.0, 46.67395144701004, -18.90893417596817, -43.56235468387604, 447.3518730998039, -0.7520000357180834, -0.8800000417977571, 0.8800000417977571, 0.0, 0.0, 0.0, 0.0, 0.0, 1.7054302143520205E9, 0.0, 2024-01-16 13:36:54.352
31.0, -72.52413994073868, -179.03649067878723, -166.59010362625122, 325.9995993375778, -0.7520000357180834, -0.8800000417977571, 0.8800000417977571, 0.0, 0.0, 0.0, 0.0, 0.0, 1.7054302143520205E9, 0.0, 2024-01-16 13:36:54.352
32.0, -52.897144973278046, -115.84714102745056, -109.86330109834671, 353.52526301145554, -0.8800000417977571, -0.8800000417977571, 0.8800000417977571, 0.0, 0.0, 0.0, 0.0, 0.0, 1.7054302143677106E9, 0.0, 2024-01-16 13:36:54.367
32.0, 49.306841015815735, 8.377375900745392, -17.233458995819092, 460.5163209438324, -0.8800000417977571, -0.8800000417977571, 0.8800000417977571, 0.0, 0.0, 0.0, 0.0, 0.0, 1.7054302143677106E9, 0.0, 2024-01-16 13:36:54.367
33.0, -27.525663673877716, -129.01158887147903, -124.46387052536011, 371.9554899930954, -0.8800000417977571, -0.8800000417977571, 0.8800000417977571, 0.0, 0.0, 0.0, 0.0, 0.0, 1.7054302143683047E9, 0.0, 2024-01-16 13:36:54.368
33.0, -81.61957663297653, -172.33458995819092, -147.4418158531189, 323.84541696310043, -0.8800000417977571, -0.8800000417977571, 0.8800000417977571, 0.0, 0.0, 0.0, 0.0, 0.0, 1.7054302143683047E9, 0.0, 2024-01-16 13:36:54.368
34.0, 33.988210797309875, -6.462547123432159, -23.456652522087097, 444.71898353099823, -0.8800000417977571, -0.8800000417977571, 0.8800000417977571, 0.0, 0.0, 0.0, 0.0, 0.0, 1.7054302143822763E9, 0.0, 2024-01-16 13:36:54.382
34.0, 9.813497483730316, -75.15702950954437, -85.20988059043884, 411.9275407195091, -0.8800000417977571, -0.8800000417977571, 0.8800000417977571, 0.0, 0.0, 0.0, 0.0, 0.0, 1.7054302143822763E9, 0.0, 2024-01-16 13:36:54.382
35.0, -94.3053172826767, -190.28610974550247, -172.09523636102676, 307.3300187587738, -0.8800000417977571, -0.8800000417977571, 0.8800000417977571, 0.0, 0.0, 0.0, 0.0, 0.0, 1.7054302143976548E9, 0.0, 2024-01-16 13:36:54.397
35.0, -20.10570216178894, -68.45512878894806, -70.13060396909714, 395.17278891801834, -0.8800000417977571, -0.8800000417977571, 0.8800000417977571, 0.0, 0.0, 0.0, 0.0, 0.0, 1.7054302143976548E9, 0.0, 2024-01-16 13:36:54.397
36.0, 42.60494029521942, -17.7121661901474, -39.01463633775711, 457.16537058353424, -0.8800000417977571, -0.8800000417977571, 0.8800000417977571, 0.0, 0.0, 0.0, 0.0, 0.0, 1.7054302143982599E9, 0.0, 2024-01-16 13:36:54.398
36.0, -71.08801835775375, -179.03649067878723, -154.62242376804352, 337.4885720014572, -0.8800000417977571, -0.8800000417977571, 0.8800000417977571, 0.0, 0.0, 0.0, 0.0, 0.0, 1.7054302143982599E9, 0.0, 2024-01-16 13:36:54.398
37.0, -60.79581367969513, -123.9851633310318, -108.18782591819763, 358.3123349547386, -0.8800000417977571, -0.8800000417977571, 0.8800000417977571, 0.0, 0.0, 0.0, 0.0, 0.0, 1.7054302144118133E9, 0.0, 2024-01-16 13:36:54.411
37.0, 53.1364985704422, 10.05285108089447, -12.207033455371857, 470.56917202472687, -0.8800000417977571, -0.8800000417977571, 0.8800000417977571, 0.0, 0.0, 0.0, 0.0, 0.0, 1.7054302144118133E9, 0.0, 2024-01-16 13:36:54.411
38.0, -38.057221949100494, -130.2083568572998, -122.07033455371857, 373.6309651732445, -0.8800000417977571, -0.8800000417977571, 0.8800000417977571, 0.0, 0.0, 0.0, 0.0, 0.0, 1.7054302144275305E9, 0.0, 2024-01-16 13:36:54.427
38.0, -95.26273167133331, -181.90873384475708, -151.27147340774536, 317.3828698396683, -0.8800000417977571, -0.8800000417977571, 0.8800000417977571, 0.0, 0.0, 0.0, 0.0, 0.0, 1.7054302144275305E9, 0.0, 2024-01-16 13:36:54.427
39.0, 21.30247014760971, -15.31863021850586, -26.807602882385254, 444.9583371281624, -0.8800000417977571, -0.8800000417977571, 0.8800000417977571, 0.0, 0.0, 0.0, 0.0, 0.0, 1.7054302144282105E9, 0.0, 2024-01-16 13:36:54.428
39.0, 2.1541823744773865, -80.18345504999161, -85.20988059043884, 412.40624791383743, -0.8800000417977571, -0.8800000417977571, 0.8800000417977571, 0.0, 0.0, 0.0, 0.0, 0.0, 1.7054302144282105E9, 0.0, 2024-01-16 13:36:54.428
40.0, -106.2729971408844, -209.4343975186348, -175.68554031848907, 305.41518998146057, -0.8800000417977571, -0.8800000417977571, 0.944000044837594, 0.0, 0.0, 0.0, 0.0, 0.0, 1.7054302144421313E9, 0.0, 2024-01-16 13:36:54.442
40.0, -20.58440935611725, -70.13060396909714, -78.50797986984253, 389.6676561832428, -0.8800000417977571, -0.8800000417977571, 0.944000044837594, 0.0, 0.0, 0.0, 0.0, 0.0, 1.7054302144421313E9, 0.0, 2024-01-16 13:36:54.442
41.0, 30.397906839847565, -27.046956479549408, -58.8809849023819, 436.82031482458115, -0.8800000417977571, -0.944000044837594, 0.944000044837594, 0.0, 0.0, 0.0, 0.0, 0.0, 1.7054302144578755E9, 0.0, 2024-01-16 13:36:54.457
41.0, -86.64600217342377, -197.70607125759125, -179.7545514702797, 309.0054939389229, -0.8800000417977571, -0.944000044837594, 0.944000044837594, 0.0, 0.0, 0.0, 0.0, 0.0, 1.7054302144578755E9, 0.0, 2024-01-16 13:36:54.457
42.0, -69.17318958044052, -138.5857327580452, -131.88383203744888, 325.76024574041367, -0.944000044837594, -0.944000044837594, 0.944000044837594, 0.0, 0.0, 0.0, 0.0, 0.0, 1.7054302144582832E9, 0.0, 2024-01-16 13:36:54.458
42.0, 38.5359291434288, -8.616729497909546, -39.01463633775711, 444.2402763366699, -0.944000044837594, -0.944000044837594, 0.944000044837594, 0.0, 0.0, 0.0, 0.0, 0.0, 1.7054302144582832E9, 0.0, 2024-01-16 13:36:54.458
43.0, -42.60494029521942, -145.04827988147736, -139.5431471467018, 354.243323802948, -0.944000044837594, -0.944000044837594, 0.944000044837594, 0.0, 0.0, 0.0, 0.0, 0.0, 1.7054302144718196E9, 0.0, 2024-01-16 13:36:54.471
43.0, -91.1937205195427, -175.68554031848907, -159.17014211416245, 305.8938971757889, -0.944000044837594, -0.944000044837594, 0.944000044837594, 0.0, 0.0, 0.0, 0.0, 0.0, 1.7054302144718196E9, 0.0, 2024-01-16 13:36:54.471
44.0, 30.876614034175873, -10.770911872386932, -36.62110036611557, 439.692557990551, -0.944000044837594, -0.944000044837594, 0.944000044837594, 0.0, 0.0, 0.0, 0.0, 0.0, 1.70543021448752E9, 0.0, 2024-01-16 13:36:54.487
44.0, 18.669580578804016, -61.51387447118759, -78.26862627267838, 418.62944144010544, -0.944000044837594, -0.944000044837594, 0.944000044837594, 0.0, 0.0, 0.0, 0.0, 0.0, 1.70543021448752E9, 0.0, 2024-01-16 13:36:54.487
45.0, -105.79428994655609, -208.23762953281403, -188.84998816251755, 286.5062558054924, -0.944000044837594, -0.944000044837594, 0.944000044837594, 0.0, 0.0, 0.0, 0.0, 0.0, 1.705430214488192E9, 0.0, 2024-01-16 13:36:54.488
45.0, -26.5682492852211, -78.02927267551422, -87.12470936775208, 380.8115730881691, -0.944000044837594, -0.944000044837594, 0.944000044837594, 0.0, 0.0, 0.0, 0.0, 0.0, 1.705430214488192E9, 0.0, 2024-01-16 13:36:54.488
46.0, 29.679846048355103, -32.55208921432495, -50.503609001636505, 442.08609396219254, -0.944000044837594, -0.944000044837594, 0.944000044837594, 0.0, 0.0, 0.0, 0.0, 0.0, 1.7054302145020547E9, 0.0, 2024-01-16 13:36:54.502
46.0, -95.98079246282578, -202.49314320087433, -183.10550183057785, 314.98933386802673, -0.944000044837594, -0.944000044837594, 0.944000044837594, 0.0, 0.0, 0.0, 0.0, 0.0, 1.7054302145020547E9, 0.0, 2024-01-16 13:36:54.502
47.0, -86.64600217342377, -152.94694858789444, -132.12318563461304, 343.7117655277252, -0.944000044837594, -0.944000044837594, 0.944000044837594, 0.0, 0.0, 0.0, 0.0, 0.0, 1.7054302145178978E9, 0.0, 2024-01-16 13:36:54.517
47.0, 6.462547123432159, -32.791442811489105, -52.65779137611389, 449.9847626686096, -0.944000044837594, -0.944000044837594, 0.944000044837594, 0.0, 0.0, 0.0, 0.0, 0.0, 1.7054302145178978E9, 0.0, 2024-01-16 13:36:54.517
48.0, -95.50208526849747, -188.6106345653534, -167.06881082057953, 344.4298263192177, -0.944000044837594, -0.944000044837594, 0.944000044837594, 0.0, 0.0, 0.0, 0.0, 0.0, 1.705430214532704E9, 0.0, 2024-01-16 13:36:54.532
48.0, -165.1539820432663, -246.53420507907867, -198.66348564624786, 289.85720616579056, -0.944000044837594, -0.944000044837594, 0.944000044837594, 0.0, 0.0, 0.0, 0.0, 0.0, 1.705430214532704E9, 0.0, 2024-01-16 13:36:54.532
49.0, -55.53003454208374, -90.23630613088608, -93.82661008834839, 402.1140432357788, -0.944000044837594, -0.944000044837594, 0.944000044837594, 0.0, 0.0, 0.0, 0.0, 0.0, 1.7054302145332713E9, 0.0, 2024-01-16 13:36:54.533
49.0, -77.31121188402176, -152.94694858789444, -140.97926872968674, 382.72640186548233, -0.944000044837594, -0.944000044837594, 0.944000044837594, 0.0, 0.0, 0.0, 0.0, 0.0, 1.7054302145332713E9, 0.0, 2024-01-16 13:36:54.533
50.0, -185.02033060789108, -276.6927583217621, -230.2581604719162, 277.88952630758286, -0.944000044837594, -0.944000044837594, 0.9600000455975533, 0.0, 0.0, 0.0, 0.0, 0.0, 1.705430214547506E9, 0.0, 2024-01-16 13:36:54.547
50.0, -124.70322412252426, -162.76044607162476, -155.57983815670013, 342.7543511390686, -0.944000044837594, -0.944000044837594, 0.9600000455975533, 0.0, 0.0, 0.0, 0.0, 0.0, 1.705430214547506E9, 0.0, 2024-01-16 13:36:54.547
51.0, -73.24220073223114, -132.3625392317772, -134.51672160625458, 389.90700978040695, -0.944000044837594, -0.9600000455975533, 0.9600000455975533, 0.0, 0.0, 0.0, 0.0, 0.0, 1.7054302145481977E9, 0.0, 2024-01-16 13:36:54.548
51.0, -196.26994967460632, -297.0378140807152, -253.7148129940033, 271.4269791841507, -0.944000044837594, -0.9600000455975533, 0.9600000455975533, 0.0, 0.0, 0.0, 0.0, 0.0, 1.7054302145481977E9, 0.0, 2024-01-16 13:36:54.548
52.0, -191.2435241341591, -259.9380065202713, -216.85435903072357, 278.6075870990753, -0.9600000455975533, -0.9600000455975533, 0.9600000455975533, 0.0, 0.0, 0.0, 0.0, 0.0, 1.7054302145621395E9, 0.0, 2024-01-16 13:36:54.562
52.0, -78.26862627267838, -123.50645613670349, -124.94257771968842, 396.8482640981674, -0.9600000455975533, -0.9600000455975533, 0.9600000455975533, 0.0, 0.0, 0.0, 0.0, 0.0, 1.7054302145621395E9, 0.0, 2024-01-16 13:36:54.562
53.0, -166.35075002908707, -269.51215040683746, -232.65169644355774, 296.798460483551, -0.9600000455975533, -0.9600000455975533, 0.9600000455975533, 0.0, 0.0, 0.0, 0.0, 0.0, 1.705430214577822E9, 0.0, 2024-01-16 13:36:54.577
53.0, -226.42850291728973, -310.9203227162361, -264.7250784635544, 235.04523241519928, -0.9600000455975533, -0.9600000455975533, 0.9600000455975533, 0.0, 0.0, 0.0, 0.0, 0.0, 1.705430214577822E9, 0.0, 2024-01-16 13:36:54.577
54.0, -112.0174834728241, -145.76634067296982, -136.91025757789612, 366.689710855484, -0.9600000455975533, -0.9600000455975533, 0.9600000455975533, 0.0, 0.0, 0.0, 0.0, 0.0, 1.7054302145782785E9, 0.0, 2024-01-16 13:36:54.578
54.0, -115.60778743028641, -204.40797197818756, -184.78097701072693, 349.21689826250076, -0.9600000455975533, -0.9600000455975533, 0.9600000455975533, 0.0, 0.0, 0.0, 0.0, 0.0, 1.7054302145782785E9, 0.0, 2024-01-16 13:36:54.578
55.0, -223.55625975131989, -323.6060633659363, -266.6399072408676, 245.8161442875862, -0.9600000455975533, -0.9600000455975533, 0.9600000455975533, 0.0, 0.0, 0.0, 0.0, 0.0, 1.7054302145918078E9, 0.0, 2024-01-16 13:36:54.591
55.0, -137.62831836938858, -185.25968420505524, -161.56367808580399, 337.24921840429306, -0.9600000455975533, -0.9600000455975533, 0.9600000455975533, 0.0, 0.0, 0.0, 0.0, 0.0, 1.7054302145918078E9, 0.0, 2024-01-16 13:36:54.591
56.0, -78.98668706417084, -143.85151189565659, -139.30379354953766, 388.7102417945862, -0.9600000455975533, -0.9600000455975533, 0.9600000455975533, 0.0, 0.0, 0.0, 0.0, 0.0, 1.7054302146074607E9, 0.0, 2024-01-16 13:36:54.607
56.0, -187.89257377386093, -297.5165212750435, -244.61937630176544, 278.128879904747, -0.9600000455975533, -0.9600000455975533, 0.9600000455975533, 0.0, 0.0, 0.0, 0.0, 0.0, 1.7054302146074607E9, 0.0, 2024-01-16 13:36:54.607
57.0, -173.77071154117584, -241.26842594146729, -205.84409356117249, 286.9849629998207, -0.9600000455975533, -0.9600000455975533, 0.9600000455975533, 0.0, 0.0, 0.0, 0.0, 0.0, 1.7054302146081913E9, 0.0, 2024-01-16 13:36:54.608
57.0, -60.31710648536682, -106.99105793237686, -108.9058867096901, 402.1140432357788, -0.9600000455975533, -0.9600000455975533, 0.9600000455975533, 0.0, 0.0, 0.0, 0.0, 0.0, 1.7054302146081913E9, 0.0, 2024-01-16 13:36:54.608
58.0, -147.20246225595474, -246.77355867624283, -216.85435903072357, 311.15967631340027, -0.9600000455975533, -0.9600000455975533, 0.9600000455975533, 0.0, 0.0, 0.0, 0.0, 0.0, 1.7054302146219163E9, 0.0, 2024-01-16 13:36:54.621
58.0, -204.1686183810234, -286.5062558054924, -240.31101155281067, 260.65606731176376, -0.9600000455975533, -0.9600000455975533, 0.9600000455975533, 0.0, 0.0, 0.0, 0.0, 0.0, 1.7054302146219163E9, 0.0, 2024-01-16 13:36:54.621
59.0, -85.449234187603, -126.6180528998375, -119.91615217924118, 378.41803711652756, -0.9600000455975533, -0.9600000455975533, 0.9600000455975533, 0.0, 0.0, 0.0, 0.0, 0.0, 1.705430214637462E9, 0.0, 2024-01-16 13:36:54.637
59.0, -105.07622915506363, -185.73839139938354, -170.18040758371353, 351.84978783130646, -0.9600000455975533, -0.9600000455975533, 0.9600000455975533, 0.0, 0.0, 0.0, 0.0, 0.0, 1.705430214637462E9, 0.0, 2024-01-16 13:36:54.637
60.0, -197.22736406326294, -293.2081565260887, -249.64580184221268, 258.2625313401222, -0.9600000455975533, -0.9600000455975533, 0.9760000463575125, 0.0, 0.0, 0.0, 0.0, 0.0, 1.705430214638192E9, 0.0, 2024-01-16 13:36:54.638
60.0, -120.8735665678978, -172.33458995819092, -151.51082700490952, 340.6001687645912, -0.9600000455975533, -0.9600000455975533, 0.9760000463575125, 0.0, 0.0, 0.0, 0.0, 0.0, 1.705430214638192E9, 0.0, 2024-01-16 13:36:54.638
61.0, -64.38611763715744, -129.49029606580734, -129.2509424686432, 389.42830258607864, -0.9600000455975533, -0.9760000463575125, 0.9760000463575125, 0.0, 0.0, 0.0, 0.0, 0.0, 1.705430214651784E9, 0.0, 2024-01-16 13:36:54.651
61.0, -183.58420902490616, -292.96880292892456, -248.68838745355606, 267.8366752266884, -0.9600000455975533, -0.9760000463575125, 0.9760000463575125, 0.0, 0.0, 0.0, 0.0, 0.0, 1.705430214651784E9, 0.0, 2024-01-16 13:36:54.651
62.0, -161.08497089147568, -225.23173493146896, -201.0570216178894, 293.9262173175812, -0.9760000463575125, -0.9760000463575125, 0.9760000463575125, 0.0, 0.0, 0.0, 0.0, 0.0, 1.7054302146678944E9, 0.0, 2024-01-16 13:36:54.667
62.0, -54.572620153427124, -98.85303562879562, -107.46976512670517, 403.3108112215996, -0.9760000463575125, -0.9760000463575125, 0.9760000463575125, 0.0, 0.0, 0.0, 0.0, 0.0, 1.7054302146678944E9, 0.0, 2024-01-16 13:36:54.667
63.0, -136.4315503835678, -239.35359716415405, -214.70017665624619, 311.15967631340027, -0.9760000463575125, -0.9760000463575125, 0.9760000463575125, 0.0, 0.0, 0.0, 0.0, 0.0, 1.7054302146683033E9, 0.0, 2024-01-16 13:36:54.668
63.0, -182.3874410390854, -270.9482719898224, -228.82203888893127, 267.59732162952423, -0.9760000463575125, -0.9760000463575125, 0.9760000463575125, 0.0, 0.0, 0.0, 0.0, 0.0, 1.7054302146683033E9, 0.0, 2024-01-16 13:36:54.668
64.0, -66.30094641447067, -108.66653311252594, -108.66653311252594, 387.9921810030937, -0.9760000463575125, -0.9760000463575125, 0.9760000463575125, 0.0, 0.0, 0.0, 0.0, 0.0, 1.7054302146820688E9, 0.0, 2024-01-16 13:36:54.682
64.0, -78.98668706417084, -165.1539820432663, -163.47850686311722, 358.7910421490669, -0.9760000463575125, -0.9760000463575125, 0.9760000463575125, 0.0, 0.0, 0.0, 0.0, 0.0, 1.7054302146820688E9, 0.0, 2024-01-16 13:36:54.682
65.0, -176.40360110998154, -285.30948781967163, -242.94390112161636, 258.02317774295807, -0.9760000463575125, -0.9760000463575125, 0.9760000463575125, 0.0, 0.0, 0.0, 0.0, 0.0, 1.7054302146974857E9, 0.0, 2024-01-16 13:36:54.697
65.0, -98.85303562879562, -151.0321198105812, -137.86767196655273, 351.6104342341423, -0.9760000463575125, -0.9760000463575125, 0.9760000463575125, 0.0, 0.0, 0.0, 0.0, 0.0, 1.7054302146974857E9, 0.0, 2024-01-16 13:36:54.697
66.0, -39.73269712924957, -103.87946116924286, -113.21425145864487, 405.46499359607697, -0.9760000463575125, -0.9760000463575125, 0.9760000463575125, 0.0, 0.0, 0.0, 0.0, 0.0, 1.705430214698212E9, 0.0, 2024-01-16 13:36:54.698
66.0, -157.49466693401337, -263.0496032834053, -232.8910500407219, 280.52241587638855, -0.9760000463575125, -0.9760000463575125, 0.9760000463575125, 0.0, 0.0, 0.0, 0.0, 0.0, 1.705430214698212E9, 0.0, 2024-01-16 13:36:54.698
67.0, -151.0321198105812, -224.75302773714066, -193.39770650863647, 292.2507421374321, -0.9760000463575125, -0.9760000463575125, 0.9760000463575125, 0.0, 0.0, 0.0, 0.0, 0.0, 1.7054302147117977E9, 0.0, 2024-01-16 13:36:54.711
67.0, -27.525663673877716, -83.77375900745392, -96.93820685148239, 406.9011151790619, -0.9760000463575125, -0.9760000463575125, 0.9760000463575125, 0.0, 0.0, 0.0, 0.0, 0.0, 1.7054302147117977E9, 0.0, 2024-01-16 13:36:54.711
68.0, -107.70911872386932, -212.0672870874405, -193.39770650863647, 325.76024574041367, -0.9760000463575125, -0.9760000463575125, 0.9760000463575125, 0.0, 0.0, 0.0, 0.0, 0.0, 1.705430214727637E9, 0.0, 2024-01-16 13:36:54.727
68.0, -167.06881082057953, -259.69865292310715, -221.16272377967834, 264.96443206071854, -0.9760000463575125, -0.9760000463575125, 0.9760000463575125, 0.0, 0.0, 0.0, 0.0, 0.0, 1.705430214727637E9, 0.0, 2024-01-16 13:36:54.727
69.0, -54.81197375059128, -96.45949965715408, -103.1614003777504, 389.42830258607864, -0.9760000463575125, -0.9760000463575125, 0.9760000463575125, 0.0, 0.0, 0.0, 0.0, 0.0, 1.7054302147281792E9, 0.0, 2024-01-16 13:36:54.728
69.0, -66.54030001163483, -165.39333564043045, -154.1437165737152, 364.7748820781708, -0.9760000463575125, -0.9760000463575125, 0.9760000463575125, 0.0, 0.0, 0.0, 0.0, 0.0, 1.7054302147281792E9, 0.0, 2024-01-16 13:36:54.728
70.0, -166.82945722341537, -276.93211191892624, -239.83230435848236, 265.682492852211, -0.9760000463575125, -0.9760000463575125, 0.9920000471174717, 0.0, 0.0, 0.0, 0.0, 0.0, 1.7054302147421584E9, 0.0, 2024-01-16 13:36:54.742
70.0, -79.46539425849915, -135.23478239774704, -130.44771045446396, 358.3123349547386, -0.9760000463575125, -0.9760000463575125, 0.9920000471174717, 0.0, 0.0, 0.0, 0.0, 0.0, 1.7054302147421584E9, 0.0, 2024-01-16 13:36:54.742
71.0, -28.722431659698486, -96.93820685148239, -107.94847232103348, 405.2256399989128, -0.9760000463575125, -0.9920000471174717, 0.9920000471174717, 0.0, 0.0, 0.0, 0.0, 0.0, 1.705430214757501E9, 0.0, 2024-01-16 13:36:54.757
71.0, -149.59599822759628, -266.6399072408676, -240.55036514997482, 267.59732162952423, -0.9760000463575125, -0.9920000471174717, 0.9920000471174717, 0.0, 0.0, 0.0, 0.0, 0.0, 1.705430214757501E9, 0.0, 2024-01-16 13:36:54.757
72.0, -131.64447844028473, -206.8015079498291, -190.52546334266663, 292.01138854026794, -0.9920000471174717, -0.9920000471174717, 0.9920000471174717, 0.0, 0.0, 0.0, 0.0, 0.0, 1.705430214758226E9, 0.0, 2024-01-16 13:36:54.758
72.0, -23.935359716415405, -81.14086943864822, -97.65626764297485, 406.66176158189774, -0.9920000471174717, -0.9920000471174717, 0.9920000471174717, 0.0, 0.0, 0.0, 0.0, 0.0, 1.705430214758226E9, 0.0, 2024-01-16 13:36:54.758
73.0, -108.9058867096901, -221.64143097400665, -198.66348564624786, 315.94674825668335, -0.9920000471174717, -0.9920000471174717, 0.9920000471174717, 0.0, 0.0, 0.0, 0.0, 0.0, 1.7054302147721903E9, 0.0, 2024-01-16 13:36:54.772
73.0, -163.47850686311722, -258.02317774295807, -233.3697572350502, 258.5018849372864, -0.9920000471174717, -0.9920000471174717, 0.9920000471174717, 0.0, 0.0, 0.0, 0.0, 0.0, 1.7054302147721903E9, 0.0, 2024-01-16 13:36:54.772
74.0, -44.99847626686096, -93.82661008834839, -108.66653311252594, 387.5134738087654, -0.9920000471174717, -0.9920000471174717, 0.9920000471174717, 0.0, 0.0, 0.0, 0.0, 0.0, 1.70543021480312E9, 0.0, 2024-01-16 13:36:54.803
74.0, -61.753228068351746, -151.0321198105812, -157.97337412834167, 357.11556696891785, -0.9920000471174717, -0.9920000471174717, 0.9920000471174717, 0.0, 0.0, 0.0, 0.0, 0.0, 1.70543021480312E9, 0.0, 2024-01-16 13:36:54.803
75.0, -163.47850686311722, -270.9482719898224, -241.98648673295975, 250.12450903654099, -0.9920000471174717, -0.9920000471174717, 0.9920000471174717, 0.0, 0.0, 0.0, 0.0, 0.0, 1.7054302148037152E9, 0.0, 2024-01-16 13:36:54.803
75.0, -72.04543274641037, -131.88383203744888, -134.27736800909042, 352.8072022199631, -0.9920000471174717, -0.9920000471174717, 0.9920000471174717, 0.0, 0.0, 0.0, 0.0, 0.0, 1.7054302148037152E9, 0.0, 2024-01-16 13:36:54.803
76.0, -18.90893417596817, -89.75759893655777, -107.94847232103348, 403.55016481876373, -0.9920000471174717, -0.9920000471174717, 0.9920000471174717, 0.0, 0.0, 0.0, 0.0, 0.0, 1.70543021481819E9, 0.0, 2024-01-16 13:36:54.818
76.0, -123.26710253953934, -240.78971874713898, -220.20530939102173, 287.9423773884773, -0.9920000471174717, -0.9920000471174717, 0.9920000471174717, 0.0, 0.0, 0.0, 0.0, 0.0, 1.70543021481819E9, 0.0, 2024-01-16 13:36:54.818
77.0, -109.3845939040184, -181.19067305326462, -166.59010362625122, 309.4842011332512, -0.9920000471174717, -0.9920000471174717, 0.9920000471174717, 0.0, 0.0, 0.0, 0.0, 0.0, 1.7054302148188858E9, 0.0, 2024-01-16 13:36:54.818
77.0, 0.0, -49.54619461297989, -73.00284713506699, 422.9378061890602, -0.9920000471174717, -0.9920000471174717, 0.9920000471174717, 0.0, 0.0, 0.0, 0.0, 0.0, 1.7054302148188858E9, 0.0, 2024-01-16 13:36:54.818
78.0, -89.51824533939362, -195.55188888311386, -186.21709859371185, 325.0421849489212, -0.9920000471174717, -0.9920000471174717, 0.9920000471174717, 0.0, 0.0, 0.0, 0.0, 0.0, 1.7054302148196914E9, 0.0, 2024-01-16 13:36:54.819
78.0, -141.2186223268509, -234.80587881803513, -210.3918119072914, 275.017283141613, -0.9920000471174717, -0.9920000471174717, 0.9920000471174717, 0.0, 0.0, 0.0, 0.0, 0.0, 1.7054302148196914E9, 0.0, 2024-01-16 13:36:54.819
79.0, -24.414066910743713, -68.93383598327637, -83.05569821596146, 400.1992144584656, -0.9920000471174717, -0.9920000471174717, 0.9920000471174717, 0.0, 0.0, 0.0, 0.0, 0.0, 1.7054302148318067E9, 0.0, 2024-01-16 13:36:54.831
79.0, -39.49334353208542, -126.85740649700165, -128.77223527431488, 378.1786835193634, -0.9920000471174717, -0.9920000471174717, 0.9920000471174717, 0.0, 0.0, 0.0, 0.0, 0.0, 1.7054302148318067E9, 0.0, 2024-01-16 13:36:54.831
80.0, -141.93668311834335, -254.1935201883316, -222.12013816833496, 268.55473601818085, -0.9920000471174717, -0.9920000471174717, 0.9920000471174717, 0.0, 0.0, 0.0, 0.0, 0.0, 1.705430214847872E9, 0.0, 2024-01-16 13:36:54.847
80.0, -53.61520576477051, -108.66653311252594, -112.73554426431656, 369.801307618618, -0.9920000471174717, -0.9920000471174717, 0.9920000471174717, 0.0, 0.0, 0.0, 0.0, 0.0, 1.705430214847872E9, 0.0, 2024-01-16 13:36:54.847
81.0, -2.3935359716415405, -69.65189677476883, -92.15113490819931, 418.62944144010544, -0.9920000471174717, -0.9920000471174717, 0.9920000471174717, 0.0, 0.0, 0.0, 0.0, 0.0, 1.7054302148483057E9, 0.0, 2024-01-16 13:36:54.848
81.0, -118.2406769990921, -232.41234284639359, -209.9131047129631, 297.9952284693718, -0.9920000471174717, -0.9920000471174717, 0.9920000471174717, 0.0, 0.0, 0.0, 0.0, 0.0, 1.7054302148483057E9, 0.0, 2024-01-16 13:36:54.848
82.0, -92.62984210252762, -156.7766061425209, -147.4418158531189, 331.7440856695175, -0.9920000471174717, -0.9920000471174717, 0.9920000471174717, 0.0, 0.0, 0.0, 0.0, 0.0, 1.7054302148621035E9, 0.0, 2024-01-16 13:36:54.862
82.0, -3.590303957462311, -51.22166979312897, -75.39638310670853, 424.6132813692093, -0.9920000471174717, -0.9920000471174717, 0.9920000471174717, 0.0, 0.0, 0.0, 0.0, 0.0, 1.7054302148621035E9, 0.0, 2024-01-16 13:36:54.862
83.0, -85.68858778476715, -194.59447449445724, -182.8661482334137, 327.91442811489105, -0.9920000471174717, -0.9920000471174717, 0.9920000471174717, 0.0, 0.0, 0.0, 0.0, 0.0, 1.7054302148775997E9, 0.0, 2024-01-16 13:36:54.877
83.0, -108.42717951536179, -200.33896082639694, -176.88230830430984, 305.6545435786247, -0.9920000471174717, -0.9920000471174717, 0.9920000471174717, 0.0, 0.0, 0.0, 0.0, 0.0, 1.7054302148775997E9, 0.0, 2024-01-16 13:36:54.877
84.0, 7.898668706417084, -35.663685977458954, -61.9925816655159, 420.06556302309036, -0.9920000471174717, -0.9920000471174717, 0.9920000471174717, 0.0, 0.0, 0.0, 0.0, 0.0, 1.7054302148782604E9, 0.0, 2024-01-16 13:36:54.878
84.0, -10.770911872386932, -103.6401075720787, -107.70911872386932, 397.0876176953316, -0.9920000471174717, -0.9920000471174717, 0.9920000471174717, 0.0, 0.0, 0.0, 0.0, 0.0, 1.7054302148782604E9, 0.0, 2024-01-16 13:36:54.878
85.0, -116.32584822177887, -228.34333169460297, -194.8338280916214, 289.85720616579056, -0.9920000471174717, -0.9920000471174717, 0.9920000471174717, 0.0, 0.0, 0.0, 0.0, 0.0, 1.7054302148919737E9, 0.0, 2024-01-16 13:36:54.891
85.0, -24.89277410507202, -84.73117339611053, -85.9279413819313, 390.38571697473526, -0.9920000471174717, -0.9920000471174717, 0.9920000471174717, 0.0, 0.0, 0.0, 0.0, 0.0, 1.7054302148919737E9, 0.0, 2024-01-16 13:36:54.891
86.0, 22.49923813343048, -41.647525906562805, -64.86482483148575, 441.6073867678642, -0.9920000471174717, -0.9920000471174717, 0.9920000471174717, 0.0, 0.0, 0.0, 0.0, 0.0, 1.70543021490773E9, 0.0, 2024-01-16 13:36:54.907
86.0, -100.28915721178055, -213.98211586475372, -184.30226981639862, 319.53705221414566, -0.9920000471174717, -0.9920000471174717, 0.9920000471174717, 0.0, 0.0, 0.0, 0.0, 0.0, 1.70543021490773E9, 0.0, 2024-01-16 13:36:54.907
87.0, -81.14086943864822, -155.34048455953598, -141.6973295211792, 334.8556824326515, -0.9920000471174717, -0.9920000471174717, 0.9920000471174717, 0.0, 0.0, 0.0, 0.0, 0.0, 1.7054302149084132E9, 0.0, 2024-01-16 13:36:54.908
87.0, 29.201138854026794, -23.69600611925125, -47.87071943283081, 445.19769072532654, -0.9920000471174717, -0.9920000471174717, 0.9920000471174717, 0.0, 0.0, 0.0, 0.0, 0.0, 1.7054302149084132E9, 0.0, 2024-01-16 13:36:54.908
88.0, -55.53003454208374, -161.56367808580399, -153.90436297655106, 349.69560545682907, -0.9920000471174717, -0.9920000471174717, 0.9920000471174717, 0.0, 0.0, 0.0, 0.0, 0.0, 1.7054302149219694E9, 0.0, 2024-01-16 13:36:54.921
88.0, -108.9058867096901, -205.84409356117249, -178.55778348445892, 297.5165212750435, -0.9920000471174717, -0.9920000471174717, 0.9920000471174717, 0.0, 0.0, 0.0, 0.0, 0.0, 1.7054302149219694E9, 0.0, 2024-01-16 13:36:54.921
89.0, 6.9412543177604675, -42.36558669805527, -60.31710648536682, 419.8262094259262, -0.9920000471174717, -0.9920000471174717, 0.9920000471174717, 0.0, 0.0, 0.0, 0.0, 0.0, 1.705430214937522E9, 0.0, 2024-01-16 13:36:54.937
89.0, -16.994105398654938, -105.31558275222778, -120.63421297073364, 391.3431313633919, -0.9920000471174717, -0.9920000471174717, 0.9920000471174717, 0.0, 0.0, 0.0, 0.0, 0.0, 1.705430214937522E9, 0.0, 2024-01-16 13:36:54.937
90.0, -114.65037304162979, -220.9233701825142, -192.91899931430817, 291.7720349431038, -0.9920000471174717, -0.9920000471174717, 0.9920000471174717, 0.0, 0.0, 0.0, 0.0, 0.0, 1.7054302149382484E9, 0.0, 2024-01-16 13:36:54.938
90.0, -29.44049245119095, -84.01311260461807, -84.25246620178223, 389.6676561832428, -0.9920000471174717, -0.9920000471174717, 0.9920000471174717, 0.0, 0.0, 0.0, 0.0, 0.0, 1.7054302149382484E9, 0.0, 2024-01-16 13:36:54.938
91.0, 22.020530939102173, -44.041061878204346, -66.77965360879898, 435.3841932415962, -0.9920000471174717, -0.9920000471174717, 0.9920000471174717, 0.0, 0.0, 0.0, 0.0, 0.0, 1.7054302149518573E9, 0.0, 2024-01-16 13:36:54.951
91.0, -90.95436692237854, -207.99827593564987, -186.456452190876, 314.0319194793701, -0.9920000471174717, -0.9920000471174717, 0.9920000471174717, 0.0, 0.0, 0.0, 0.0, 0.0, 1.7054302149518573E9, 0.0, 2024-01-16 13:36:54.951
92.0, -71.08801835775375, -145.2876334786415, -134.75607520341873, 338.685339987278, -0.9920000471174717, -0.9920000471174717, 0.9920000471174717, 0.0, 0.0, 0.0, 0.0, 0.0, 1.705430214984023E9, 0.0, 2024-01-16 13:36:54.984
92.0, 32.791442811489105, -19.626994967460632, -53.375852167606354, 442.56480115652084, -0.9920000471174717, -0.9920000471174717, 0.9920000471174717, 0.0, 0.0, 0.0, 0.0, 0.0, 1.705430214984023E9, 0.0, 2024-01-16 13:36:54.984
93.0, -56.00874173641205, -167.786871612072, -157.97337412834167, 339.40340077877045, -0.9920000471174717, -0.9920000471174717, 0.9920000471174717, 0.0, 0.0, 0.0, 0.0, 0.0, 1.7054302149847217E9, 0.0, 2024-01-16 13:36:54.984
93.0, -100.0498036146164, -195.55188888311386, -173.29200434684753, 301.1068252325058, -0.9920000471174717, -0.9920000471174717, 0.9920000471174717, 0.0, 0.0, 0.0, 0.0, 0.0, 1.7054302149847217E9, 0.0, 2024-01-16 13:36:54.984
94.0, 13.882508635520935, -32.07338201999664, -53.61520576477051, 423.6558669805527, -0.9920000471174717, -0.9920000471174717, 0.9920000471174717, 0.0, 0.0, 0.0, 0.0, 0.0, 1.7054302149854033E9, 0.0, 2024-01-16 13:36:54.985
94.0, -8.377375900745392, -106.51235073804855, -115.60778743028641, 387.27412021160126, -0.9920000471174717, -0.9920000471174717, 0.9920000471174717, 0.0, 0.0, 0.0, 0.0, 0.0, 1.7054302149854033E9, 0.0, 2024-01-16 13:36:54.985
95.0, -120.8735665678978, -233.8484644293785, -207.2802151441574, 277.41081911325455, -0.9920000471174717, -0.9920000471174717, 0.9920000471174717, 0.0, 0.0, 0.0, 0.0, 0.0, 1.705430214986118E9, 0.0, 2024-01-16 13:36:54.986
95.0, -29.679846048355103, -89.03953814506531, -97.17756044864655, 375.30644035339355, -0.9920000471174717, -0.9920000471174717, 0.9920000471174717, 0.0, 0.0, 0.0, 0.0, 0.0, 1.705430214986118E9, 0.0, 2024-01-16 13:36:54.986
96.0, 17.7121661901474, -49.306841015815735, -73.72090792655945, 424.6132813692093, -0.9920000471174717, -0.9920000471174717, 0.9920000471174717, 0.0, 0.0, 0.0, 0.0, 0.0, 1.705430214996792E9, 0.0, 2024-01-16 13:36:54.996
96.0, -92.15113490819931, -204.1686183810234, -185.25968420505524, 311.15967631340027, -0.9920000471174717, -0.9920000471174717, 0.9920000471174717, 0.0, 0.0, 0.0, 0.0, 0.0, 1.705430214996792E9, 0.0, 2024-01-16 13:36:54.996
97.0, -75.39638310670853, -150.31405901908875, -139.0644399523735, 332.2227928638458, -0.9920000471174717, -0.9920000471174717, 0.9920000471174717, 0.0, 0.0, 0.0, 0.0, 0.0, 1.7054302150118177E9, 0.0, 2024-01-16 13:36:55.011
97.0, 39.49334353208542, -11.010265469551086, -40.21140432357788, 445.19769072532654, -0.9920000471174717, -0.9920000471174717, 0.9920000471174717, 0.0, 0.0, 0.0, 0.0, 0.0, 1.7054302150118177E9, 0.0, 2024-01-16 13:36:55.011
98.0, -52.41843777894974, -160.12755650281906, -155.10113096237183, 344.908533513546, -0.9920000471174717, -0.9920000471174717, 0.9920000471174717, 0.0, 0.0, 0.0, 0.0, 0.0, 1.7054302150272956E9, 0.0, 2024-01-16 13:36:55.027
98.0, -101.96463239192963, -192.44029211997986, -174.01006513834, 300.6281180381775, -0.9920000471174717, -0.9920000471174717, 0.9920000471174717, 0.0, 0.0, 0.0, 0.0, 0.0, 1.7054302150272956E9, 0.0, 2024-01-16 13:36:55.027
0.0, -1.4361215829849243, -90.47565972805023, -97.4169140458107, 404.50757920742035, -0.9920000471174717, -0.9920000471174717, 1.008000047877431, 0.0, 0.0, 0.0, 0.0, 0.0, 1.7054302150424669E9, 0.0, 2024-01-16 13:36:55.042
0.0, -106.2729971408844, -216.37565183639526, -184.30226981639862, 300.1494108438492, -0.9920000471174717, -0.9920000471174717, 1.008000047877431, 0.0, 0.0, 0.0, 0.0, 0.0, 1.7054302150424669E9, 0.0, 2024-01-16 13:36:55.042
1.0, -15.797337412834167, -72.04543274641037, -78.74733346700668, 391.8218385577202, -0.9920000471174717, -0.11200000531971455, 1.008000047877431, 0.0, 0.0, 0.0, 0.0, 0.0, 1.7054302150432935E9, 0.0, 2024-01-16 13:36:55.043
1.0, 30.63726043701172, -34.70627158880234, -58.8809849023819, 441.6073867678642, -0.9920000471174717, -0.11200000531971455, 1.008000047877431, 0.0, 0.0, 0.0, 0.0, 0.0, 1.7054302150432935E9, 0.0, 2024-01-16 13:36:55.043
2.0, -83.29505181312561, -196.98801046609879, -176.6429547071457, 320.9731737971306, 0.06400000303983688, -0.11200000531971455, 1.008000047877431, 0.0, 0.0, 0.0, 0.0, 0.0, 1.7054302150568533E9, 0.0, 2024-01-16 13:36:55.056
2.0, -61.9925816655159, -131.40512484312057, -132.60189282894135, 337.4885720014572, 0.06400000303983688, -0.11200000531971455, 1.008000047877431, 0.0, 0.0, 0.0, 0.0, 0.0, 1.7054302150568533E9, 0.0, 2024-01-16 13:36:55.056
3.0, 37.81786835193634, -11.488972663879395, -42.844293892383575, 445.19769072532654, 0.06400000303983688, -0.11200000531971455, 1.008000047877431, 0.0, 0.0, 0.0, 0.0, 0.0, 1.7054302150726912E9, 0.0, 2024-01-16 13:36:55.072
3.0, -50.26425540447235, -156.7766061425209, -154.1437165737152, 346.10530149936676, 0.06400000303983688, -0.11200000531971455, 1.008000047877431, 0.0, 0.0, 0.0, 0.0, 0.0, 1.7054302150726912E9, 0.0, 2024-01-16 13:36:55.072
4.0, -102.92204678058624, -195.55188888311386, -177.83972269296646, 295.60169249773026, 0.06400000303983688, -0.11200000531971455, 1.008000047877431, 0.0, 0.0, 0.0, 0.0, 0.0, 1.7054302150733519E9, 0.0, 2024-01-16 13:36:55.073
4.0, 14.839923024177551, -32.55208921432495, -58.40227770805359, 417.911380648613, 0.06400000303983688, -0.11200000531971455, 1.008000047877431, 0.0, 0.0, 0.0, 0.0, 0.0, 1.7054302150733519E9, 0.0, 2024-01-16 13:36:55.073
5.0, -4.308364748954773, -98.37432843446732, -106.03364354372025, 391.58248496055603, 0.06400000303983688, -0.11200000531971455, 1.008000047877431, 0.0, 0.0, 0.0, 0.0, 0.0, 1.7054302150868747E9, 0.0, 2024-01-16 13:36:55.086
5.0, -115.36843383312225, -223.79561334848404, -197.4667176604271, 288.6604381799698, 0.06400000303983688, -0.11200000531971455, 1.008000047877431, 0.0, 0.0, 0.0, 0.0, 0.0, 1.7054302150868747E9, 0.0, 2024-01-16 13:36:55.086
6.0, -32.07338201999664, -86.16729497909546, -98.61368203163147, 370.7587220072746, 0.06400000303983688, -0.11200000531971455, 1.008000047877431, 0.0, 0.0, 0.0, 0.0, 0.0, 1.705430215103394E9, 0.0, 2024-01-16 13:36:55.103
6.0, 32.07338201999664, -39.01463633775711, -67.49771440029144, 427.246170938015, 0.06400000303983688, -0.11200000531971455, 1.008000047877431, 0.0, 0.0, 0.0, 0.0, 0.0, 1.705430215103394E9, 0.0, 2024-01-16 13:36:55.103
7.0, -80.90151584148407, -197.22736406326294, -174.72812592983246, 309.24484753608704, 0.06400000303983688, -0.11200000531971455, 1.008000047877431, 0.0, 0.0, 0.0, 0.0, 0.0, 1.705430215103966E9, 0.0, 2024-01-16 13:36:55.103
7.0, -64.14676403999329, -136.67090398073196, -129.7296496629715, 336.29180401563644, 0.06400000303983688, -0.11200000531971455, 1.008000047877431, 0.0, 0.0, 0.0, 0.0, 0.0, 1.705430215103966E9, 0.0, 2024-01-16 13:36:55.103
8.0, 39.49334353208542, -14.600569427013397, -41.88687950372696, 445.67639791965485, 0.06400000303983688, -0.11200000531971455, 1.008000047877431, 0.0, 0.0, 0.0, 0.0, 0.0, 1.7054302151167915E9, 0.0, 2024-01-16 13:36:55.116
8.0, -50.98231619596481, -161.80303168296814, -151.75018060207367, 347.78077667951584, 0.06400000303983688, -0.11200000531971455, 1.008000047877431, 0.0, 0.0, 0.0, 0.0, 0.0, 1.7054302151167915E9, 0.0, 2024-01-16 13:36:55.116
9.0, -97.4169140458107, -191.7222313284874, -166.82945722341537, 307.3300187587738, 0.06400000303983688, -0.11200000531971455, 1.008000047877431, 0.0, 0.0, 0.0, 0.0, 0.0, 1.7054302151323476E9, 0.0, 2024-01-16 13:36:55.132
9.0, 20.10570216178894, -20.823762953281403, -44.041061878204346, 433.23001086711884, 0.06400000303983688, -0.11200000531971455, 1.008000047877431, 0.0, 0.0, 0.0, 0.0, 0.0, 1.7054302151323476E9, 0.0, 2024-01-16 13:36:55.132
10.0, -10.05285108089447, -98.61368203163147, -102.92204678058624, 396.8482640981674, 0.06400000303983688, -0.11200000531971455, 0.9920000471174717, 0.0, 0.0, 0.0, 0.0, 0.0, 1.705430215147767E9, 0.0, 2024-01-16 13:36:55.147
10.0, -109.62394750118256, -212.78534787893295, -183.8235626220703, 294.64427810907364, 0.06400000303983688, -0.11200000531971455, 0.9920000471174717, 0.0, 0.0, 0.0, 0.0, 0.0, 1.705430215147767E9, 0.0, 2024-01-16 13:36:55.147
11.0, -25.37148129940033, -79.22604066133499, -87.36406296491623, 381.7689874768257, 0.06400000303983688, -0.11200000531971455, 0.9920000471174717, 0.0, 0.0, 0.0, 0.0, 0.0, 1.7054302151483183E9, 0.0, 2024-01-16 13:36:55.148
11.0, 27.286310076713562, -39.73269712924957, -60.31710648536682, 438.25643640756607, 0.06400000303983688, -0.11200000531971455, 0.9920000471174717, 0.0, 0.0, 0.0, 0.0, 0.0, 1.7054302151483183E9, 0.0, 2024-01-16 13:36:55.148
12.0, -87.36406296491623, -206.08344715833664, -185.73839139938354, 308.04807955026627, 0.06400000303983688, -0.11200000531971455, 0.9920000471174717, 0.0, 0.0, 0.0, 0.0, 0.0, 1.7054302151624615E9, 0.0, 2024-01-16 13:36:55.162
12.0, -68.69448238611221, -139.30379354953766, -129.2509424686432, 335.0950360298157, 0.06400000303983688, -0.11200000531971455, 0.9920000471174717, 0.0, 0.0, 0.0, 0.0, 0.0, 1.7054302151624615E9, 0.0, 2024-01-16 13:36:55.162
13.0, 12.44638705253601, -37.09980756044388, -77.55056548118591, 415.2784910798073, 0.06400000303983688, -0.11200000531971455, 0.9920000471174717, 0.0, 0.0, 0.0, 0.0, 0.0, 1.7054302151631813E9, 0.0, 2024-01-16 13:36:55.163
13.0, -31.83402842283249, -134.51672160625458, -138.82508635520935, 360.466517329216, 0.06400000303983688, -0.11200000531971455, 0.9920000471174717, 0.0, 0.0, 0.0, 0.0, 0.0, 1.7054302151631813E9, 0.0, 2024-01-16 13:36:55.163
14.0, -63.428703248500824, -153.42565578222275, -136.4315503835678, 333.65891444683075, 0.06400000303983688, -0.11200000531971455, 0.9920000471174717, 0.0, 0.0, 0.0, 0.0, 0.0, 1.7054302151768305E9, 0.0, 2024-01-16 13:36:55.176
14.0, 64.14676403999329, 27.525663673877716, -10.531558275222778, 458.362138569355, 0.06400000303983688, -0.11200000531971455, 0.9920000471174717, 0.0, 0.0, 0.0, 0.0, 0.0, 1.7054302151768305E9, 0.0, 2024-01-16 13:36:55.176
15.0, 63.428703248500824, -17.233458995819092, -41.647525906562805, 445.915751516819, 0.06400000303983688, -0.11200000531971455, 0.9920000471174717, 0.0, 0.0, 0.0, 0.0, 0.0, 1.705430215192546E9, 0.0, 2024-01-16 13:36:55.192
15.0, -33.03079640865326, -133.3199536204338, -123.26710253953934, 336.29180401563644, 0.06400000303983688, -0.11200000531971455, 0.9920000471174717, 0.0, 0.0, 0.0, 0.0, 0.0, 1.705430215192546E9, 0.0, 2024-01-16 13:36:55.192
16.0, 76.11444389820099, 33.50950360298157, 1.4361215829849243, 447.5912266969681, 0.06400000303983688, -0.11200000531971455, 0.9920000471174717, 0.0, 0.0, 0.0, 0.0, 0.0, 1.7054302151932292E9, 0.0, 2024-01-16 13:36:55.193
16.0, 138.5857327580452, 80.66216224431992, 29.919199645519257, 503.5999684333801, 0.06400000303983688, -0.11200000531971455, 0.9920000471174717, 0.0, 0.0, 0.0, 0.0, 0.0, 1.7054302151932292E9, 0.0, 2024-01-16 13:36:55.193
17.0, 29.201138854026794, -69.65189677476883, -80.42280864715576, 390.1463633775711, 0.06400000303983688, -0.11200000531971455, 0.9920000471174717, 0.0, 0.0, 0.0, 0.0, 0.0, 1.7054302152067816E9, 0.0, 2024-01-16 13:36:55.206
17.0, 59.59904569387436, -0.9574143886566162, -12.925094246864319, 425.33134216070175, 0.06400000303983688, -0.11200000531971455, 0.9920000471174717, 0.0, 0.0, 0.0, 0.0, 0.0, 1.7054302152067816E9, 0.0, 2024-01-16 13:36:55.206
18.0, 190.28610974550247, 154.1437165737152, 93.10854929685593, 547.6410303115845, 0.06400000303983688, -0.11200000531971455, 0.9920000471174717, 0.0, 0.0, 0.0, 0.0, 0.0, 1.7054302152230346E9, 0.0, 2024-01-16 13:36:55.223
18.0, 95.74143886566162, 1.6754751801490784, -13.643155038356781, 446.3944587111473, 0.06400000303983688, -0.11200000531971455, 0.9920000471174717, 0.0, 0.0, 0.0, 0.0, 0.0, 1.7054302152230346E9, 0.0, 2024-01-16 13:36:55.223
19.0, 56.72680252790451, -12.685740649700165, -18.669580578804016, 423.6558669805527, 0.06400000303983688, -0.11200000531971455, 0.9920000471174717, 0.0, 0.0, 0.0, 0.0, 0.0, 1.7054302152233727E9, 0.0, 2024-01-16 13:36:55.223
19.0, 171.13782197237015, 144.8089262843132, 101.96463239192963, 547.4016767144203, 0.06400000303983688, -0.11200000531971455, 0.9920000471174717, 0.0, 0.0, 0.0, 0.0, 0.0, 1.7054302152233727E9, 0.0, 2024-01-16 13:36:55.223
20.0, 143.13345110416412, 76.11444389820099, 42.844293892383575, 516.5250626802444, 0.06400000303983688, -0.11200000531971455, 1.008000047877431, 0.0, 0.0, 0.0, 0.0, 0.0, 1.705430215236974E9, 0.0, 2024-01-16 13:36:55.236
20.0, 50.74296259880066, -36.14239317178726, -36.62110036611557, 415.0391374826431, 0.06400000303983688, -0.11200000531971455, 1.008000047877431, 0.0, 0.0, 0.0, 0.0, 0.0, 1.705430215236974E9, 0.0, 2024-01-16 13:36:55.236
21.0, 135.23478239774704, 99.57109642028809, 62.949996054172516, 497.85548210144043, 0.06400000303983688, -0.11200000531971455, 1.008000047877431, 0.0, 0.0, 0.0, 0.0, 0.0, 1.7054302152524588E9, 0.0, 2024-01-16 13:36:55.252
21.0, 184.30226981639862, 130.44771045446396, 78.98668706417084, 540.699775993824, 0.06400000303983688, -0.11200000531971455, 1.008000047877431, 0.0, 0.0, 0.0, 0.0, 0.0, 1.7054302152524588E9, 0.0, 2024-01-16 13:36:55.252
22.0, 66.06159281730652, -29.201138854026794, -38.29657554626465, 413.84236949682236, 0.0800000037997961, -0.11200000531971455, 1.008000047877431, 0.0, 0.0, 0.0, 0.0, 0.0, 1.7054302152531738E9, 0.0, 2024-01-16 13:36:55.253
22.0, 78.50797986984253, 22.259884536266327, 3.1115967631340027, 434.9054860472679, 0.0800000037997961, -0.11200000531971455, 1.008000047877431, 0.0, 0.0, 0.0, 0.0, 0.0, 1.7054302152531738E9, 0.0, 2024-01-16 13:36:55.253
23.0, 173.05265074968338, 139.78250074386597, 86.16729497909546, 547.6410303115845, 0.0800000037997961, -0.11200000531971455, 1.008000047877431, 0.0, 0.0, 0.0, 0.0, 0.0, 1.7054302152668152E9, 0.0, 2024-01-16 13:36:55.266
23.0, 78.98668706417084, -12.685740649700165, -26.5682492852211, 447.83058029413223, 0.0800000037997961, -0.11200000531971455, 1.008000047877431, 0.0, 0.0, 0.0, 0.0, 0.0, 1.7054302152668152E9, 0.0, 2024-01-16 13:36:55.266
24.0, 22.738591730594635, -52.17908418178558, -51.46102339029312, 394.69408172369003, 0.0800000037997961, -0.11200000531971455, 1.008000047877431, 0.0, 0.0, 0.0, 0.0, 0.0, 1.70543021528284E9, 0.0, 2024-01-16 13:36:55.282
24.0, 133.79866081476212, 104.83687555789948, 66.06159281730652, 518.918598651886, 0.0800000037997961, -0.11200000531971455, 1.008000047877431, 0.0, 0.0, 0.0, 0.0, 0.0, 1.70543021528284E9, 0.0, 2024-01-16 13:36:55.282
25.0, 108.9058867096901, 35.4243323802948, 1.4361215829849243, 476.7923655509949, 0.0800000037997961, -0.11200000531971455, 1.008000047877431, 0.0, 0.0, 0.0, 0.0, 0.0, 1.7054302152833323E9, 0.0, 2024-01-16 13:36:55.283
25.0, -4.308364748954773, -98.37432843446732, -89.75759893655777, 366.689710855484, 0.0800000037997961, -0.11200000531971455, 1.008000047877431, 0.0, 0.0, 0.0, 0.0, 0.0, 1.7054302152833323E9, 0.0, 2024-01-16 13:36:55.283
26.0, 78.50797986984253, 33.988210797309875, 6.462547123432159, 454.7718346118927, 0.0800000037997961, -0.11200000531971455, 1.008000047877431, 0.0, 0.0, 0.0, 0.0, 0.0, 1.7054302152969673E9, 0.0, 2024-01-16 13:36:55.296
26.0, 120.39485937356949, 61.753228068351746, 18.430226981639862, 496.65871411561966, 0.0800000037997961, -0.11200000531971455, 1.008000047877431, 0.0, 0.0, 0.0, 0.0, 0.0, 1.7054302152969673E9, 0.0, 2024-01-16 13:36:55.296
27.0, -0.23935359716415405, -101.48592519760132, -92.86919569969177, 372.912904381752, 0.0800000037997961, -0.11200000531971455, 1.008000047877431, 0.0, 0.0, 0.0, 0.0, 0.0, 1.7054302153124487E9, 0.0, 2024-01-16 13:36:55.312
27.0, 18.669580578804016, -41.1688187122345, -45.716537058353424, 392.53989934921265, 0.0800000037997961, -0.11200000531971455, 1.008000047877431, 0.0, 0.0, 0.0, 0.0, 0.0, 1.7054302153124487E9, 0.0, 2024-01-16 13:36:55.312
28.0, 116.08649462461472, 76.11444389820099, 34.70627158880234, 498.33418929576874, 0.0800000037997961, -0.11200000531971455, 1.008000047877431, 0.0, 0.0, 0.0, 0.0, 0.0, 1.7054302153131735E9, 0.0, 2024-01-16 13:36:55.313
28.0, 24.17471331357956, -63.90741044282913, -73.72090792655945, 412.6456015110016, 0.0800000037997961, -0.11200000531971455, 1.008000047877431, 0.0, 0.0, 0.0, 0.0, 0.0, 1.7054302153131735E9, 0.0, 2024-01-16 13:36:55.313
29.0, -21.78117734193802, -102.20398598909378, -90.95436692237854, 362.6206997036934, 0.0800000037997961, -0.11200000531971455, 1.008000047877431, 0.0, 0.0, 0.0, 0.0, 0.0, 1.7054302153268335E9, 0.0, 2024-01-16 13:36:55.326
29.0, 93.82661008834839, 61.03516727685928, 29.679846048355103, 484.4516806602478, 0.0800000037997961, -0.11200000531971455, 1.008000047877431, 0.0, 0.0, 0.0, 0.0, 0.0, 1.7054302153268335E9, 0.0, 2024-01-16 13:36:55.326
30.0, 72.52413994073868, -10.531558275222778, -31.35532122850418, 449.74540907144547, 0.0800000037997961, -0.11200000531971455, 0.9920000471174717, 0.0, 0.0, 0.0, 0.0, 0.0, 1.7054302153425248E9, 0.0, 2024-01-16 13:36:55.342
30.0, -39.01463633775711, -136.67090398073196, -123.50645613670349, 334.8556824326515, 0.0800000037997961, -0.11200000531971455, 0.9920000471174717, 0.0, 0.0, 0.0, 0.0, 0.0, 1.7054302153425248E9, 0.0, 2024-01-16 13:36:55.342
31.0, 50.0249018073082, 8.138022303581238, -15.079276621341705, 436.34160763025284, 0.0800000037997961, -0.09600000455975533, 0.9920000471174717, 0.0, 0.0, 0.0, 0.0, 0.0, 1.7054302153432918E9, 0.0, 2024-01-16 13:36:55.343
31.0, 94.784024477005, 36.62110036611557, 0.23935359716415405, 477.2710727453232, 0.0800000037997961, -0.09600000455975533, 0.9920000471174717, 0.0, 0.0, 0.0, 0.0, 0.0, 1.7054302153432918E9, 0.0, 2024-01-16 13:36:55.343
32.0, -30.397906839847565, -133.79866081476212, -128.77223527431488, 350.41366624832153, 0.0800000037997961, -0.09600000455975533, 0.9920000471174717, 0.0, 0.0, 0.0, 0.0, 0.0, 1.7054302153571336E9, 0.0, 2024-01-16 13:36:55.357
32.0, -4.787071943283081, -66.77965360879898, -63.18934965133667, 384.8805842399597, 0.0800000037997961, -0.09600000455975533, 0.9920000471174717, 0.0, 0.0, 0.0, 0.0, 0.0, 1.7054302153571336E9, 0.0, 2024-01-16 13:36:55.357
33.0, 99.81045001745224, 55.05132734775543, 22.020530939102173, 490.91422778367996, 0.0800000037997961, -0.09600000455975533, 0.9920000471174717, 0.0, 0.0, 0.0, 0.0, 0.0, 1.705430215372688E9, 0.0, 2024-01-16 13:36:55.372
33.0, 8.377375900745392, -91.1937205195427, -95.02337807416916, 391.8218385577202, 0.0800000037997961, -0.09600000455975533, 0.9920000471174717, 0.0, 0.0, 0.0, 0.0, 0.0, 1.705430215372688E9, 0.0, 2024-01-16 13:36:55.372
34.0, -34.94562518596649, -121.11292016506195, -107.94847232103348, 344.66917991638184, 0.0800000037997961, -0.09600000455975533, 0.9920000471174717, 0.0, 0.0, 0.0, 0.0, 0.0, 1.7054302153732533E9, 0.0, 2024-01-16 13:36:55.373
34.0, 79.46539425849915, 40.69011151790619, 7.180607914924622, 464.1066249012947, 0.0800000037997961, -0.09600000455975533, 0.9920000471174717, 0.0, 0.0, 0.0, 0.0, 0.0, 1.7054302153732533E9, 0.0, 2024-01-16 13:36:55.373
35.0, 51.22166979312897, -32.55208921432495, -48.34942662715912, 427.00681734085083, 0.0800000037997961, -0.09600000455975533, 0.9920000471174717, 0.0, 0.0, 0.0, 0.0, 0.0, 1.7054302153869605E9, 0.0, 2024-01-16 13:36:55.386
35.0, -56.487448930740356, -154.38307017087936, -144.56957268714905, 314.0319194793701, 0.0800000037997961, -0.09600000455975533, 0.9920000471174717, 0.0, 0.0, 0.0, 0.0, 0.0, 1.7054302153869605E9, 0.0, 2024-01-16 13:36:55.386
36.0, 36.860453963279724, -9.574143886566162, -30.63726043701172, 431.07582849264145, 0.0800000037997961, -0.09600000455975533, 0.9920000471174717, 0.0, 0.0, 0.0, 0.0, 0.0, 1.7054302154027648E9, 0.0, 2024-01-16 13:36:55.402
36.0, 82.09828382730484, 21.063116550445557, -11.488972663879395, 475.5955975651741, 0.0800000037997961, -0.09600000455975533, 0.9920000471174717, 0.0, 0.0, 0.0, 0.0, 0.0, 1.7054302154027648E9, 0.0, 2024-01-16 13:36:55.402
37.0, -33.50950360298157, -134.03801441192627, -119.19809138774872, 356.8762133717537, 0.0800000037997961, -0.09600000455975533, 0.9920000471174717, 0.0, 0.0, 0.0, 0.0, 0.0, 1.705430215403319E9, 0.0, 2024-01-16 13:36:55.403
37.0, -17.7121661901474, -78.50797986984253, -70.36995756626129, 379.8541586995125, 0.0800000037997961, -0.09600000455975533, 0.9920000471174717, 0.0, 0.0, 0.0, 0.0, 0.0, 1.705430215403319E9, 0.0, 2024-01-16 13:36:55.403
38.0, 86.40664857625961, 41.647525906562805, 12.207033455371857, 483.4942662715912, 0.0800000037997961, -0.09600000455975533, 0.9920000471174717, 0.0, 0.0, 0.0, 0.0, 0.0, 1.70543021541698E9, 0.0, 2024-01-16 13:36:55.416
38.0, 2.3935359716415405, -95.50208526849747, -87.60341656208038, 394.2153745293617, 0.0800000037997961, -0.09600000455975533, 0.9920000471174717, 0.0, 0.0, 0.0, 0.0, 0.0, 1.70543021541698E9, 0.0, 2024-01-16 13:36:55.416
39.0, -44.75912266969681, -126.6180528998375, -103.87946116924286, 354.243323802948, 0.0800000037997961, -0.09600000455975533, 0.9920000471174717, 0.0, 0.0, 0.0, 0.0, 0.0, 1.7054302154325616E9, 0.0, 2024-01-16 13:36:55.432
39.0, 70.13060396909714, 28.483078062534332, 11.728326261043549, 469.8511112332344, 0.0800000037997961, -0.09600000455975533, 0.9920000471174717, 0.0, 0.0, 0.0, 0.0, 0.0, 1.7054302154325616E9, 0.0, 2024-01-16 13:36:55.432
40.0, 41.40817230939865, -37.81786835193634, -50.0249018073082, 438.4957900047302, 0.0800000037997961, -0.09600000455975533, 0.9920000471174717, 0.0, 0.0, 0.0, 0.0, 0.0, 1.705430215433277E9, 0.0, 2024-01-16 13:36:55.433
40.0, -58.162924110889435, -156.2978989481926, -134.03801441192627, 335.3343896269798, 0.0800000037997961, -0.09600000455975533, 0.9920000471174717, 0.0, 0.0, 0.0, 0.0, 0.0, 1.705430215433277E9, 0.0, 2024-01-16 13:36:55.433
41.0, 22.738591730594635, -20.58440935611725, -36.14239317178726, 404.02887201309204, 0.0800000037997961, -0.11200000531971455, 0.9920000471174717, 0.0, 0.0, 0.0, 0.0, 0.0, 1.7054302154467547E9, 0.0, 2024-01-16 13:36:55.446
41.0, 68.69448238611221, 12.925094246864319, -16.51539820432663, 468.4149896502495, 0.0800000037997961, -0.11200000531971455, 0.9920000471174717, 0.0, 0.0, 0.0, 0.0, 0.0, 1.7054302154467547E9, 0.0, 2024-01-16 13:36:55.446
42.0, -44.75912266969681, -153.1863021850586, -127.0967600941658, 357.354920566082, 0.06400000303983688, -0.11200000531971455, 0.9920000471174717, 0.0, 0.0, 0.0, 0.0, 0.0, 1.7054302154625108E9, 0.0, 2024-01-16 13:36:55.462
42.0, -11.728326261043549, -76.35379749536514, -66.06159281730652, 393.2579601407051, 0.06400000303983688, -0.11200000531971455, 0.9920000471174717, 0.0, 0.0, 0.0, 0.0, 0.0, 1.7054302154625108E9, 0.0, 2024-01-16 13:36:55.462
43.0, 82.57699102163315, 38.29657554626465, 2.6328895688056946, 484.21232706308365, 0.06400000303983688, -0.11200000531971455, 0.9920000471174717, 0.0, 0.0, 0.0, 0.0, 0.0, 1.7054302154632008E9, 0.0, 2024-01-16 13:36:55.463
43.0, -4.787071943283081, -101.48592519760132, -104.59752196073532, 379.6148051023483, 0.06400000303983688, -0.11200000531971455, 0.9920000471174717, 0.0, 0.0, 0.0, 0.0, 0.0, 1.7054302154632008E9, 0.0, 2024-01-16 13:36:55.463
44.0, -53.1364985704422, -137.14961117506027, -127.33611369132996, 331.50473207235336, 0.06400000303983688, -0.11200000531971455, 0.9920000471174717, 0.0, 0.0, 0.0, 0.0, 0.0, 1.7054302154768417E9, 0.0, 2024-01-16 13:36:55.476
44.0, 65.58288562297821, 24.89277410507202, -7.65931510925293, 462.1917961239815, 0.06400000303983688, -0.11200000531971455, 0.9920000471174717, 0.0, 0.0, 0.0, 0.0, 0.0, 1.7054302154768417E9, 0.0, 2024-01-16 13:36:55.476
45.0, 32.3127356171608, -53.85455936193466, -63.428703248500824, 426.0494029521942, 0.06400000303983688, -0.11200000531971455, 0.9920000471174717, 0.0, 0.0, 0.0, 0.0, 0.0, 1.7054302154925635E9, 0.0, 2024-01-16 13:36:55.492
45.0, -67.97642159461975, -170.18040758371353, -147.9205230474472, 313.5532122850418, 0.06400000303983688, -0.11200000531971455, 0.9920000471174717, 0.0, 0.0, 0.0, 0.0, 0.0, 1.7054302154925635E9, 0.0, 2024-01-16 13:36:55.492
46.0, 22.97794532775879, -25.610834896564484, -42.844293892383575, 418.15073424577713, 0.06400000303983688, -0.11200000531971455, 0.9920000471174717, 0.0, 0.0, 0.0, 0.0, 0.0, 1.7054302154932115E9, 0.0, 2024-01-16 13:36:55.493
46.0, 64.86482483148575, -1.1967679858207703, -24.653420507907867, 457.64407777786255, 0.06400000303983688, -0.11200000531971455, 0.9920000471174717, 0.0, 0.0, 0.0, 0.0, 0.0, 1.7054302154932115E9, 0.0, 2024-01-16 13:36:55.493
47.0, -47.3920122385025, -153.1863021850586, -135.4741359949112, 344.1904727220535, 0.06400000303983688, -0.11200000531971455, 0.9920000471174717, 0.0, 0.0, 0.0, 0.0, 0.0, 1.705430215507134E9, 0.0, 2024-01-16 13:36:55.507
47.0, -25.850188493728638, -93.58725649118423, -93.10854929685593, 363.33876049518585, 0.06400000303983688, -0.11200000531971455, 0.9920000471174717, 0.0, 0.0, 0.0, 0.0, 0.0, 1.705430215507134E9, 0.0, 2024-01-16 13:36:55.507
48.0, 76.5931510925293, 22.97794532775879, -8.377375900745392, 469.61175763607025, 0.06400000303983688, -0.11200000531971455, 0.9920000471174717, 0.0, 0.0, 0.0, 0.0, 0.0, 1.7054302155225437E9, 0.0, 2024-01-16 13:36:55.522
48.0, -16.03669100999832, -120.8735665678978, -116.32584822177887, 375.5457939505577, 0.06400000303983688, -0.11200000531971455, 0.9920000471174717, 0.0, 0.0, 0.0, 0.0, 0.0, 1.7054302155225437E9, 0.0, 2024-01-16 13:36:55.522
49.0, -61.51387447118759, -150.0747054219246, -129.96900326013565, 333.8982680439949, 0.06400000303983688, -0.11200000531971455, 0.9920000471174717, 0.0, 0.0, 0.0, 0.0, 0.0, 1.7054302155232687E9, 0.0, 2024-01-16 13:36:55.523
49.0, 61.9925816655159, 28.722431659698486, -5.265779137611389, 469.13305044174194, 0.06400000303983688, -0.11200000531971455, 0.9920000471174717, 0.0, 0.0, 0.0, 0.0, 0.0, 1.7054302155232687E9, 0.0, 2024-01-16 13:36:55.523
50.0, 32.55208921432495, -51.46102339029312, -62.47128885984421, 429.40035331249237, 0.06400000303983688, -0.11200000531971455, 0.9920000471174717, 0.0, 0.0, 0.0, 0.0, 0.0, 1.7054302155367732E9, 0.0, 2024-01-16 13:36:55.536
50.0, -69.89125037193298, -169.94105398654938, -151.51082700490952, 320.4944666028023, 0.06400000303983688, -0.11200000531971455, 0.9920000471174717, 0.0, 0.0, 0.0, 0.0, 0.0, 1.7054302155367732E9, 0.0, 2024-01-16 13:36:55.536
51.0, 13.643155038356781, -43.32300108671188, -55.769388139247894, 409.29465115070343, 0.06400000303983688, -0.09600000455975533, 0.9920000471174717, 0.0, 0.0, 0.0, 0.0, 0.0, 1.7054302155525272E9, 0.0, 2024-01-16 13:36:55.552
51.0, 53.1364985704422, -9.095436692237854, -30.876614034175873, 460.27696734666824, 0.06400000303983688, -0.09600000455975533, 0.9920000471174717, 0.0, 0.0, 0.0, 0.0, 0.0, 1.7054302155525272E9, 0.0, 2024-01-16 13:36:55.552
52.0, -57.92357051372528, -167.30816441774368, -149.59599822759628, 336.0524504184723, 0.06400000303983688, -0.09600000455975533, 0.9920000471174717, 0.0, 0.0, 0.0, 0.0, 0.0, 1.7054302155532513E9, 0.0, 2024-01-16 13:36:55.553
52.0, -41.1688187122345, -113.21425145864487, -104.35816836357117, 357.59427416324615, 0.06400000303983688, -0.09600000455975533, 0.9920000471174717, 0.0, 0.0, 0.0, 0.0, 0.0, 1.7054302155532513E9, 0.0, 2024-01-16 13:36:55.553
53.0, 59.359692096710205, 14.361215829849243, -20.58440935611725, 459.0801993608475, 0.06400000303983688, -0.09600000455975533, 0.9920000471174717, 0.0, 0.0, 0.0, 0.0, 0.0, 1.7054302155667987E9, 0.0, 2024-01-16 13:36:55.566
53.0, -33.74885720014572, -135.71348959207535, -127.0967600941658, 361.4239317178726, 0.06400000303983688, -0.09600000455975533, 0.9920000471174717, 0.0, 0.0, 0.0, 0.0, 0.0, 1.7054302155667987E9, 0.0, 2024-01-16 13:36:55.566
54.0, -69.17318958044052, -157.49466693401337, -141.45797592401505, 324.5634777545929, 0.06400000303983688, -0.09600000455975533, 0.9920000471174717, 0.0, 0.0, 0.0, 0.0, 0.0, 1.7054302155826795E9, 0.0, 2024-01-16 13:36:55.582
54.0, 52.41843777894974, 14.600569427013397, -10.292204678058624, 464.34597849845886, 0.06400000303983688, -0.09600000455975533, 0.9920000471174717, 0.0, 0.0, 0.0, 0.0, 0.0, 1.7054302155826795E9, 0.0, 2024-01-16 13:36:55.582
55.0, 15.079276621341705, -69.41254317760468, -83.53440541028976, 408.8159439563751, 0.06400000303983688, -0.09600000455975533, 0.9920000471174717, 0.0, 0.0, 0.0, 0.0, 0.0, 1.705430215583244E9, 0.0, 2024-01-16 13:36:55.583
55.0, -83.29505181312561, -180.95131945610046, -157.01595973968506, 316.6648090481758, 0.06400000303983688, -0.09600000455975533, 0.9920000471174717, 0.0, 0.0, 0.0, 0.0, 0.0, 1.705430215583244E9, 0.0, 2024-01-16 13:36:55.583
56.0, 2.8722431659698486, -42.844293892383575, -56.00874173641205, 410.0127119421959, 0.06400000303983688, -0.09600000455975533, 0.9920000471174717, 0.0, 0.0, 0.0, 0.0, 0.0, 1.7054302155971208E9, 0.0, 2024-01-16 13:36:55.597
56.0, 46.434597849845886, -15.079276621341705, -39.49334353208542, 452.138945043087, 0.06400000303983688, -0.09600000455975533, 0.9920000471174717, 0.0, 0.0, 0.0, 0.0, 0.0, 1.7054302155971208E9, 0.0, 2024-01-16 13:36:55.597
57.0, -74.19961512088776, -180.95131945610046, -168.50493240356445, 310.9203227162361, 0.06400000303983688, -0.09600000455975533, 0.9920000471174717, 0.0, 0.0, 0.0, 0.0, 0.0, 1.7054302156124961E9, 0.0, 2024-01-16 13:36:55.612
57.0, -46.67395144701004, -114.65037304162979, -111.77812987565994, 345.8659479022026, 0.06400000303983688, -0.09600000455975533, 0.9920000471174717, 0.0, 0.0, 0.0, 0.0, 0.0, 1.7054302156124961E9, 0.0, 2024-01-16 13:36:55.612
58.0, 54.33326655626297, 5.983839929103851, -33.27015000581741, 448.78799468278885, 0.06400000303983688, -0.09600000455975533, 0.9920000471174717, 0.0, 0.0, 0.0, 0.0, 0.0, 1.7054302156132495E9, 0.0, 2024-01-16 13:36:55.613
58.0, -33.74885720014572, -136.67090398073196, -132.12318563461304, 356.3975061774254, 0.06400000303983688, -0.09600000455975533, 0.9920000471174717, 0.0, 0.0, 0.0, 0.0, 0.0, 1.7054302156132495E9, 0.0, 2024-01-16 13:36:55.613
59.0, -80.90151584148407, -164.675274848938, -147.9205230474472, 318.8189914226532, 0.06400000303983688, -0.09600000455975533, 0.9920000471174717, 0.0, 0.0, 0.0, 0.0, 0.0, 1.7054302156268668E9, 0.0, 2024-01-16 13:36:55.626
59.0, 46.434597849845886, 8.616729497909546, -14.361215829849243, 448.78799468278885, 0.06400000303983688, -0.09600000455975533, 0.9920000471174717, 0.0, 0.0, 0.0, 0.0, 0.0, 1.7054302156268668E9, 0.0, 2024-01-16 13:36:55.626
60.0, 14.361215829849243, -71.08801835775375, -87.84277015924454, 399.4811536669731, 0.06400000303983688, -0.09600000455975533, 0.9920000471174717, 0.0, 0.0, 0.0, 0.0, 0.0, 1.7054302156427932E9, 0.0, 2024-01-16 13:36:55.642
60.0, -77.0718582868576, -185.25968420505524, -161.32432448863983, 306.8513115644455, 0.06400000303983688, -0.09600000455975533, 0.9920000471174717, 0.0, 0.0, 0.0, 0.0, 0.0, 1.7054302156427932E9, 0.0, 2024-01-16 13:36:55.642
61.0, 10.770911872386932, -39.253989934921265, -52.897144973278046, 410.0127119421959, 0.06400000303983688, -0.11200000531971455, 0.9920000471174717, 0.0, 0.0, 0.0, 0.0, 0.0, 1.7054302156433585E9, 0.0, 2024-01-16 13:36:55.643
61.0, 53.85455936193466, -9.095436692237854, -37.33916115760803, 455.7292490005493, 0.06400000303983688, -0.11200000531971455, 0.9920000471174717, 0.0, 0.0, 0.0, 0.0, 0.0, 1.7054302156433585E9, 0.0, 2024-01-16 13:36:55.643
62.0, -61.27452087402344, -168.02622520923615, -153.1863021850586, 335.3343896269798, 0.0800000037997961, -0.11200000531971455, 0.9920000471174717, 0.0, 0.0, 0.0, 0.0, 0.0, 1.7054302156574457E9, 0.0, 2024-01-16 13:36:55.657
62.0, -33.50950360298157, -96.93820685148239, -94.3053172826767, 366.689710855484, 0.0800000037997961, -0.11200000531971455, 0.9920000471174717, 0.0, 0.0, 0.0, 0.0, 0.0, 1.7054302156574457E9, 0.0, 2024-01-16 13:36:55.657
63.0, 61.51387447118759, 15.557983815670013, -15.557983815670013, 465.7821000814438, 0.0800000037997961, -0.11200000531971455, 0.9920000471174717, 0.0, 0.0, 0.0, 0.0, 0.0, 1.7054302156725209E9, 0.0, 2024-01-16 13:36:55.672
63.0, -30.63726043701172, -129.49029606580734, -123.74580973386765, 374.1096723675728, 0.0800000037997961, -0.11200000531971455, 0.9920000471174717, 0.0, 0.0, 0.0, 0.0, 0.0, 1.7054302156725209E9, 0.0, 2024-01-16 13:36:55.672
64.0, -77.55056548118591, -158.9307885169983, -140.50056153535843, 334.61632883548737, 0.0800000037997961, -0.11200000531971455, 0.9920000471174717, 0.0, 0.0, 0.0, 0.0, 0.0, 1.7054302156732442E9, 0.0, 2024-01-16 13:36:55.673
64.0, 36.860453963279724, -5.026425540447235, -22.259884536266327, 451.6602378487587, 0.0800000037997961, -0.11200000531971455, 0.9920000471174717, 0.0, 0.0, 0.0, 0.0, 0.0, 1.7054302156732442E9, 0.0, 2024-01-16 13:36:55.673
65.0, 4.069011151790619, -81.61957663297653, -93.10854929685593, 407.61917597055435, 0.0800000037997961, -0.11200000531971455, 0.9920000471174717, 0.0, 0.0, 0.0, 0.0, 0.0, 1.7054302156870553E9, 0.0, 2024-01-16 13:36:55.687
65.0, -95.74143886566162, -195.79124248027802, -171.8558827638626, 306.3726043701172, 0.0800000037997961, -0.11200000531971455, 0.9920000471174717, 0.0, 0.0, 0.0, 0.0, 0.0, 1.7054302156870553E9, 0.0, 2024-01-16 13:36:55.687
66.0, -4.308364748954773, -48.82813382148743, -60.556460082530975, 402.35339683294296, 0.0800000037997961, -0.11200000531971455, 0.9920000471174717, 0.0, 0.0, 0.0, 0.0, 0.0, 1.7054302157033992E9, 0.0, 2024-01-16 13:36:55.703
66.0, 30.15855324268341, -32.3127356171608, -56.2480953335762, 435.86290043592453, 0.0800000037997961, -0.11200000531971455, 0.9920000471174717, 0.0, 0.0, 0.0, 0.0, 0.0, 1.7054302157033992E9, 0.0, 2024-01-16 13:36:55.703
67.0, -80.42280864715576, -194.3551208972931, -169.46234679222107, 312.1170907020569, 0.0800000037997961, -0.11200000531971455, 0.9920000471174717, 0.0, 0.0, 0.0, 0.0, 0.0, 1.705430215703894E9, 0.0, 2024-01-16 13:36:55.703
67.0, -47.3920122385025, -112.0174834728241, -109.86330109834671, 349.9349590539932, 0.0800000037997961, -0.11200000531971455, 0.9920000471174717, 0.0, 0.0, 0.0, 0.0, 0.0, 1.705430215703894E9, 0.0, 2024-01-16 13:36:55.703
68.0, 51.46102339029312, 4.787071943283081, -27.525663673877716, 456.4473097920418, 0.0800000037997961, -0.11200000531971455, 0.9920000471174717, 0.0, 0.0, 0.0, 0.0, 0.0, 1.7054302157169898E9, 0.0, 2024-01-16 13:36:55.716
68.0, -36.62110036611557, -138.1070255637169, -129.7296496629715, 361.6632853150368, 0.0800000037997961, -0.11200000531971455, 0.9920000471174717, 0.0, 0.0, 0.0, 0.0, 0.0, 1.7054302157169898E9, 0.0, 2024-01-16 13:36:55.716
69.0, -80.42280864715576, -163.23915326595306, -151.0321198105812, 310.20226192474365, 0.0800000037997961, -0.11200000531971455, 0.9920000471174717, 0.0, 0.0, 0.0, 0.0, 0.0, 1.7054302157324798E9, 0.0, 2024-01-16 13:36:55.732
69.0, 39.73269712924957, -0.4787071943283081, -43.56235468387604, 415.7571982741356, 0.0800000037997961, -0.11200000531971455, 0.9920000471174717, 0.0, 0.0, 0.0, 0.0, 0.0, 1.7054302157324798E9, 0.0, 2024-01-16 13:36:55.732
70.0, 12.44638705253601, -67.97642159461975, -78.74733346700668, 426.28875654935837, 0.0800000037997961, -0.11200000531971455, 0.9920000471174717, 0.0, 0.0, 0.0, 0.0, 0.0, 1.7054302157331984E9, 0.0, 2024-01-16 13:36:55.733
70.0, -80.42280864715576, -182.8661482334137, -151.27147340774536, 329.58990329504013, 0.0800000037997961, -0.11200000531971455, 0.9920000471174717, 0.0, 0.0, 0.0, 0.0, 0.0, 1.7054302157331984E9, 0.0, 2024-01-16 13:36:55.733
71.0, 4.069011151790619, -44.75912266969681, -56.2480953335762, 407.14046877622604, 0.0800000037997961, -0.11200000531971455, 0.9920000471174717, 0.0, 0.0, 0.0, 0.0, 0.0, 1.7054302157468457E9, 0.0, 2024-01-16 13:36:55.746
71.0, 46.913305044174194, -17.233458995819092, -40.92946511507034, 454.53248101472855, 0.0800000037997961, -0.11200000531971455, 0.9920000471174717, 0.0, 0.0, 0.0, 0.0, 0.0, 1.7054302157468457E9, 0.0, 2024-01-16 13:36:55.746
72.0, -74.19961512088776, -181.19067305326462, -169.22299319505692, 311.87773710489273, 0.0800000037997961, -0.11200000531971455, 0.9920000471174717, 0.0, 0.0, 0.0, 0.0, 0.0, 1.7054302157633247E9, 0.0, 2024-01-16 13:36:55.763
72.0, -50.0249018073082, -111.29942268133163, -108.9058867096901, 346.3446550965309, 0.0800000037997961, -0.11200000531971455, 0.9920000471174717, 0.0, 0.0, 0.0, 0.0, 0.0, 1.7054302157633247E9, 0.0, 2024-01-16 13:36:55.763
73.0, 52.41843777894974, 6.223193526268005, -17.472812592983246, 461.473735332489, 0.0800000037997961, -0.11200000531971455, 0.9920000471174717, 0.0, 0.0, 0.0, 0.0, 0.0, 1.7054302157775753E9, 0.0, 2024-01-16 13:36:55.777
73.0, -34.22756439447403, -133.55930721759796, -130.92641764879227, 358.55168855190277, 0.0800000037997961, -0.11200000531971455, 0.9920000471174717, 0.0, 0.0, 0.0, 0.0, 0.0, 1.7054302157775753E9, 0.0, 2024-01-16 13:36:55.777
74.0, -76.35379749536514, -161.80303168296814, -143.13345110416412, 322.8880025744438, 0.0800000037997961, -0.11200000531971455, 0.9920000471174717, 0.0, 0.0, 0.0, 0.0, 0.0, 1.7054302157782516E9, 0.0, 2024-01-16 13:36:55.778
74.0, 40.450757920742035, 2.6328895688056946, -13.643155038356781, 460.0376137495041, 0.0800000037997961, -0.11200000531971455, 0.9920000471174717, 0.0, 0.0, 0.0, 0.0, 0.0, 1.7054302157782516E9, 0.0, 2024-01-16 13:36:55.778
75.0, 1.4361215829849243, -83.05569821596146, -85.449234187603, 404.02887201309204, 0.0800000037997961, -0.11200000531971455, 0.9920000471174717, 0.0, 0.0, 0.0, 0.0, 0.0, 1.7054302157926197E9, 0.0, 2024-01-16 13:36:55.792
75.0, -100.76786440610886, -206.08344715833664, -168.50493240356445, 297.75587487220764, 0.0800000037997961, -0.11200000531971455, 0.9920000471174717, 0.0, 0.0, 0.0, 0.0, 0.0, 1.7054302157926197E9, 0.0, 2024-01-16 13:36:55.792
76.0, -16.276044607162476, -63.18934965133667, -78.98668706417084, 366.689710855484, 0.0800000037997961, -0.11200000531971455, 0.9920000471174717, 0.0, 0.0, 0.0, 0.0, 0.0, 1.7054302157933412E9, 0.0, 2024-01-16 13:36:55.793
76.0, 37.81786835193634, -30.876614034175873, -49.306841015815735, 446.15510511398315, 0.0800000037997961, -0.11200000531971455, 0.9920000471174717, 0.0, 0.0, 0.0, 0.0, 0.0, 1.7054302157933412E9, 0.0, 2024-01-16 13:36:55.793
77.0, -74.19961512088776, -188.6106345653534, -162.28173887729645, 344.908533513546, 0.0800000037997961, -0.11200000531971455, 0.9920000471174717, 0.0, 0.0, 0.0, 0.0, 0.0, 1.7054302158073075E9, 0.0, 2024-01-16 13:36:55.807
77.0, -56.2480953335762, -120.39485937356949, -113.93231225013733, 337.72792559862137, 0.0800000037997961, -0.11200000531971455, 0.9920000471174717, 0.0, 0.0, 0.0, 0.0, 0.0, 1.7054302158073075E9, 0.0, 2024-01-16 13:36:55.807
78.0, 61.03516727685928, 13.882508635520935, -17.7121661901474, 468.1756360530853, 0.0800000037997961, -0.11200000531971455, 0.9920000471174717, 0.0, 0.0, 0.0, 0.0, 0.0, 1.7054302158227603E9, 0.0, 2024-01-16 13:36:55.822
78.0, -42.844293892383575, -142.41539031267166, -130.2083568572998, 372.912904381752, 0.0800000037997961, -0.11200000531971455, 0.9920000471174717, 0.0, 0.0, 0.0, 0.0, 0.0, 1.7054302158227603E9, 0.0, 2024-01-16 13:36:55.822
79.0, -89.27889174222946, -180.233258664608, -156.53725254535675, 312.5957978963852, 0.0800000037997961, -0.11200000531971455, 0.9920000471174717, 0.0, 0.0, 0.0, 0.0, 0.0, 1.7054302158232825E9, 0.0, 2024-01-16 13:36:55.823
79.0, 30.15855324268341, -11.24961906671524, -34.70627158880234, 441.6073867678642, 0.0800000037997961, -0.11200000531971455, 0.9920000471174717, 0.0, 0.0, 0.0, 0.0, 0.0, 1.7054302158232825E9, 0.0, 2024-01-16 13:36:55.823
80.0, 5.744486331939697, -84.01311260461807, -88.560830950737, 398.76309287548065, 0.0800000037997961, -0.11200000531971455, 0.9920000471174717, 0.0, 0.0, 0.0, 0.0, 0.0, 1.7054302158368504E9, 0.0, 2024-01-16 13:36:55.836
80.0, -90.23630613088608, -190.76481693983078, -169.94105398654938, 304.2184219956398, 0.0800000037997961, -0.11200000531971455, 0.9920000471174717, 0.0, 0.0, 0.0, 0.0, 0.0, 1.7054302158368504E9, 0.0, 2024-01-16 13:36:55.836
81.0, 0.4787071943283081, -45.95589065551758, -64.86482483148575, 408.09788316488266, 0.0800000037997961, -0.11200000531971455, 0.9920000471174717, 0.0, 0.0, 0.0, 0.0, 0.0, 1.7054302158525023E9, 0.0, 2024-01-16 13:36:55.852
81.0, 42.36558669805527, -23.935359716415405, -48.82813382148743, 444.4796299338341, 0.0800000037997961, -0.11200000531971455, 0.9920000471174717, 0.0, 0.0, 0.0, 0.0, 0.0, 1.7054302158525023E9, 0.0, 2024-01-16 13:36:55.852
82.0, -76.83250468969345, -185.9777449965477, -168.98363959789276, 320.9731737971306, 0.0800000037997961, -0.11200000531971455, 0.9920000471174717, 0.0, 0.0, 0.0, 0.0, 0.0, 1.7054302158532104E9, 0.0, 2024-01-16 13:36:55.853
82.0, -44.519769072532654, -110.10265469551086, -107.46976512670517, 350.41366624832153, 0.0800000037997961, -0.11200000531971455, 0.9920000471174717, 0.0, 0.0, 0.0, 0.0, 0.0, 1.7054302158532104E9, 0.0, 2024-01-16 13:36:55.853
83.0, 48.110073029994965, -4.308364748954773, -40.92946511507034, 434.4267788529396, 0.0800000037997961, -0.11200000531971455, 0.9920000471174717, 0.0, 0.0, 0.0, 0.0, 0.0, 1.705430215866814E9, 0.0, 2024-01-16 13:36:55.866
83.0, -47.63136583566666, -150.31405901908875, -145.52698707580566, 346.10530149936676, 0.0800000037997961, -0.11200000531971455, 0.9920000471174717, 0.0, 0.0, 0.0, 0.0, 0.0, 1.705430215866814E9, 0.0, 2024-01-16 13:36:55.866
84.0, -94.3053172826767, -180.233258664608, -158.21272772550583, 313.0745050907135, 0.0800000037997961, -0.11200000531971455, 0.9920000471174717, 0.0, 0.0, 0.0, 0.0, 0.0, 1.7054302158828917E9, 0.0, 2024-01-16 13:36:55.882
84.0, 29.201138854026794, -12.685740649700165, -45.237829864025116, 430.11841410398483, 0.0800000037997961, -0.11200000531971455, 0.9920000471174717, 0.0, 0.0, 0.0, 0.0, 0.0, 1.7054302158828917E9, 0.0, 2024-01-16 13:36:55.882
85.0, -3.1115967631340027, -92.62984210252762, -111.53877627849579, 381.2902802824974, 0.0800000037997961, -0.11200000531971455, 0.9920000471174717, 0.0, 0.0, 0.0, 0.0, 0.0, 1.7054302158833547E9, 0.0, 2024-01-16 13:36:55.883
85.0, -105.07622915506363, -207.51956874132156, -188.13192737102509, 292.49009573459625, 0.0800000037997961, -0.11200000531971455, 0.9920000471174717, 0.0, 0.0, 0.0, 0.0, 0.0, 1.7054302158833547E9, 0.0, 2024-01-16 13:36:55.883
86.0, -11.010265469551086, -60.07775288820267, -75.63573670387268, 396.8482640981674, 0.0800000037997961, -0.11200000531971455, 0.9920000471174717, 0.0, 0.0, 0.0, 0.0, 0.0, 1.7054302159132404E9, 0.0, 2024-01-16 13:36:55.913
86.0, 42.36558669805527, -30.397906839847565, -53.61520576477051, 439.2138507962227, 0.0800000037997961, -0.11200000531971455, 0.9920000471174717, 0.0, 0.0, 0.0, 0.0, 0.0, 1.7054302159132404E9, 0.0, 2024-01-16 13:36:55.913
87.0, -80.18345504999161, -192.91899931430817, -179.51519787311554, 307.56937235593796, 0.0800000037997961, -0.11200000531971455, 0.9920000471174717, 0.0, 0.0, 0.0, 0.0, 0.0, 1.7054302159139528E9, 0.0, 2024-01-16 13:36:55.913
87.0, -51.46102339029312, -119.67679858207703, -111.53877627849579, 349.9349590539932, 0.0800000037997961, -0.11200000531971455, 0.9920000471174717, 0.0, 0.0, 0.0, 0.0, 0.0, 1.7054302159139528E9, 0.0, 2024-01-16 13:36:55.913
88.0, 46.67395144701004, 2.6328895688056946, -33.03079640865326, 449.5060554742813, 0.0800000037997961, -0.11200000531971455, 0.9920000471174717, 0.0, 0.0, 0.0, 0.0, 0.0, 1.705430215914921E9, 0.0, 2024-01-16 13:36:55.914
88.0, -41.40817230939865, -146.00569427013397, -146.72375506162643, 352.32849502563477, 0.0800000037997961, -0.11200000531971455, 0.9920000471174717, 0.0, 0.0, 0.0, 0.0, 0.0, 1.705430215914921E9, 0.0, 2024-01-16 13:36:55.914
89.0, -82.8163446187973, -170.18040758371353, -156.05854535102844, 318.10093063116074, 0.0800000037997961, -0.11200000531971455, 0.9920000471174717, 0.0, 0.0, 0.0, 0.0, 0.0, 1.7054302159268692E9, 0.0, 2024-01-16 13:36:55.926
89.0, 40.450757920742035, -0.7180607914924622, -33.27015000581741, 442.56480115652084, 0.0800000037997961, -0.11200000531971455, 0.9920000471174717, 0.0, 0.0, 0.0, 0.0, 0.0, 1.7054302159268692E9, 0.0, 2024-01-16 13:36:55.926
90.0, 9.095436692237854, -82.09828382730484, -96.22014605998993, 400.1992144584656, 0.0800000037997961, -0.11200000531971455, 0.9920000471174717, 0.0, 0.0, 0.0, 0.0, 0.0, 1.7054302159425056E9, 0.0, 2024-01-16 13:36:55.942
90.0, -84.73117339611053, -188.6106345653534, -166.1113964319229, 300.86747163534164, 0.0800000037997961, -0.11200000531971455, 0.9920000471174717, 0.0, 0.0, 0.0, 0.0, 0.0, 1.7054302159425056E9, 0.0, 2024-01-16 13:36:55.942
91.0, 7.419961512088776, -41.647525906562805, -50.26425540447235, 418.62944144010544, 0.0800000037997961, -0.09600000455975533, 0.9920000471174717, 0.0, 0.0, 0.0, 0.0, 0.0, 1.7054302159432633E9, 0.0, 2024-01-16 13:36:55.943
91.0, 43.32300108671188, -23.69600611925125, -46.19524425268173, 452.85700583457947, 0.0800000037997961, -0.09600000455975533, 0.9920000471174717, 0.0, 0.0, 0.0, 0.0, 0.0, 1.7054302159432633E9, 0.0, 2024-01-16 13:36:55.943
92.0, -68.93383598327637, -179.7545514702797, -161.56367808580399, 322.16994178295135, 0.0800000037997961, -0.09600000455975533, 0.9920000471174717, 0.0, 0.0, 0.0, 0.0, 0.0, 1.7054302159568553E9, 0.0, 2024-01-16 13:36:55.956
92.0, -47.3920122385025, -109.62394750118256, -108.42717951536179, 359.0303957462311, 0.0800000037997961, -0.09600000455975533, 0.9920000471174717, 0.0, 0.0, 0.0, 0.0, 0.0, 1.7054302159568553E9, 0.0, 2024-01-16 13:36:55.956
93.0, 53.85455936193466, 4.787071943283081, -32.791442811489105, 457.8834313750267, 0.0800000037997961, -0.09600000455975533, 0.9920000471174717, 0.0, 0.0, 0.0, 0.0, 0.0, 1.7054302159726975E9, 0.0, 2024-01-16 13:36:55.972
93.0, -42.844293892383575, -141.93668311834335, -144.09086549282074, 337.24921840429306, 0.0800000037997961, -0.09600000455975533, 0.9920000471174717, 0.0, 0.0, 0.0, 0.0, 0.0, 1.7054302159726975E9, 0.0, 2024-01-16 13:36:55.972
94.0, -81.85893023014069, -166.1113964319229, -148.3992302417755, 309.24484753608704, 0.0800000037997961, -0.09600000455975533, 0.9920000471174717, 0.0, 0.0, 0.0, 0.0, 0.0, 1.7054302159733396E9, 0.0, 2024-01-16 13:36:55.973
94.0, 35.184978783130646, -6.9412543177604675, -29.679846048355103, 443.7615691423416, 0.0800000037997961, -0.09600000455975533, 0.9920000471174717, 0.0, 0.0, 0.0, 0.0, 0.0, 1.7054302159733396E9, 0.0, 2024-01-16 13:36:55.973
95.0, -4.547718346118927, -92.62984210252762, -96.69885325431824, 406.1830543875694, 0.0800000037997961, -0.09600000455975533, 0.9920000471174717, 0.0, 0.0, 0.0, 0.0, 0.0, 1.7054302159868338E9, 0.0, 2024-01-16 13:36:55.986
95.0, -102.68269318342209, -209.9131047129631, -182.14808744192123, 294.64427810907364, 0.0800000037997961, -0.09600000455975533, 0.9920000471174717, 0.0, 0.0, 0.0, 0.0, 0.0, 1.7054302159868338E9, 0.0, 2024-01-16 13:36:55.986
96.0, -4.308364748954773, -51.93973058462143, -70.13060396909714, 395.17278891801834, 0.0800000037997961, -0.09600000455975533, 0.9920000471174717, 0.0, 0.0, 0.0, 0.0, 0.0, 1.7054302160027683E9, 0.0, 2024-01-16 13:36:56.002
96.0, 10.292204678058624, -57.92357051372528, -82.337637424469, 409.29465115070343, 0.0800000037997961, -0.09600000455975533, 0.9920000471174717, 0.0, 0.0, 0.0, 0.0, 0.0, 1.7054302160027683E9, 0.0, 2024-01-16 13:36:56.002
97.0, -68.93383598327637, -175.92489391565323, -159.8882029056549, 334.8556824326515, 0.0800000037997961, -0.09600000455975533, 0.9920000471174717, 0.0, 0.0, 0.0, 0.0, 0.0, 1.7054302160032473E9, 0.0, 2024-01-16 13:36:56.003
97.0, -32.3127356171608, -97.89562124013901, -92.62984210252762, 370.2800148129463, 0.0800000037997961, -0.09600000455975533, 0.9920000471174717, 0.0, 0.0, 0.0, 0.0, 0.0, 1.7054302160032473E9, 0.0, 2024-01-16 13:36:56.003
98.0, 48.110073029994965, 6.223193526268005, -31.594674825668335, 458.8408457636833, 0.0800000037997961, -0.09600000455975533, 0.9920000471174717, 0.0, 0.0, 0.0, 0.0, 0.0, 1.7054302160169044E9, 0.0, 2024-01-16 13:36:56.016
98.0, -23.217298924922943, -115.84714102745056, -98.37432843446732, 401.39598244428635, 0.0800000037997961, -0.09600000455975533, 0.9920000471174717, 0.0, 0.0, 0.0, 0.0, 0.0, 1.7054302160169044E9, 0.0, 2024-01-16 13:36:56.016
99.0, -73.72090792655945, -149.11729103326797, -131.16577124595642, 345.3872407078743, 0.0800000037997961, -0.09600000455975533, 0.9920000471174717, 0.0, 0.0, 0.0, 0.0, 0.0, 1.7054302160317793E9, 0.0, 2024-01-16 13:36:56.031
99.0, 64.38611763715744, 42.36558669805527, 24.414066910743713, 497.3767749071121, 0.0800000037997961, -0.09600000455975533, 0.9920000471174717, 0.0, 0.0, 0.0, 0.0, 0.0, 1.7054302160317793E9, 0.0, 2024-01-16 13:36:56.031
0.0, -64.6254712343216, -147.9205230474472, -126.6180528998375, 359.5091029405594, 0.0800000037997961, -0.09600000455975533, 1.008000047877431, 0.0, 0.0, 0.0, 0.0, 0.0, 1.7054302160475163E9, 0.0, 2024-01-16 13:36:56.047
0.0, 12.685740649700165, -16.276044607162476, -30.876614034175873, 443.7615691423416, 0.0800000037997961, -0.09600000455975533, 1.008000047877431, 0.0, 0.0, 0.0, 0.0, 0.0, 1.7054302160475163E9, 0.0, 2024-01-16 13:36:56.047
1.0, 44.519769072532654, -2.3935359716415405, -27.286310076713562, 474.1594759821892, 0.0800000037997961, -0.09600000455975533, 1.008000047877431, 0.0, 0.0, 0.0, 0.0, 0.0, 1.7054302160482457E9, 0.0, 2024-01-16 13:36:56.048
1.0, -70.36995756626129, -164.91462844610214, -144.09086549282074, 352.0891414284706, 0.0800000037997961, -0.09600000455975533, 1.008000047877431, 0.0, 0.0, 0.0, 0.0, 0.0, 1.7054302160482457E9, 0.0, 2024-01-16 13:36:56.048
2.0, -41.647525906562805, -87.84277015924454, -79.22604066133499, 386.79541301727295, 0.0800000037997961, -0.09600000455975533, 1.008000047877431, 0.0, 0.0, 0.0, 0.0, 0.0, 1.705430216062078E9, 0.0, 2024-01-16 13:36:56.062
2.0, 56.2480953335762, 22.259884536266327, -10.531558275222778, 482.7762054800987, 0.0800000037997961, -0.09600000455975533, 1.008000047877431, 0.0, 0.0, 0.0, 0.0, 0.0, 1.705430216062078E9, 0.0, 2024-01-16 13:36:56.062
3.0, -36.381746768951416, -126.6180528998375, -118.48003059625626, 386.31670582294464, 0.0800000037997961, -0.09600000455975533, 1.008000047877431, 0.0, 0.0, 0.0, 0.0, 0.0, 1.7054302160775783E9, 0.0, 2024-01-16 13:36:56.077
3.0, -82.57699102163315, -154.1437165737152, -139.78250074386597, 337.9672791957855, 0.0800000037997961, -0.09600000455975533, 1.008000047877431, 0.0, 0.0, 0.0, 0.0, 0.0, 1.7054302160775783E9, 0.0, 2024-01-16 13:36:56.077
4.0, 38.057221949100494, 10.531558275222778, -15.31863021850586, 460.9950281381607, 0.0800000037997961, -0.09600000455975533, 1.008000047877431, 0.0, 0.0, 0.0, 0.0, 0.0, 1.7054302160783553E9, 0.0, 2024-01-16 13:36:56.078
4.0, 7.180607914924622, -68.69448238611221, -73.24220073223114, 428.44293892383575, 0.0800000037997961, -0.09600000455975533, 1.008000047877431, 0.0, 0.0, 0.0, 0.0, 0.0, 1.7054302160783553E9, 0.0, 2024-01-16 13:36:56.078
5.0, -86.64600217342377, -171.3771755695343, -143.85151189565659, 339.6427543759346, 0.0800000037997961, -0.09600000455975533, 1.008000047877431, 0.0, 0.0, 0.0, 0.0, 0.0, 1.7054302160917804E9, 0.0, 2024-01-16 13:36:56.091
5.0, 1.6754751801490784, -27.525663673877716, -43.56235468387604, 426.5281101465225, 0.0800000037997961, -0.09600000455975533, 1.008000047877431, 0.0, 0.0, 0.0, 0.0, 0.0, 1.7054302160917804E9, 0.0, 2024-01-16 13:36:56.091
6.0, 43.08364748954773, -8.616729497909546, -29.679846048355103, 469.13305044174194, 0.0800000037997961, -0.09600000455975533, 1.008000047877431, 0.0, 0.0, 0.0, 0.0, 0.0, 1.7054302161075675E9, 0.0, 2024-01-16 13:36:56.107
6.0, -68.45512878894806, -163.71786046028137, -140.73991513252258, 355.9187989830971, 0.0800000037997961, -0.09600000455975533, 1.008000047877431, 0.0, 0.0, 0.0, 0.0, 0.0, 1.7054302161075675E9, 0.0, 2024-01-16 13:36:56.107
7.0, -39.73269712924957, -90.23630613088608, -84.97052699327469, 385.83799862861633, 0.0800000037997961, -0.09600000455975533, 1.008000047877431, 0.0, 0.0, 0.0, 0.0, 0.0, 1.7054302161082537E9, 0.0, 2024-01-16 13:36:56.108
7.0, 57.44486331939697, 21.78117734193802, -11.24961906671524, 484.21232706308365, 0.0800000037997961, -0.09600000455975533, 1.008000047877431, 0.0, 0.0, 0.0, 0.0, 0.0, 1.7054302161082537E9, 0.0, 2024-01-16 13:36:56.108
8.0, -41.1688187122345, -134.99542880058289, -118.48003059625626, 376.5032083392143, 0.0800000037997961, -0.09600000455975533, 1.008000047877431, 0.0, 0.0, 0.0, 0.0, 0.0, 1.7054302161219108E9, 0.0, 2024-01-16 13:36:56.121
8.0, -76.11444389820099, -150.31405901908875, -120.15550577640533, 350.1743126511574, 0.0800000037997961, -0.09600000455975533, 1.008000047877431, 0.0, 0.0, 0.0, 0.0, 0.0, 1.7054302161219108E9, 0.0, 2024-01-16 13:36:56.121
9.0, 42.36558669805527, 13.164447844028473, -5.026425540447235, 476.0743047595024, 0.0800000037997961, -0.09600000455975533, 1.008000047877431, 0.0, 0.0, 0.0, 0.0, 0.0, 1.7054302161375813E9, 0.0, 2024-01-16 13:36:56.137
9.0, 12.207033455371857, -66.06159281730652, -71.56672555208206, 437.0596684217453, 0.0800000037997961, -0.09600000455975533, 1.008000047877431, 0.0, 0.0, 0.0, 0.0, 0.0, 1.7054302161375813E9, 0.0, 2024-01-16 13:36:56.137
10.0, -92.86919569969177, -180.95131945610046, -156.05854535102844, 330.3079640865326, 0.0800000037997961, -0.09600000455975533, 1.008000047877431, 0.0, 0.0, 0.0, 0.0, 0.0, 1.7054302161383383E9, 0.0, 2024-01-16 13:36:56.138
10.0, -2.3935359716415405, -39.73269712924957, -52.41843777894974, 413.1243087053299, 0.0800000037997961, -0.09600000455975533, 1.008000047877431, 0.0, 0.0, 0.0, 0.0, 0.0, 1.7054302161383383E9, 0.0, 2024-01-16 13:36:56.138
11.0, 42.844293892383575, -16.754751801490784, -41.647525906562805, 460.5163209438324, 0.0800000037997961, -0.09600000455975533, 1.008000047877431, 0.0, 0.0, 0.0, 0.0, 0.0, 1.7054302161517787E9, 0.0, 2024-01-16 13:36:56.151
11.0, -71.80607914924622, -175.44618672132492, -152.22888779640198, 349.4562518596649, 0.0800000037997961, -0.09600000455975533, 1.008000047877431, 0.0, 0.0, 0.0, 0.0, 0.0, 1.7054302161517787E9, 0.0, 2024-01-16 13:36:56.151
12.0, -41.40817230939865, -99.57109642028809, -92.86919569969177, 372.19484359025955, 0.0800000037997961, -0.09600000455975533, 1.008000047877431, 0.0, 0.0, 0.0, 0.0, 0.0, 1.7054302161676912E9, 0.0, 2024-01-16 13:36:56.167
12.0, 54.093912959098816, 9.813497483730316, -20.823762953281403, 464.82468569278717, 0.0800000037997961, -0.09600000455975533, 1.008000047877431, 0.0, 0.0, 0.0, 0.0, 0.0, 1.7054302161676912E9, 0.0, 2024-01-16 13:36:56.167
13.0, -30.876614034175873, -129.2509424686432, -120.15550577640533, 388.7102417945862, 0.0800000037997961, -0.09600000455975533, 1.008000047877431, 0.0, 0.0, 0.0, 0.0, 0.0, 1.705430216168247E9, 0.0, 2024-01-16 13:36:56.168
13.0, -71.80607914924622, -150.5534126162529, -128.29352807998657, 354.00397020578384, 0.0800000037997961, -0.09600000455975533, 1.008000047877431, 0.0, 0.0, 0.0, 0.0, 0.0, 1.705430216168247E9, 0.0, 2024-01-16 13:36:56.168
14.0, 44.75912266969681, 8.8560830950737, -11.967679858207703, 465.3033928871155, 0.0800000037997961, -0.09600000455975533, 1.008000047877431, 0.0, 0.0, 0.0, 0.0, 0.0, 1.7054302161818492E9, 0.0, 2024-01-16 13:36:56.181
14.0, 11.967679858207703, -73.24220073223114, -84.97052699327469, 416.2359054684639, 0.0800000037997961, -0.09600000455975533, 1.008000047877431, 0.0, 0.0, 0.0, 0.0, 0.0, 1.7054302161818492E9, 0.0, 2024-01-16 13:36:56.181
15.0, -86.64600217342377, -184.30226981639862, -159.64884930849075, 320.4944666028023, 0.0800000037997961, -0.09600000455975533, 1.008000047877431, 0.0, 0.0, 0.0, 0.0, 0.0, 1.7054302161978788E9, 0.0, 2024-01-16 13:36:56.197
15.0, 6.223193526268005, -32.791442811489105, -41.40817230939865, 429.6397069096565, 0.0800000037997961, -0.09600000455975533, 1.008000047877431, 0.0, 0.0, 0.0, 0.0, 0.0, 1.7054302161978788E9, 0.0, 2024-01-16 13:36:56.197
16.0, 48.110073029994965, -7.419961512088776, -29.919199645519257, 476.31365835666656, 0.0800000037997961, -0.09600000455975533, 1.008000047877431, 0.0, 0.0, 0.0, 0.0, 0.0, 1.7054302161983922E9, 0.0, 2024-01-16 13:36:56.198
16.0, -66.54030001163483, -171.13782197237015, -143.61215829849243, 344.66917991638184, 0.0800000037997961, -0.09600000455975533, 1.008000047877431, 0.0, 0.0, 0.0, 0.0, 0.0, 1.7054302161983922E9, 0.0, 2024-01-16 13:36:56.198
17.0, -34.466917991638184, -93.10854929685593, -83.05569821596146, 393.49731373786926, 0.0800000037997961, -0.09600000455975533, 1.008000047877431, 0.0, 0.0, 0.0, 0.0, 0.0, 1.7054302162118616E9, 0.0, 2024-01-16 13:36:56.211
17.0, 67.01900720596313, 27.76501727104187, 0.7180607914924622, 500.4883716702461, 0.0800000037997961, -0.09600000455975533, 1.008000047877431, 0.0, 0.0, 0.0, 0.0, 0.0, 1.7054302162118616E9, 0.0, 2024-01-16 13:36:56.211
18.0, -29.679846048355103, -123.9851633310318, -117.52261620759964, 375.78514754772186, 0.0800000037997961, -0.09600000455975533, 1.008000047877431, 0.0, 0.0, 0.0, 0.0, 0.0, 1.7054302162275715E9, 0.0, 2024-01-16 13:36:56.227
18.0, -68.2157751917839, -144.8089262843132, -122.07033455371857, 355.6794453859329, 0.0800000037997961, -0.09600000455975533, 1.008000047877431, 0.0, 0.0, 0.0, 0.0, 0.0, 1.7054302162275715E9, 0.0, 2024-01-16 13:36:56.227
19.0, 49.06748741865158, 14.600569427013397, -13.164447844028473, 469.61175763607025, 0.0800000037997961, -0.09600000455975533, 1.008000047877431, 0.0, 0.0, 0.0, 0.0, 0.0, 1.7054302162282462E9, 0.0, 2024-01-16 13:36:56.228
19.0, 12.925094246864319, -65.58288562297821, -80.90151584148407, 426.0494029521942, 0.0800000037997961, -0.09600000455975533, 1.008000047877431, 0.0, 0.0, 0.0, 0.0, 0.0, 1.7054302162282462E9, 0.0, 2024-01-16 13:36:56.228
20.0, -91.43307411670685, -180.7119658589363, -158.21272772550583, 325.0421849489212, 0.0800000037997961, -0.09600000455975533, 1.008000047877431, 0.0, 0.0, 0.0, 0.0, 0.0, 1.7054302162419949E9, 0.0, 2024-01-16 13:36:56.241
20.0, -1.6754751801490784, -34.94562518596649, -49.78554821014404, 426.0494029521942, 0.0800000037997961, -0.09600000455975533, 1.008000047877431, 0.0, 0.0, 0.0, 0.0, 0.0, 1.7054302162419949E9, 0.0, 2024-01-16 13:36:56.241
21.0, 40.450757920742035, -17.951519787311554, -46.67395144701004, 456.9260169863701, 0.0800000037997961, -0.11200000531971455, 1.008000047877431, 0.0, 0.0, 0.0, 0.0, 0.0, 1.7054302162579727E9, 0.0, 2024-01-16 13:36:56.257
21.0, -69.17318958044052, -174.4887723326683, -156.53725254535675, 336.0524504184723, 0.0800000037997961, -0.11200000531971455, 1.008000047877431, 0.0, 0.0, 0.0, 0.0, 0.0, 1.7054302162579727E9, 0.0, 2024-01-16 13:36:56.257
22.0, -47.3920122385025, -106.99105793237686, -97.89562124013901, 357.8336277604103, 0.0800000037997961, -0.11200000531971455, 1.008000047877431, 0.0, 0.0, 0.0, 0.0, 0.0, 1.7054302162584069E9, 0.0, 2024-01-16 13:36:56.258
22.0, 53.85455936193466, 13.403801441192627, -22.738591730594635, 463.38856410980225, 0.0800000037997961, -0.11200000531971455, 1.008000047877431, 0.0, 0.0, 0.0, 0.0, 0.0, 1.7054302162584069E9, 0.0, 2024-01-16 13:36:56.258
23.0, -36.14239317178726, -132.12318563461304, -128.77223527431488, 376.024501144886, 0.0800000037997961, -0.11200000531971455, 1.008000047877431, 0.0, 0.0, 0.0, 0.0, 0.0, 1.7054302162719383E9, 0.0, 2024-01-16 13:36:56.271
23.0, -81.85893023014069, -158.9307885169983, -141.6973295211792, 326.4783065319061, 0.0800000037997961, -0.11200000531971455, 1.008000047877431, 0.0, 0.0, 0.0, 0.0, 0.0, 1.7054302162719383E9, 0.0, 2024-01-16 13:36:56.271
24.0, 37.81786835193634, 9.574143886566162, -24.653420507907867, 457.8834313750267, 0.0800000037997961, -0.11200000531971455, 1.008000047877431, 0.0, 0.0, 0.0, 0.0, 0.0, 1.7054302162874987E9, 0.0, 2024-01-16 13:36:56.287
24.0, 3.590303957462311, -79.22604066133499, -86.88535577058792, 415.0391374826431, 0.0800000037997961, -0.11200000531971455, 1.008000047877431, 0.0, 0.0, 0.0, 0.0, 0.0, 1.7054302162874987E9, 0.0, 2024-01-16 13:36:56.287
25.0, -90.95436692237854, -185.02033060789108, -169.94105398654938, 296.3197532892227, 0.0800000037997961, -0.11200000531971455, 1.008000047877431, 0.0, 0.0, 0.0, 0.0, 0.0, 1.7054302162882454E9, 0.0, 2024-01-16 13:36:56.288
25.0, 3.829657554626465, -33.50950360298157, -47.3920122385025, 418.8687950372696, 0.0800000037997961, -0.11200000531971455, 1.008000047877431, 0.0, 0.0, 0.0, 0.0, 0.0, 1.7054302162882454E9, 0.0, 2024-01-16 13:36:56.288
26.0, 47.87071943283081, -5.744486331939697, -31.594674825668335, 472.24464720487595, 0.0800000037997961, -0.11200000531971455, 1.008000047877431, 0.0, 0.0, 0.0, 0.0, 0.0, 1.7054302163018425E9, 0.0, 2024-01-16 13:36:56.301
26.0, -82.8163446187973, -178.07907629013062, -160.84561729431152, 332.2227928638458, 0.0800000037997961, -0.11200000531971455, 1.008000047877431, 0.0, 0.0, 0.0, 0.0, 0.0, 1.7054302163018425E9, 0.0, 2024-01-16 13:36:56.301
27.0, -51.700376987457275, -107.94847232103348, -93.58725649118423, 368.12583243846893, 0.0800000037997961, -0.11200000531971455, 1.008000047877431, 0.0, 0.0, 0.0, 0.0, 0.0, 1.705430216317954E9, 0.0, 2024-01-16 13:36:56.317
27.0, 50.26425540447235, 7.65931510925293, -21.063116550445557, 474.1594759821892, 0.0800000037997961, -0.11200000531971455, 1.008000047877431, 0.0, 0.0, 0.0, 0.0, 0.0, 1.705430216317954E9, 0.0, 2024-01-16 13:36:56.317
28.0, -48.34942662715912, -142.65474390983582, -128.53288167715073, 374.34902596473694, 0.0800000037997961, -0.11200000531971455, 1.008000047877431, 0.0, 0.0, 0.0, 0.0, 0.0, 1.7054302163184583E9, 0.0, 2024-01-16 13:36:56.318
28.0, -85.9279413819313, -157.97337412834167, -141.2186223268509, 337.72792559862137, 0.0800000037997961, -0.11200000531971455, 1.008000047877431, 0.0, 0.0, 0.0, 0.0, 0.0, 1.7054302163184583E9, 0.0, 2024-01-16 13:36:56.318
29.0, 34.70627158880234, 1.6754751801490784, -15.31863021850586, 457.8834313750267, 0.0800000037997961, -0.11200000531971455, 1.008000047877431, 0.0, 0.0, 0.0, 0.0, 0.0, 1.7054302163320048E9, 0.0, 2024-01-16 13:36:56.332
29.0, -5.265779137611389, -85.9279413819313, -81.38022303581238, 425.5706957578659, 0.0800000037997961, -0.11200000531971455, 1.008000047877431, 0.0, 0.0, 0.0, 0.0, 0.0, 1.7054302163320048E9, 0.0, 2024-01-16 13:36:56.332
30.0, -97.17756044864655, -189.0893417596817, -157.2553133368492, 330.54731768369675, 0.0800000037997961, -0.11200000531971455, 0.9920000471174717, 0.0, 0.0, 0.0, 0.0, 0.0, 1.7054302163474948E9, 0.0, 2024-01-16 13:36:56.347
30.0, -0.7180607914924622, -38.057221949100494, -48.110073029994965, 421.74103820323944, 0.0800000037997961, -0.11200000531971455, 0.9920000471174717, 0.0, 0.0, 0.0, 0.0, 0.0, 1.7054302163474948E9, 0.0, 2024-01-16 13:36:56.347
31.0, 32.3127356171608, -27.286310076713562, -44.519769072532654, 456.9260169863701, 0.0800000037997961, -0.09600000455975533, 0.9920000471174717, 0.0, 0.0, 0.0, 0.0, 0.0, 1.7054302163482332E9, 0.0, 2024-01-16 13:36:56.348
31.0, -79.94410145282745, -179.99390506744385, -159.8882029056549, 338.685339987278, 0.0800000037997961, -0.09600000455975533, 0.9920000471174717, 0.0, 0.0, 0.0, 0.0, 0.0, 1.7054302163482332E9, 0.0, 2024-01-16 13:36:56.348
32.0, -53.1364985704422, -106.99105793237686, -98.61368203163147, 373.15225797891617, 0.0800000037997961, -0.09600000455975533, 0.9920000471174717, 0.0, 0.0, 0.0, 0.0, 0.0, 1.7054302163619008E9, 0.0, 2024-01-16 13:36:56.361
32.0, 51.93973058462143, 10.05285108089447, -16.994105398654938, 478.94654792547226, 0.0800000037997961, -0.09600000455975533, 0.9920000471174717, 0.0, 0.0, 0.0, 0.0, 0.0, 1.7054302163619008E9, 0.0, 2024-01-16 13:36:56.361
33.0, -44.99847626686096, -140.97926872968674, -131.64447844028473, 365.01423567533493, 0.0800000037997961, -0.09600000455975533, 0.9920000471174717, 0.0, 0.0, 0.0, 0.0, 0.0, 1.7054302163778665E9, 0.0, 2024-01-16 13:36:56.377
33.0, -87.12470936775208, -163.47850686311722, -144.56957268714905, 322.16994178295135, 0.0800000037997961, -0.09600000455975533, 0.9920000471174717, 0.0, 0.0, 0.0, 0.0, 0.0, 1.7054302163778665E9, 0.0, 2024-01-16 13:36:56.377
34.0, 27.046956479549408, -4.547718346118927, -24.89277410507202, 453.57506662607193, 0.0800000037997961, -0.09600000455975533, 0.9920000471174717, 0.0, 0.0, 0.0, 0.0, 0.0, 1.7054302163783069E9, 0.0, 2024-01-16 13:36:56.378
34.0, -3.590303957462311, -84.49181979894638, -90.71501332521439, 408.8159439563751, 0.0800000037997961, -0.09600000455975533, 0.9920000471174717, 0.0, 0.0, 0.0, 0.0, 0.0, 1.7054302163783069E9, 0.0, 2024-01-16 13:36:56.378
35.0, -100.5285108089447, -194.8338280916214, -164.91462844610214, 313.5532122850418, 0.0800000037997961, -0.09600000455975533, 0.9920000471174717, 0.0, 0.0, 0.0, 0.0, 0.0, 1.7054302163918557E9, 0.0, 2024-01-16 13:36:56.391
35.0, -13.882508635520935, -53.61520576477051, -59.83839929103851, 409.5340047478676, 0.0800000037997961, -0.09600000455975533, 0.9920000471174717, 0.0, 0.0, 0.0, 0.0, 0.0, 1.7054302163918557E9, 0.0, 2024-01-16 13:36:56.391
36.0, 33.03079640865326, -28.96178525686264, -52.41843777894974, 452.37829864025116, 0.0800000037997961, -0.09600000455975533, 0.9920000471174717, 0.0, 0.0, 0.0, 0.0, 0.0, 1.705430216407482E9, 0.0, 2024-01-16 13:36:56.407
36.0, -84.25246620178223, -183.344855427742, -159.8882029056549, 328.39313530921936, 0.0800000037997961, -0.09600000455975533, 0.9920000471174717, 0.0, 0.0, 0.0, 0.0, 0.0, 1.705430216407482E9, 0.0, 2024-01-16 13:36:56.407
37.0, -46.67395144701004, -106.2729971408844, -98.37432843446732, 363.57811409235, 0.0800000037997961, -0.09600000455975533, 0.9920000471174717, 0.0, 0.0, 0.0, 0.0, 0.0, 1.7054302164082012E9, 0.0, 2024-01-16 13:36:56.408
37.0, 52.65779137611389, 7.898668706417084, -29.201138854026794, 465.54274648427963, 0.0800000037997961, -0.09600000455975533, 0.9920000471174717, 0.0, 0.0, 0.0, 0.0, 0.0, 1.7054302164082012E9, 0.0, 2024-01-16 13:36:56.408
38.0, -51.46102339029312, -151.51082700490952, -143.13345110416412, 356.8762133717537, 0.0800000037997961, -0.09600000455975533, 0.9920000471174717, 0.0, 0.0, 0.0, 0.0, 0.0, 1.705430216422273E9, 0.0, 2024-01-16 13:36:56.422
38.0, -87.12470936775208, -168.50493240356445, -154.62242376804352, 314.27127307653427, 0.0800000037997961, -0.09600000455975533, 0.9920000471174717, 0.0, 0.0, 0.0, 0.0, 0.0, 1.705430216422273E9, 0.0, 2024-01-16 13:36:56.422
39.0, 28.004370868206024, -13.164447844028473, -46.67395144701004, 419.10814863443375, 0.0800000037997961, -0.09600000455975533, 0.9920000471174717, 0.0, 0.0, 0.0, 0.0, 0.0, 1.7054302164375036E9, 0.0, 2024-01-16 13:36:56.437
39.0, -4.787071943283081, -87.36406296491623, -99.81045001745224, 407.8585295677185, 0.0800000037997961, -0.09600000455975533, 0.9920000471174717, 0.0, 0.0, 0.0, 0.0, 0.0, 1.7054302164375036E9, 0.0, 2024-01-16 13:36:56.437
40.0, -106.03364354372025, -201.77508240938187, -172.33458995819092, 308.2874331474304, 0.0800000037997961, -0.09600000455975533, 1.008000047877431, 0.0, 0.0, 0.0, 0.0, 0.0, 1.7054302164384322E9, 0.0, 2024-01-16 13:36:56.438
40.0, -5.983839929103851, -51.46102339029312, -67.97642159461975, 409.5340047478676, 0.0800000037997961, -0.09600000455975533, 1.008000047877431, 0.0, 0.0, 0.0, 0.0, 0.0, 1.7054302164384322E9, 0.0, 2024-01-16 13:36:56.438
41.0, 36.381746768951416, -25.850188493728638, -58.8809849023819, 438.0170828104019, 0.0800000037997961, -0.09600000455975533, 1.008000047877431, 0.0, 0.0, 0.0, 0.0, 0.0, 1.7054302164518309E9, 0.0, 2024-01-16 13:36:56.451
41.0, -70.13060396909714, -173.77071154117584, -154.86177736520767, 338.2066327929497, 0.0800000037997961, -0.09600000455975533, 1.008000047877431, 0.0, 0.0, 0.0, 0.0, 0.0, 1.7054302164518309E9, 0.0, 2024-01-16 13:36:56.451
42.0, -37.578514754772186, -95.26273167133331, -94.3053172826767, 376.98191553354263, 0.0800000037997961, -0.09600000455975533, 1.008000047877431, 0.0, 0.0, 0.0, 0.0, 0.0, 1.7054302164674776E9, 0.0, 2024-01-16 13:36:56.467
42.0, 54.81197375059128, 8.377375900745392, -21.30247014760971, 471.76594001054764, 0.0800000037997961, -0.09600000455975533, 1.008000047877431, 0.0, 0.0, 0.0, 0.0, 0.0, 1.7054302164674776E9, 0.0, 2024-01-16 13:36:56.467
43.0, -40.69011151790619, -142.89409750699997, -134.03801441192627, 363.81746768951416, 0.0800000037997961, -0.09600000455975533, 1.008000047877431, 0.0, 0.0, 0.0, 0.0, 0.0, 1.705430216468195E9, 0.0, 2024-01-16 13:36:56.468
43.0, -75.39638310670853, -157.2553133368492, -129.7296496629715, 337.0098648071289, 0.0800000037997961, -0.09600000455975533, 1.008000047877431, 0.0, 0.0, 0.0, 0.0, 0.0, 1.705430216468195E9, 0.0, 2024-01-16 13:36:56.468
44.0, 36.860453963279724, 1.9148287773132324, -18.190873384475708, 465.3033928871155, 0.0800000037997961, -0.09600000455975533, 1.008000047877431, 0.0, 0.0, 0.0, 0.0, 0.0, 1.7054302164821446E9, 0.0, 2024-01-16 13:36:56.482
44.0, 4.787071943283081, -87.12470936775208, -93.82661008834839, 413.6030158996582, 0.0800000037997961, -0.09600000455975533, 1.008000047877431, 0.0, 0.0, 0.0, 0.0, 0.0, 1.7054302164821446E9, 0.0, 2024-01-16 13:36:56.482
45.0, -86.40664857625961, -180.47261226177216, -154.62242376804352, 323.12735617160797, 0.0800000037997961, -0.09600000455975533, 1.008000047877431, 0.0, 0.0, 0.0, 0.0, 0.0, 1.7054302165138924E9, 0.0, 2024-01-16 13:36:56.513
45.0, 3.1115967631340027, -44.2804154753685, -55.53003454208374, 416.2359054684639, 0.0800000037997961, -0.09600000455975533, 1.008000047877431, 0.0, 0.0, 0.0, 0.0, 0.0, 1.7054302165138924E9, 0.0, 2024-01-16 13:36:56.513
46.0, 43.32300108671188, -24.414066910743713, -47.15265864133835, 447.5912266969681, 0.0800000037997961, -0.09600000455975533, 1.008000047877431, 0.0, 0.0, 0.0, 0.0, 0.0, 1.7054302165146668E9, 0.0, 2024-01-16 13:36:56.514
46.0, -73.72090792655945, -176.88230830430984, -158.9307885169983, 328.6324889063835, 0.0800000037997961, -0.09600000455975533, 1.008000047877431, 0.0, 0.0, 0.0, 0.0, 0.0, 1.7054302165146668E9, 0.0, 2024-01-16 13:36:56.514
47.0, -43.32300108671188, -107.70911872386932, -95.26273167133331, 375.30644035339355, 0.0800000037997961, -0.09600000455975533, 1.008000047877431, 0.0, 0.0, 0.0, 0.0, 0.0, 1.7054302165154104E9, 0.0, 2024-01-16 13:36:56.515
47.0, 54.093912959098816, 8.377375900745392, -18.430226981639862, 477.7497799396515, 0.0800000037997961, -0.09600000455975533, 1.008000047877431, 0.0, 0.0, 0.0, 0.0, 0.0, 1.7054302165154104E9, 0.0, 2024-01-16 13:36:56.515
48.0, -47.15265864133835, -147.20246225595474, -139.0644399523735, 362.1419925093651, 0.0800000037997961, -0.09600000455975533, 1.008000047877431, 0.0, 0.0, 0.0, 0.0, 0.0, 1.7054302165161142E9, 0.0, 2024-01-16 13:36:56.516
48.0, -84.97052699327469, -165.6326892375946, -146.00569427013397, 323.84541696310043, 0.0800000037997961, -0.09600000455975533, 1.008000047877431, 0.0, 0.0, 0.0, 0.0, 0.0, 1.7054302165161142E9, 0.0, 2024-01-16 13:36:56.516
49.0, 28.243724465370178, -5.505132734775543, -33.50950360298157, 444.00092273950577, 0.0800000037997961, -0.09600000455975533, 1.008000047877431, 0.0, 0.0, 0.0, 0.0, 0.0, 1.705430216526831E9, 0.0, 2024-01-16 13:36:56.526
49.0, -7.898668706417084, -92.86919569969177, -102.20398598909378, 405.46499359607697, 0.0800000037997961, -0.09600000455975533, 1.008000047877431, 0.0, 0.0, 0.0, 0.0, 0.0, 1.705430216526831E9, 0.0, 2024-01-16 13:36:56.526
50.0, -101.24657160043716, -201.5357288122177, -175.68554031848907, 306.8513115644455, 0.0800000037997961, -0.09600000455975533, 1.008000047877431, 0.0, 0.0, 0.0, 0.0, 0.0, 1.70543021654291E9, 0.0, 2024-01-16 13:36:56.542
50.0, -5.505132734775543, -50.26425540447235, -64.86482483148575, 410.25206553936005, 0.0800000037997961, -0.09600000455975533, 1.008000047877431, 0.0, 0.0, 0.0, 0.0, 0.0, 1.70543021654291E9, 0.0, 2024-01-16 13:36:56.542
51.0, 38.29657554626465, -28.483078062534332, -47.15265864133835, 448.30928748846054, 0.0800000037997961, -0.09600000455975533, 1.008000047877431, 0.0, 0.0, 0.0, 0.0, 0.0, 1.7054302165576253E9, 0.0, 2024-01-16 13:36:56.557
51.0, -85.9279413819313, -193.63706010580063, -176.88230830430984, 314.0319194793701, 0.0800000037997961, -0.09600000455975533, 1.008000047877431, 0.0, 0.0, 0.0, 0.0, 0.0, 1.7054302165576253E9, 0.0, 2024-01-16 13:36:56.557
52.0, -48.82813382148743, -114.41101944446564, -107.94847232103348, 358.7910421490669, 0.06400000303983688, -0.09600000455975533, 1.008000047877431, 0.0, 0.0, 0.0, 0.0, 0.0, 1.7054302165583937E9, 0.0, 2024-01-16 13:36:56.558
52.0, 54.81197375059128, 3.1115967631340027, -29.201138854026794, 462.43114972114563, 0.06400000303983688, -0.09600000455975533, 1.008000047877431, 0.0, 0.0, 0.0, 0.0, 0.0, 1.7054302165583937E9, 0.0, 2024-01-16 13:36:56.558
53.0, -50.0249018073082, -149.83535182476044, -143.61215829849243, 359.0303957462311, 0.06400000303983688, -0.09600000455975533, 1.008000047877431, 0.0, 0.0, 0.0, 0.0, 0.0, 1.7054302165718577E9, 0.0, 2024-01-16 13:36:56.571
53.0, -83.29505181312561, -167.06881082057953, -146.9631086587906, 325.5208921432495, 0.06400000303983688, -0.09600000455975533, 1.008000047877431, 0.0, 0.0, 0.0, 0.0, 0.0, 1.7054302165718577E9, 0.0, 2024-01-16 13:36:56.571
54.0, 33.50950360298157, -4.547718346118927, -33.27015000581741, 446.15510511398315, 0.06400000303983688, -0.09600000455975533, 1.008000047877431, 0.0, 0.0, 0.0, 0.0, 0.0, 1.7054302165877366E9, 0.0, 2024-01-16 13:36:56.587
54.0, -0.23935359716415405, -89.51824533939362, -93.58725649118423, 407.14046877622604, 0.06400000303983688, -0.09600000455975533, 1.008000047877431, 0.0, 0.0, 0.0, 0.0, 0.0, 1.7054302165877366E9, 0.0, 2024-01-16 13:36:56.587
55.0, -104.59752196073532, -199.62090003490448, -166.59010362625122, 307.09066516160965, 0.06400000303983688, -0.09600000455975533, 1.008000047877431, 0.0, 0.0, 0.0, 0.0, 0.0, 1.7054302165883284E9, 0.0, 2024-01-16 13:36:56.588
55.0, -7.180607914924622, -49.06748741865158, -59.12033849954605, 407.61917597055435, 0.06400000303983688, -0.09600000455975533, 1.008000047877431, 0.0, 0.0, 0.0, 0.0, 0.0, 1.7054302165883284E9, 0.0, 2024-01-16 13:36:56.588
56.0, 43.32300108671188, -19.626994967460632, -42.844293892383575, 450.2241162657738, 0.06400000303983688, -0.09600000455975533, 1.008000047877431, 0.0, 0.0, 0.0, 0.0, 0.0, 1.7054302166021755E9, 0.0, 2024-01-16 13:36:56.602
56.0, -84.97052699327469, -193.63706010580063, -174.01006513834, 312.1170907020569, 0.06400000303983688, -0.09600000455975533, 1.008000047877431, 0.0, 0.0, 0.0, 0.0, 0.0, 1.7054302166021755E9, 0.0, 2024-01-16 13:36:56.602
57.0, -45.237829864025116, -109.86330109834671, -105.55493634939194, 363.33876049518585, 0.06400000303983688, -0.09600000455975533, 1.008000047877431, 0.0, 0.0, 0.0, 0.0, 0.0, 1.7054302166176467E9, 0.0, 2024-01-16 13:36:56.617
57.0, 46.913305044174194, -3.1115967631340027, -33.988210797309875, 462.90985691547394, 0.06400000303983688, -0.09600000455975533, 1.008000047877431, 0.0, 0.0, 0.0, 0.0, 0.0, 1.7054302166176467E9, 0.0, 2024-01-16 13:36:56.617
58.0, -45.95589065551758, -148.63858383893967, -142.1760367155075, 355.9187989830971, 0.06400000303983688, -0.09600000455975533, 1.008000047877431, 0.0, 0.0, 0.0, 0.0, 0.0, 1.705430216618408E9, 0.0, 2024-01-16 13:36:56.618
58.0, -83.53440541028976, -167.54751801490784, -146.72375506162643, 328.39313530921936, 0.06400000303983688, -0.09600000455975533, 1.008000047877431, 0.0, 0.0, 0.0, 0.0, 0.0, 1.705430216618408E9, 0.0, 2024-01-16 13:36:56.618
59.0, 33.74885720014572, -6.9412543177604675, -24.414066910743713, 455.01118820905685, 0.06400000303983688, -0.09600000455975533, 1.008000047877431, 0.0, 0.0, 0.0, 0.0, 0.0, 1.7054302166319385E9, 0.0, 2024-01-16 13:36:56.631
59.0, -9.334790289402008, -96.45949965715408, -98.37432843446732, 403.3108112215996, 0.06400000303983688, -0.09600000455975533, 1.008000047877431, 0.0, 0.0, 0.0, 0.0, 0.0, 1.7054302166319385E9, 0.0, 2024-01-16 13:36:56.631
60.0, -97.17756044864655, -195.79124248027802, -165.87204283475876, 318.57963782548904, 0.06400000303983688, -0.09600000455975533, 1.008000047877431, 0.0, 0.0, 0.0, 0.0, 0.0, 1.7054302166475112E9, 0.0, 2024-01-16 13:36:56.647
60.0, 2.8722431659698486, -45.237829864025116, -56.487448930740356, 419.10814863443375, 0.06400000303983688, -0.09600000455975533, 1.008000047877431, 0.0, 0.0, 0.0, 0.0, 0.0, 1.7054302166475112E9, 0.0, 2024-01-16 13:36:56.647
61.0, 39.73269712924957, -27.76501727104187, -50.98231619596481, 452.138945043087, 0.06400000303983688, -0.09600000455975533, 1.008000047877431, 0.0, 0.0, 0.0, 0.0, 0.0, 1.705430216648238E9, 0.0, 2024-01-16 13:36:56.648
61.0, -78.02927267551422, -185.73839139938354, -168.50493240356445, 323.84541696310043, 0.06400000303983688, -0.09600000455975533, 1.008000047877431, 0.0, 0.0, 0.0, 0.0, 0.0, 1.705430216648238E9, 0.0, 2024-01-16 13:36:56.648
62.0, -35.4243323802948, -103.40075397491455, -95.26273167133331, 372.4341971874237, 0.06400000303983688, -0.09600000455975533, 1.008000047877431, 0.0, 0.0, 0.0, 0.0, 0.0, 1.7054302166620865E9, 0.0, 2024-01-16 13:36:56.662
62.0, 51.46102339029312, -4.787071943283081, -31.115967631340027, 455.7292490005493, 0.06400000303983688, -0.09600000455975533, 1.008000047877431, 0.0, 0.0, 0.0, 0.0, 0.0, 1.7054302166620865E9, 0.0, 2024-01-16 13:36:56.662
63.0, -44.2804154753685, -149.11729103326797, -145.04827988147736, 351.131727039814, 0.06400000303983688, -0.09600000455975533, 1.008000047877431, 0.0, 0.0, 0.0, 0.0, 0.0, 1.7054302166777723E9, 0.0, 2024-01-16 13:36:56.677
63.0, -88.80018454790115, -172.33458995819092, -153.90436297655106, 313.79256588220596, 0.06400000303983688, -0.09600000455975533, 1.008000047877431, 0.0, 0.0, 0.0, 0.0, 0.0, 1.7054302166777723E9, 0.0, 2024-01-16 13:36:56.677
64.0, 33.27015000581741, -11.24961906671524, -31.83402842283249, 449.027348279953, 0.06400000303983688, -0.09600000455975533, 1.008000047877431, 0.0, 0.0, 0.0, 0.0, 0.0, 1.705430216678378E9, 0.0, 2024-01-16 13:36:56.678
64.0, 1.9148287773132324, -84.97052699327469, -94.784024477005, 411.20947992801666, 0.06400000303983688, -0.09600000455975533, 1.008000047877431, 0.0, 0.0, 0.0, 0.0, 0.0, 1.705430216678378E9, 0.0, 2024-01-16 13:36:56.678
65.0, -98.61368203163147, -198.18477845191956, -175.20683312416077, 305.1758363842964, 0.06400000303983688, -0.09600000455975533, 1.008000047877431, 0.0, 0.0, 0.0, 0.0, 0.0, 1.7054302166917865E9, 0.0, 2024-01-16 13:36:56.691
65.0, -1.6754751801490784, -49.06748741865158, -62.949996054172516, 403.0714576244354, 0.06400000303983688, -0.09600000455975533, 1.008000047877431, 0.0, 0.0, 0.0, 0.0, 0.0, 1.7054302166917865E9, 0.0, 2024-01-16 13:36:56.691
66.0, 34.22756439447403, -33.988210797309875, -58.40227770805359, 439.692557990551, 0.06400000303983688, -0.09600000455975533, 1.008000047877431, 0.0, 0.0, 0.0, 0.0, 0.0, 1.7054302167077353E9, 0.0, 2024-01-16 13:36:56.707
66.0, -81.14086943864822, -190.04675614833832, -174.01006513834, 317.8615770339966, 0.06400000303983688, -0.09600000455975533, 1.008000047877431, 0.0, 0.0, 0.0, 0.0, 0.0, 1.7054302167077353E9, 0.0, 2024-01-16 13:36:56.707
