%OpenBCI Raw EXG Data
%Number of channels = 4
%Sample Rate = 200 Hz
%Board = OpenBCI_GUI$BoardGanglionBLE
Sample Index, EXG Channel 0, EXG Channel 1, EXG Channel 2, EXG Channel 3, Accel Channel 0, Accel Channel 1, Accel Channel 2, Other, Other, Other, Other, Other, Timestamp, Other, Timestamp (Formatted)
77.0, -432.03324288129807, -483.9729734659195, -286.5062558054924, -148.3992302417755, 0.0, 0.0, 0.0, 0.0, 0.0, 0.0, 0.0, 0.0, 1.7054508275694056E9, 0.0, 2024-01-16 19:20:27.569
77.0, 0.0, 0.0, 0.0, 0.0, 0.0, 0.0, 0.0, 0.0, 0.0, 0.0, 0.0, 0.0, 1.7054508275694056E9, 0.0, 2024-01-16 19:20:27.569
0.0, -437.77772921323776, -498.0948356986046, -297.75587487220764, -224.75302773714066, 0.0, 0.0, 0.9760000463575125, 0.0, 0.0, 0.0, 0.0, 0.0, 1.7054508276133132E9, 0.0, 2024-01-16 19:20:27.613
0.0, -403.0714576244354, -484.4516806602478, -295.12298530340195, -110.10265469551086, 0.0, 0.0, 0.9760000463575125, 0.0, 0.0, 0.0, 0.0, 0.0, 1.7054508276133132E9, 0.0, 2024-01-16 19:20:27.613
1.0, -310.68096911907196, -500.24901807308197, -319.7764058113098, -73.24220073223114, 0.0, -0.9760000463575125, 0.9760000463575125, 0.0, 0.0, 0.0, 0.0, 0.0, 1.70545082762726E9, 0.0, 2024-01-16 19:20:27.627
1.0, -395.8908497095108, -503.8393220305443, -313.79256588220596, -206.56215435266495, 0.0, -0.9760000463575125, 0.9760000463575125, 0.0, 0.0, 0.0, 0.0, 0.0, 1.70545082762726E9, 0.0, 2024-01-16 19:20:27.627
2.0, -432.2725964784622, -478.94654792547226, -282.4372446537018, -150.5534126162529, -0.9760000463575125, -0.9760000463575125, 0.9760000463575125, 0.0, 0.0, 0.0, 0.0, 0.0, 1.7054508276417153E9, 0.0, 2024-01-16 19:20:27.641
2.0, -332.9408536553383, -502.1638468503952, -311.3990299105644, -54.33326655626297, -0.9760000463575125, -0.9760000463575125, 0.9760000463575125, 0.0, 0.0, 0.0, 0.0, 0.0, 1.7054508276417153E9, 0.0, 2024-01-16 19:20:27.641
3.0, -359.26974934339523, -510.30186915397644, -323.12735617160797, -160.60626369714737, -0.9760000463575125, -0.9760000463575125, 0.9760000463575125, 0.0, 0.0, 0.0, 0.0, 0.0, 1.705450827642418E9, 0.0, 2024-01-16 19:20:27.642
3.0, -455.01118820905685, -488.99939900636673, -293.2081565260887, -213.74276226758957, -0.9760000463575125, -0.9760000463575125, 0.9760000463575125, 0.0, 0.0, 0.0, 0.0, 0.0, 1.705450827642418E9, 0.0, 2024-01-16 19:20:27.642
4.0, -355.6794453859329, -487.32392382621765, -294.8836317062378, -67.7370679974556, -0.9760000463575125, -0.9760000463575125, 0.9760000463575125, 0.0, 0.0, 0.0, 0.0, 0.0, 1.7054508276561205E9, 0.0, 2024-01-16 19:20:27.656
4.0, -320.73382019996643, -508.62639397382736, -319.2976986169815, -116.32584822177887, -0.9760000463575125, -0.9760000463575125, 0.9760000463575125, 0.0, 0.0, 0.0, 0.0, 0.0, 1.7054508276561205E9, 0.0, 2024-01-16 19:20:27.656
5.0, -432.5119500756264, -493.54711735248566, -294.4049245119095, -219.2478950023651, -0.9760000463575125, -0.9760000463575125, 0.9760000463575125, 0.0, 0.0, 0.0, 0.0, 0.0, 1.705450827672246E9, 0.0, 2024-01-16 19:20:27.672
5.0, -396.13020330667496, -480.3826695084572, -291.53268134593964, -106.99105793237686, -0.9760000463575125, -0.9760000463575125, 0.9760000463575125, 0.0, 0.0, 0.0, 0.0, 0.0, 1.705450827672246E9, 0.0, 2024-01-16 19:20:27.672
6.0, -309.9629083275795, -510.0625155568123, -321.4518809914589, -66.30094641447067, -0.9760000463575125, -0.9760000463575125, 0.9760000463575125, 0.0, 0.0, 0.0, 0.0, 0.0, 1.7054508276725888E9, 0.0, 2024-01-16 19:20:27.672
6.0, -401.6353360414505, -508.14768677949905, -311.3990299105644, -202.25378960371017, -0.9760000463575125, -0.9760000463575125, 0.9760000463575125, 0.0, 0.0, 0.0, 0.0, 0.0, 1.7054508276725888E9, 0.0, 2024-01-16 19:20:27.672
7.0, -434.4267788529396, -488.5206918120384, -288.1817309856415, -150.79276621341705, -0.9760000463575125, -0.9760000463575125, 0.9760000463575125, 0.0, 0.0, 0.0, 0.0, 0.0, 1.7054508276862113E9, 0.0, 2024-01-16 19:20:27.686
7.0, -323.12735617160797, -498.0948356986046, -312.5957978963852, -45.47718346118927, -0.9760000463575125, -0.9760000463575125, 0.9760000463575125, 0.0, 0.0, 0.0, 0.0, 0.0, 1.7054508276862113E9, 0.0, 2024-01-16 19:20:27.686
8.0, -357.11556696891785, -509.583808362484, -322.64864897727966, -162.0423852801323, -0.9760000463575125, -0.9760000463575125, 0.9760000463575125, 0.0, 0.0, 0.0, 0.0, 0.0, 1.7054508277017386E9, 0.0, 2024-01-16 19:20:27.701
8.0, -448.5486410856247, -492.11099576950073, -297.9952284693718, -206.56215435266495, -0.9760000463575125, -0.9760000463575125, 0.9760000463575125, 0.0, 0.0, 0.0, 0.0, 0.0, 1.7054508277017386E9, 0.0, 2024-01-16 19:20:27.701
9.0, -363.0994068980217, -493.54711735248566, -299.4313500523567, -65.82223922014236, -0.9760000463575125, -0.9760000463575125, 0.9760000463575125, 0.0, 0.0, 0.0, 0.0, 0.0, 1.7054508277024238E9, 0.0, 2024-01-16 19:20:27.702
9.0, -325.5208921432495, -512.4560515284538, -326.7176601290703, -117.7619698047638, -0.9760000463575125, -0.9760000463575125, 0.9760000463575125, 0.0, 0.0, 0.0, 0.0, 0.0, 1.7054508277024238E9, 0.0, 2024-01-16 19:20:27.702
10.0, -430.11841410398483, -494.5045317411423, -301.1068252325058, -219.48724859952927, -0.9760000463575125, -0.9760000463575125, 0.49600002355873585, 0.0, 0.0, 0.0, 0.0, 0.0, 1.7054508277164588E9, 0.0, 2024-01-16 19:20:27.716
10.0, -408.3372367620468, -491.39293497800827, -302.0642396211624, -112.97489786148071, -0.9760000463575125, -0.9760000463575125, 0.49600002355873585, 0.0, 0.0, 0.0, 0.0, 0.0, 1.7054508277164588E9, 0.0, 2024-01-16 19:20:27.716
11.0, -314.0319194793701, -515.3282946944237, -318.8189914226532, -64.6254712343216, -0.9760000463575125, -0.49600002355873585, 0.49600002355873585, 0.0, 0.0, 0.0, 0.0, 0.0, 1.7054508277317207E9, 0.0, 2024-01-16 19:20:27.731
11.0, -393.49731373786926, -496.18000692129135, -304.93648278713226, -196.26994967460632, -0.9760000463575125, -0.49600002355873585, 0.49600002355873585, 0.0, 0.0, 0.0, 0.0, 0.0, 1.7054508277317207E9, 0.0, 2024-01-16 19:20:27.731
12.0, -430.59712129831314, -478.94654792547226, -285.5488414168358, -149.83535182476044, -0.49600002355873585, -0.49600002355873585, 0.49600002355873585, 0.0, 0.0, 0.0, 0.0, 0.0, 1.7054508277324626E9, 0.0, 2024-01-16 19:20:27.732
12.0, -327.6750745177269, -502.40320044755936, -314.27127307653427, -46.913305044174194, -0.49600002355873585, -0.49600002355873585, 0.49600002355873585, 0.0, 0.0, 0.0, 0.0, 0.0, 1.7054508277324626E9, 0.0, 2024-01-16 19:20:27.732
13.0, -354.96138459444046, -508.62639397382736, -314.98933386802673, -155.8191917538643, -0.49600002355873585, -0.49600002355873585, 0.49600002355873585, 0.0, 0.0, 0.0, 0.0, 0.0, 1.7054508277628844E9, 0.0, 2024-01-16 19:20:27.762
13.0, -447.83058029413223, -484.4516806602478, -289.85720616579056, -196.03059607744217, -0.49600002355873585, -0.49600002355873585, 0.49600002355873585, 0.0, 0.0, 0.0, 0.0, 0.0, 1.7054508277628844E9, 0.0, 2024-01-16 19:20:27.762
14.0, -357.8336277604103, -488.5206918120384, -298.71328926086426, -58.64163130521774, -0.49600002355873585, -0.49600002355873585, 0.49600002355873585, 0.0, 0.0, 0.0, 0.0, 0.0, 1.705450827763553E9, 0.0, 2024-01-16 19:20:27.763
14.0, -317.8615770339966, -503.1212612390518, -318.57963782548904, -111.53877627849579, -0.49600002355873585, -0.49600002355873585, 0.49600002355873585, 0.0, 0.0, 0.0, 0.0, 0.0, 1.705450827763553E9, 0.0, 2024-01-16 19:20:27.763
15.0, -421.74103820323944, -493.3077637553215, -297.5165212750435, -213.0247014760971, -0.49600002355873585, -0.49600002355873585, 0.49600002355873585, 0.0, 0.0, 0.0, 0.0, 0.0, 1.705450827777049E9, 0.0, 2024-01-16 19:20:27.777
15.0, -388.94959539175034, -476.0743047595024, -283.15530544519424, -95.02337807416916, -0.49600002355873585, -0.49600002355873585, 0.49600002355873585, 0.0, 0.0, 0.0, 0.0, 0.0, 1.705450827777049E9, 0.0, 2024-01-16 19:20:27.777
16.0, -301.34617882966995, -503.360614836216, -320.73382019996643, -62.71064245700836, -0.49600002355873585, -0.49600002355873585, 0.49600002355873585, 0.0, 0.0, 0.0, 0.0, 0.0, 1.7054508277774436E9, 0.0, 2024-01-16 19:20:27.777
16.0, -390.1463633775711, -500.24901807308197, -311.87773710489273, -203.45055758953094, -0.49600002355873585, -0.49600002355873585, 0.49600002355873585, 0.0, 0.0, 0.0, 0.0, 0.0, 1.7054508277774436E9, 0.0, 2024-01-16 19:20:27.777
17.0, -428.92164611816406, -484.4516806602478, -295.8410460948944, -155.34048455953598, -0.49600002355873585, -0.49600002355873585, 0.49600002355873585, 0.0, 0.0, 0.0, 0.0, 0.0, 1.705450827791957E9, 0.0, 2024-01-16 19:20:27.791
17.0, -322.8880025744438, -500.24901807308197, -312.5957978963852, -49.06748741865158, -0.49600002355873585, -0.49600002355873585, 0.49600002355873585, 0.0, 0.0, 0.0, 0.0, 0.0, 1.705450827791957E9, 0.0, 2024-01-16 19:20:27.791
18.0, -352.5678486227989, -504.7967364192009, -309.9629083275795, -151.75018060207367, -0.49600002355873585, -0.49600002355873585, 0.49600002355873585, 0.0, 0.0, 0.0, 0.0, 0.0, 1.7054508277924407E9, 0.0, 2024-01-16 19:20:27.792
18.0, -445.4370443224907, -483.25491267442703, -288.42108458280563, -202.01443600654602, -0.49600002355873585, -0.49600002355873585, 0.49600002355873585, 0.0, 0.0, 0.0, 0.0, 0.0, 1.7054508277924407E9, 0.0, 2024-01-16 19:20:27.792
19.0, -356.3975061774254, -489.95681339502335, -303.97906839847565, -63.66805684566498, -0.49600002355873585, -0.49600002355873585, 0.49600002355873585, 0.0, 0.0, 0.0, 0.0, 0.0, 1.7054508278059742E9, 0.0, 2024-01-16 19:20:27.805
19.0, -319.7764058113098, -511.25928354263306, -317.1435162425041, -106.99105793237686, -0.49600002355873585, -0.49600002355873585, 0.49600002355873585, 0.0, 0.0, 0.0, 0.0, 0.0, 1.7054508278059742E9, 0.0, 2024-01-16 19:20:27.805
20.0, -436.1022540330887, -500.7277252674103, -308.2874331474304, -219.00854140520096, -0.49600002355873585, -0.49600002355873585, 0.7360000349581242, 0.0, 0.0, 0.0, 0.0, 0.0, 1.7054508278220632E9, 0.0, 2024-01-16 19:20:27.822
20.0, -405.9437007904053, -490.1961669921875, -295.60169249773026, -105.31558275222778, -0.49600002355873585, -0.49600002355873585, 0.7360000349581242, 0.0, 0.0, 0.0, 0.0, 0.0, 1.7054508278220632E9, 0.0, 2024-01-16 19:20:27.822
21.0, -314.7499802708626, -511.4986371397972, -326.238952934742, -61.9925816655159, -0.49600002355873585, -0.7360000349581242, 0.7360000349581242, 0.0, 0.0, 0.0, 0.0, 0.0, 1.7054508278225613E9, 0.0, 2024-01-16 19:20:27.822
21.0, -399.9598608613014, -513.1741123199463, -322.16994178295135, -201.29637521505356, -0.49600002355873585, -0.7360000349581242, 0.7360000349581242, 0.0, 0.0, 0.0, 0.0, 0.0, 1.7054508278225613E9, 0.0, 2024-01-16 19:20:27.822
22.0, -432.03324288129807, -483.25491267442703, -288.6604381799698, -154.1437165737152, -0.7360000349581242, -0.7360000349581242, 0.7360000349581242, 0.0, 0.0, 0.0, 0.0, 0.0, 1.7054508278360107E9, 0.0, 2024-01-16 19:20:27.836
22.0, -324.32412415742874, -500.7277252674103, -310.20226192474365, -49.54619461297989, -0.7360000349581242, -0.7360000349581242, 0.7360000349581242, 0.0, 0.0, 0.0, 0.0, 0.0, 1.7054508278360107E9, 0.0, 2024-01-16 19:20:27.836
23.0, -356.3975061774254, -510.30186915397644, -317.8615770339966, -158.45208132266998, -0.7360000349581242, -0.7360000349581242, 0.7360000349581242, 0.0, 0.0, 0.0, 0.0, 0.0, 1.7054508278520837E9, 0.0, 2024-01-16 19:20:27.852
23.0, -446.63381230831146, -485.6484486460686, -291.0539741516113, -199.62090003490448, -0.7360000349581242, -0.7360000349581242, 0.7360000349581242, 0.0, 0.0, 0.0, 0.0, 0.0, 1.7054508278520837E9, 0.0, 2024-01-16 19:20:27.852
24.0, -357.354920566082, -494.02582454681396, -301.5855324268341, -64.6254712343216, -0.7360000349581242, -0.7360000349581242, 0.7360000349581242, 0.0, 0.0, 0.0, 0.0, 0.0, 1.705450827852491E9, 0.0, 2024-01-16 19:20:27.852
24.0, -322.16994178295135, -506.71156519651413, -329.58990329504013, -112.73554426431656, -0.7360000349581242, -0.7360000349581242, 0.7360000349581242, 0.0, 0.0, 0.0, 0.0, 0.0, 1.705450827852491E9, 0.0, 2024-01-16 19:20:27.852
25.0, -430.8364748954773, -498.0948356986046, -298.71328926086426, -214.46082305908203, -0.7360000349581242, -0.7360000349581242, 0.7360000349581242, 0.0, 0.0, 0.0, 0.0, 0.0, 1.7054508278660643E9, 0.0, 2024-01-16 19:20:27.866
25.0, -401.6353360414505, -480.14331591129303, -292.2507421374321, -101.48592519760132, -0.7360000349581242, -0.7360000349581242, 0.7360000349581242, 0.0, 0.0, 0.0, 0.0, 0.0, 1.7054508278660643E9, 0.0, 2024-01-16 19:20:27.866
26.0, -308.2874331474304, -500.4883716702461, -312.83515149354935, -65.82223922014236, -0.7360000349581242, -0.7360000349581242, 0.7360000349581242, 0.0, 0.0, 0.0, 0.0, 0.0, 1.7054508278817456E9, 0.0, 2024-01-16 19:20:27.881
26.0, -392.3005457520485, -498.0948356986046, -308.5267867445946, -194.59447449445724, -0.7360000349581242, -0.7360000349581242, 0.7360000349581242, 0.0, 0.0, 0.0, 0.0, 0.0, 1.7054508278817456E9, 0.0, 2024-01-16 19:20:27.881
27.0, -426.28875654935837, -473.4414151906967, -275.017283141613, -143.13345110416412, -0.7360000349581242, -0.7360000349581242, 0.7360000349581242, 0.0, 0.0, 0.0, 0.0, 0.0, 1.7054508278824737E9, 0.0, 2024-01-16 19:20:27.882
27.0, -304.93648278713226, -478.94654792547226, -300.38876444101334, -35.663685977458954, -0.7360000349581242, -0.7360000349581242, 0.7360000349581242, 0.0, 0.0, 0.0, 0.0, 0.0, 1.7054508278824737E9, 0.0, 2024-01-16 19:20:27.882
28.0, -343.47241193056107, -500.4883716702461, -313.31385868787766, -149.35664463043213, -0.7360000349581242, -0.7360000349581242, 0.7360000349581242, 0.0, 0.0, 0.0, 0.0, 0.0, 1.705450827896619E9, 0.0, 2024-01-16 19:20:27.896
28.0, -438.25643640756607, -479.1859015226364, -275.017283141613, -196.74865686893463, -0.7360000349581242, -0.7360000349581242, 0.7360000349581242, 0.0, 0.0, 0.0, 0.0, 0.0, 1.705450827896619E9, 0.0, 2024-01-16 19:20:27.896
29.0, -343.7117655277252, -480.14331591129303, -286.26690220832825, -51.46102339029312, -0.7360000349581242, -0.7360000349581242, 0.7360000349581242, 0.0, 0.0, 0.0, 0.0, 0.0, 1.7054508279117184E9, 0.0, 2024-01-16 19:20:27.911
29.0, -302.30359321832657, -492.11099576950073, -319.05834501981735, -93.10854929685593, -0.7360000349581242, -0.7360000349581242, 0.7360000349581242, 0.0, 0.0, 0.0, 0.0, 0.0, 1.7054508279117184E9, 0.0, 2024-01-16 19:20:27.911
30.0, -400.6779216527939, -468.8936968445778, -283.63401263952255, -193.87641370296478, -0.7360000349581242, -0.7360000349581242, 0.8480000402778387, 0.0, 0.0, 0.0, 0.0, 0.0, 1.705450827912424E9, 0.0, 2024-01-16 19:20:27.912
30.0, -365.97165006399155, -459.79826015233994, -269.2727968096733, -75.87509030103683, -0.7360000349581242, -0.7360000349581242, 0.8480000402778387, 0.0, 0.0, 0.0, 0.0, 0.0, 1.705450827912424E9, 0.0, 2024-01-16 19:20:27.912
31.0, -281.240476667881, -477.51042634248734, -289.6178525686264, -39.49334353208542, -0.7360000349581242, -0.8480000402778387, 0.8480000402778387, 0.0, 0.0, 0.0, 0.0, 0.0, 1.7054508279260712E9, 0.0, 2024-01-16 19:20:27.926
31.0, -376.26385474205017, -483.0155590772629, -293.686863720417, -179.51519787311554, -0.7360000349581242, -0.8480000402778387, 0.8480000402778387, 0.0, 0.0, 0.0, 0.0, 0.0, 1.7054508279260712E9, 0.0, 2024-01-16 19:20:27.926
32.0, -377.46062272787094, -434.66613245010376, -254.6722273826599, -123.50645613670349, -0.8480000402778387, -0.8480000402778387, 0.8480000402778387, 0.0, 0.0, 0.0, 0.0, 0.0, 1.7054508279418993E9, 0.0, 2024-01-16 19:20:27.941
32.0, -263.76766407489777, -438.7351436018944, -280.2830622792244, -24.653420507907867, -0.8480000402778387, -0.8480000402778387, 0.8480000402778387, 0.0, 0.0, 0.0, 0.0, 0.0, 1.7054508279418993E9, 0.0, 2024-01-16 19:20:27.941
33.0, -286.74560940265656, -443.2828619480133, -268.794089615345, -105.31558275222778, -0.8480000402778387, -0.8480000402778387, 0.8480000402778387, 0.0, 0.0, 0.0, 0.0, 0.0, 1.7054508279425912E9, 0.0, 2024-01-16 19:20:27.942
33.0, -359.0303957462311, -399.72050726413727, -224.9923813343048, -123.74580973386765, -0.8480000402778387, -0.8480000402778387, 0.8480000402778387, 0.0, 0.0, 0.0, 0.0, 0.0, 1.7054508279425912E9, 0.0, 2024-01-16 19:20:27.942
34.0, -266.87926083803177, -402.35339683294296, -229.30074608325958, 11.24961906671524, -0.8480000402778387, -0.8480000402778387, 0.8480000402778387, 0.0, 0.0, 0.0, 0.0, 0.0, 1.7054508279562175E9, 0.0, 2024-01-16 19:20:27.956
34.0, -218.2904806137085, -404.2682256102562, -232.8910500407219, -26.807602882385254, -0.8480000402778387, -0.8480000402778387, 0.8480000402778387, 0.0, 0.0, 0.0, 0.0, 0.0, 1.7054508279562175E9, 0.0, 2024-01-16 19:20:27.956
35.0, -315.94674825668335, -373.6309651732445, -214.93953025341034, -120.39485937356949, -0.8480000402778387, -0.8480000402778387, 0.8480000402778387, 0.0, 0.0, 0.0, 0.0, 0.0, 1.705450827971814E9, 0.0, 2024-01-16 19:20:27.971
35.0, -280.7617694735527, -362.1419925093651, -194.59447449445724, -1.1967679858207703, -0.8480000402778387, -0.8480000402778387, 0.8480000402778387, 0.0, 0.0, 0.0, 0.0, 0.0, 1.705450827971814E9, 0.0, 2024-01-16 19:20:27.971
36.0, -171.61652916669846, -361.18457812070847, -203.45055758953094, 39.01463633775711, -0.8480000402778387, -0.8480000402778387, 0.8480000402778387, 0.0, 0.0, 0.0, 0.0, 0.0, 1.7054508279724555E9, 0.0, 2024-01-16 19:20:27.972
36.0, -247.73097306489944, -349.69560545682907, -204.1686183810234, -96.45949965715408, -0.8480000402778387, -0.8480000402778387, 0.8480000402778387, 0.0, 0.0, 0.0, 0.0, 0.0, 1.7054508279724555E9, 0.0, 2024-01-16 19:20:27.972
37.0, -272.8631007671356, -315.7073946595192, -153.1863021850586, -28.243724465370178, -0.8480000402778387, -0.8480000402778387, 0.8480000402778387, 0.0, 0.0, 0.0, 0.0, 0.0, 1.705450827986582E9, 0.0, 2024-01-16 19:20:27.986
37.0, -166.35075002908707, -336.77051120996475, -184.78097701072693, 77.55056548118591, -0.8480000402778387, -0.8480000402778387, 0.8480000402778387, 0.0, 0.0, 0.0, 0.0, 0.0, 1.705450827986582E9, 0.0, 2024-01-16 19:20:27.986
38.0, -170.898468375206, -327.1963673233986, -184.30226981639862, -30.15855324268341, -0.8480000402778387, -0.8480000402778387, 0.8480000402778387, 0.0, 0.0, 0.0, 0.0, 0.0, 1.7054508280015185E9, 0.0, 2024-01-16 19:20:28.001
38.0, -270.70891839265823, -315.2286874651909, -150.31405901908875, -89.75759893655777, -0.8480000402778387, -0.8480000402778387, 0.8480000402778387, 0.0, 0.0, 0.0, 0.0, 0.0, 1.7054508280015185E9, 0.0, 2024-01-16 19:20:28.001
39.0, -172.81329715251923, -301.5855324268341, -164.19656765460968, 63.90741044282913, -0.8480000402778387, -0.8480000402778387, 0.8480000402778387, 0.0, 0.0, 0.0, 0.0, 0.0, 1.705450828016758E9, 0.0, 2024-01-16 19:20:28.016
39.0, -142.89409750699997, -327.43572092056274, -184.54162341356277, 19.866348564624786, -0.8480000402778387, -0.8480000402778387, 0.8480000402778387, 0.0, 0.0, 0.0, 0.0, 0.0, 1.705450828016758E9, 0.0, 2024-01-16 19:20:28.016
40.0, -243.66196191310883, -316.6648090481758, -170.65911477804184, -100.76786440610886, -0.8480000402778387, -0.8480000402778387, 0.9120000433176756, 0.0, 0.0, 0.0, 0.0, 0.0, 1.7054508280174613E9, 0.0, 2024-01-16 19:20:28.017
40.0, -214.93953025341034, -301.34617882966995, -160.60626369714737, -0.23935359716415405, -0.8480000402778387, -0.8480000402778387, 0.9120000433176756, 0.0, 0.0, 0.0, 0.0, 0.0, 1.7054508280174613E9, 0.0, 2024-01-16 19:20:28.017
41.0, -148.3992302417755, -349.21689826250076, -212.0672870874405, 18.190873384475708, -0.8480000402778387, -0.9120000433176756, 0.9120000433176756, 0.0, 0.0, 0.0, 0.0, 0.0, 1.7054508280323033E9, 0.0, 2024-01-16 19:20:28.032
41.0, -244.14066910743713, -362.1419925093651, -212.0672870874405, -103.6401075720787, -0.8480000402778387, -0.9120000433176756, 0.9120000433176756, 0.0, 0.0, 0.0, 0.0, 0.0, 1.7054508280323033E9, 0.0, 2024-01-16 19:20:28.032
42.0, -284.8307806253433, -346.10530149936676, -184.30226981639862, -60.31710648536682, -0.9120000433176756, -0.9120000433176756, 0.9120000433176756, 0.0, 0.0, 0.0, 0.0, 0.0, 1.7054508280325656E9, 0.0, 2024-01-16 19:20:28.032
42.0, -188.13192737102509, -370.2800148129463, -224.75302773714066, 24.17471331357956, -0.9120000433176756, -0.9120000433176756, 0.9120000433176756, 0.0, 0.0, 0.0, 0.0, 0.0, 1.7054508280325656E9, 0.0, 2024-01-16 19:20:28.032
43.0, -237.43876838684082, -403.0714576244354, -253.236105799675, -108.42717951536179, -0.9120000433176756, -0.9120000433176756, 0.9120000433176756, 0.0, 0.0, 0.0, 0.0, 0.0, 1.705450828046094E9, 0.0, 2024-01-16 19:20:28.046
43.0, -357.11556696891785, -409.29465115070343, -257.7838241457939, -185.4990378022194, -0.9120000433176756, -0.9120000433176756, 0.9120000433176756, 0.0, 0.0, 0.0, 0.0, 0.0, 1.705450828046094E9, 0.0, 2024-01-16 19:20:28.046
44.0, -291.0539741516113, -437.0596684217453, -273.82051515579224, -67.49771440029144, -0.9120000433176756, -0.9120000433176756, 0.9120000433176756, 0.0, 0.0, 0.0, 0.0, 0.0, 1.7054508280618823E9, 0.0, 2024-01-16 19:20:28.061
44.0, -250.12450903654099, -448.0699338912964, -286.5062558054924, -97.4169140458107, -0.9120000433176756, -0.9120000433176756, 0.9120000433176756, 0.0, 0.0, 0.0, 0.0, 0.0, 1.7054508280618823E9, 0.0, 2024-01-16 19:20:28.061
45.0, -348.02013027668, -423.4165133833885, -258.2625313401222, -194.3551208972931, -0.9120000433176756, -0.9120000433176756, 0.9120000433176756, 0.0, 0.0, 0.0, 0.0, 0.0, 1.7054508280624845E9, 0.0, 2024-01-16 19:20:28.062
45.0, -325.9995993375778, -421.9803918004036, -242.7045475244522, -77.78991907835007, -0.9120000433176756, -0.9120000433176756, 0.9120000433176756, 0.0, 0.0, 0.0, 0.0, 0.0, 1.7054508280624845E9, 0.0, 2024-01-16 19:20:28.062
46.0, -246.53420507907867, -454.2931274175644, -284.8307806253433, -58.40227770805359, -0.9120000433176756, -0.9120000433176756, 0.9120000433176756, 0.0, 0.0, 0.0, 0.0, 0.0, 1.7054508280764196E9, 0.0, 2024-01-16 19:20:28.076
46.0, -348.25948387384415, -466.97886806726456, -294.4049245119095, -205.84409356117249, -0.9120000433176756, -0.9120000433176756, 0.9120000433176756, 0.0, 0.0, 0.0, 0.0, 0.0, 1.7054508280764196E9, 0.0, 2024-01-16 19:20:28.076
47.0, -393.49731373786926, -451.1815306544304, -285.30948781967163, -166.82945722341537, -0.9120000433176756, -0.9120000433176756, 0.9120000433176756, 0.0, 0.0, 0.0, 0.0, 0.0, 1.705450828091745E9, 0.0, 2024-01-16 19:20:28.091
47.0, -280.52241587638855, -462.90985691547394, -290.0965597629547, -56.72680252790451, -0.9120000433176756, -0.9120000433176756, 0.9120000433176756, 0.0, 0.0, 0.0, 0.0, 0.0, 1.705450828091745E9, 0.0, 2024-01-16 19:20:28.091
48.0, -307.56937235593796, -473.20206159353256, -297.5165212750435, -162.5210924744606, -0.9120000433176756, -0.9120000433176756, 0.9120000433176756, 0.0, 0.0, 0.0, 0.0, 0.0, 1.705450828092438E9, 0.0, 2024-01-16 19:20:28.092
48.0, -434.18742525577545, -488.5206918120384, -299.4313500523567, -231.45492845773697, -0.9120000433176756, -0.9120000433176756, 0.9120000433176756, 0.0, 0.0, 0.0, 0.0, 0.0, 1.705450828092438E9, 0.0, 2024-01-16 19:20:28.092
49.0, -363.0994068980217, -505.03609001636505, -320.2551130056381, -101.96463239192963, -0.9120000433176756, -0.9120000433176756, 0.9120000433176756, 0.0, 0.0, 0.0, 0.0, 0.0, 1.7054508281061788E9, 0.0, 2024-01-16 19:20:28.106
49.0, -316.6648090481758, -513.8921731114388, -335.573743224144, -139.78250074386597, -0.9120000433176756, -0.9120000433176756, 0.9120000433176756, 0.0, 0.0, 0.0, 0.0, 0.0, 1.7054508281061788E9, 0.0, 2024-01-16 19:20:28.106
50.0, -438.4957900047302, -512.9347587227821, -321.9305881857872, -248.4490338563919, -0.9120000433176756, -0.9120000433176756, 0.944000044837594, 0.0, 0.0, 0.0, 0.0, 0.0, 1.7054508281219351E9, 0.0, 2024-01-16 19:20:28.121
50.0, -408.3372367620468, -503.360614836216, -310.9203227162361, -141.6973295211792, -0.9120000433176756, -0.9120000433176756, 0.944000044837594, 0.0, 0.0, 0.0, 0.0, 0.0, 1.7054508281219351E9, 0.0, 2024-01-16 19:20:28.121
51.0, -328.6324889063835, -529.2108033299446, -356.8762133717537, -107.23041152954102, -0.9120000433176756, -0.944000044837594, 0.944000044837594, 0.0, 0.0, 0.0, 0.0, 0.0, 1.7054508281224327E9, 0.0, 2024-01-16 19:20:28.122
51.0, -414.0817230939865, -528.4927425384521, -342.99370473623276, -240.55036514997482, -0.9120000433176756, -0.944000044837594, 0.944000044837594, 0.0, 0.0, 0.0, 0.0, 0.0, 1.7054508281224327E9, 0.0, 2024-01-16 19:20:28.122
52.0, -462.43114972114563, -519.6366594433784, -318.10093063116074, -202.73249679803848, -0.944000044837594, -0.944000044837594, 0.944000044837594, 0.0, 0.0, 0.0, 0.0, 0.0, 1.7054508281364615E9, 0.0, 2024-01-16 19:20:28.136
52.0, -360.22716373205185, -547.1623231172562, -354.96138459444046, -105.07622915506363, -0.944000044837594, -0.944000044837594, 0.944000044837594, 0.0, 0.0, 0.0, 0.0, 0.0, 1.7054508281364615E9, 0.0, 2024-01-16 19:20:28.136
53.0, -397.5663248896599, -568.9435004591942, -370.2800148129463, -216.61500543355942, -0.944000044837594, -0.944000044837594, 0.944000044837594, 0.0, 0.0, 0.0, 0.0, 0.0, 1.7054508281517248E9, 0.0, 2024-01-16 19:20:28.151
53.0, -488.99939900636673, -539.2636544108391, -329.1111961007118, -264.7250784635544, -0.944000044837594, -0.944000044837594, 0.944000044837594, 0.0, 0.0, 0.0, 0.0, 0.0, 1.7054508281517248E9, 0.0, 2024-01-16 19:20:28.151
54.0, -399.72050726413727, -535.1946432590485, -343.2330583333969, -116.56520181894302, -0.944000044837594, -0.944000044837594, 0.944000044837594, 0.0, 0.0, 0.0, 0.0, 0.0, 1.7054508281525123E9, 0.0, 2024-01-16 19:20:28.152
54.0, -359.9878101348877, -557.9332349896431, -360.9452245235443, -159.8882029056549, -0.944000044837594, -0.944000044837594, 0.944000044837594, 0.0, 0.0, 0.0, 0.0, 0.0, 1.7054508281525123E9, 0.0, 2024-01-16 19:20:28.152
55.0, -466.97886806726456, -540.2210687994957, -340.36081516742706, -267.59732162952423, -0.944000044837594, -0.944000044837594, 0.944000044837594, 0.0, 0.0, 0.0, 0.0, 0.0, 1.7054508281830077E9, 0.0, 2024-01-16 19:20:28.183
55.0, -430.59712129831314, -527.7746817469597, -337.24921840429306, -155.57983815670013, -0.944000044837594, -0.944000044837594, 0.944000044837594, 0.0, 0.0, 0.0, 0.0, 0.0, 1.7054508281830077E9, 0.0, 2024-01-16 19:20:28.183
56.0, -343.47241193056107, -550.7526270747185, -361.9026389122009, -112.97489786148071, -0.944000044837594, -0.944000044837594, 0.944000044837594, 0.0, 0.0, 0.0, 0.0, 0.0, 1.7054508281832397E9, 0.0, 2024-01-16 19:20:28.183
56.0, -425.33134216070175, -547.8803839087486, -356.3975061774254, -251.0819234251976, -0.944000044837594, -0.944000044837594, 0.944000044837594, 0.0, 0.0, 0.0, 0.0, 0.0, 1.7054508281832397E9, 0.0, 2024-01-16 19:20:28.183
57.0, -464.1066249012947, -516.5250626802444, -313.79256588220596, -203.92926478385925, -0.944000044837594, -0.944000044837594, 0.944000044837594, 0.0, 0.0, 0.0, 0.0, 0.0, 1.7054508281841023E9, 0.0, 2024-01-16 19:20:28.184
57.0, -351.84978783130646, -532.5617536902428, -340.1214615702629, -92.62984210252762, -0.944000044837594, -0.944000044837594, 0.944000044837594, 0.0, 0.0, 0.0, 0.0, 0.0, 1.7054508281841023E9, 0.0, 2024-01-16 19:20:28.184
58.0, -382.00834107398987, -548.3590911030769, -357.11556696891785, -198.66348564624786, -0.944000044837594, -0.944000044837594, 0.944000044837594, 0.0, 0.0, 0.0, 0.0, 0.0, 1.7054508281960332E9, 0.0, 2024-01-16 19:20:28.196
58.0, -471.76594001054764, -521.0727810263634, -312.5957978963852, -241.98648673295975, -0.944000044837594, -0.944000044837594, 0.944000044837594, 0.0, 0.0, 0.0, 0.0, 0.0, 1.7054508281960332E9, 0.0, 2024-01-16 19:20:28.196
59.0, -385.11993783712387, -521.3121346235275, -324.0847705602646, -97.4169140458107, -0.944000044837594, -0.944000044837594, 0.944000044837594, 0.0, 0.0, 0.0, 0.0, 0.0, 1.7054508282117496E9, 0.0, 2024-01-16 19:20:28.211
59.0, -362.86005330085754, -558.1725885868073, -356.8762133717537, -159.8882029056549, -0.944000044837594, -0.944000044837594, 0.944000044837594, 0.0, 0.0, 0.0, 0.0, 0.0, 1.7054508282117496E9, 0.0, 2024-01-16 19:20:28.211
60.0, -460.75567454099655, -539.0243008136749, -332.46214646101, -259.69865292310715, -0.944000044837594, -0.944000044837594, 0.9600000455975533, 0.0, 0.0, 0.0, 0.0, 0.0, 1.7054508282124417E9, 0.0, 2024-01-16 19:20:28.212
60.0, -430.59712129831314, -520.1153666377068, -325.28153854608536, -137.62831836938858, -0.944000044837594, -0.944000044837594, 0.9600000455975533, 0.0, 0.0, 0.0, 0.0, 0.0, 1.7054508282124417E9, 0.0, 2024-01-16 19:20:28.212
61.0, -342.99370473623276, -546.6836159229279, -342.51499754190445, -104.11881476640701, -0.944000044837594, -0.9600000455975533, 0.9600000455975533, 0.0, 0.0, 0.0, 0.0, 0.0, 1.705450828226172E9, 0.0, 2024-01-16 19:20:28.226
61.0, -429.6397069096565, -541.4178367853165, -340.1214615702629, -232.17298924922943, -0.944000044837594, -0.9600000455975533, 0.9600000455975533, 0.0, 0.0, 0.0, 0.0, 0.0, 1.705450828226172E9, 0.0, 2024-01-16 19:20:28.226
62.0, -459.79826015233994, -523.9450241923332, -330.7866712808609, -188.37128096818924, -0.9600000455975533, -0.9600000455975533, 0.9600000455975533, 0.0, 0.0, 0.0, 0.0, 0.0, 1.7054508282417307E9, 0.0, 2024-01-16 19:20:28.241
62.0, -353.2859094142914, -537.8275328278542, -348.9775446653366, -84.25246620178223, -0.9600000455975533, -0.9600000455975533, 0.9600000455975533, 0.0, 0.0, 0.0, 0.0, 0.0, 1.7054508282417307E9, 0.0, 2024-01-16 19:20:28.241
63.0, -387.5134738087654, -547.6410303115845, -363.33876049518585, -195.07318168878555, -0.9600000455975533, -0.9600000455975533, 0.9600000455975533, 0.0, 0.0, 0.0, 0.0, 0.0, 1.7054508282424064E9, 0.0, 2024-01-16 19:20:28.242
63.0, -477.2710727453232, -530.1682177186012, -329.1111961007118, -241.02907234430313, -0.9600000455975533, -0.9600000455975533, 0.9600000455975533, 0.0, 0.0, 0.0, 0.0, 0.0, 1.7054508282424064E9, 0.0, 2024-01-16 19:20:28.242
64.0, -377.46062272787094, -519.1579522490501, -320.4944666028023, -95.74143886566162, -0.9600000455975533, -0.9600000455975533, 0.9600000455975533, 0.0, 0.0, 0.0, 0.0, 0.0, 1.7054508282565367E9, 0.0, 2024-01-16 19:20:28.256
64.0, -348.25948387384415, -544.5294335484505, -356.3975061774254, -141.6973295211792, -0.9600000455975533, -0.9600000455975533, 0.9600000455975533, 0.0, 0.0, 0.0, 0.0, 0.0, 1.7054508282565367E9, 0.0, 2024-01-16 19:20:28.256
65.0, -441.8467403650284, -518.918598651886, -312.1170907020569, -242.94390112161636, -0.9600000455975533, -0.9600000455975533, 0.9600000455975533, 0.0, 0.0, 0.0, 0.0, 0.0, 1.7054508282717988E9, 0.0, 2024-01-16 19:20:28.271
65.0, -405.7043471932411, -499.77031087875366, -292.49009573459625, -123.9851633310318, -0.9600000455975533, -0.9600000455975533, 0.9600000455975533, 0.0, 0.0, 0.0, 0.0, 0.0, 1.7054508282717988E9, 0.0, 2024-01-16 19:20:28.271
66.0, -320.01575940847397, -523.4663169980049, -329.58990329504013, -86.88535577058792, -0.9600000455975533, -0.9600000455975533, 0.9600000455975533, 0.0, 0.0, 0.0, 0.0, 0.0, 1.705450828272496E9, 0.0, 2024-01-16 19:20:28.272
66.0, -403.7895184159279, -526.5779137611389, -338.685339987278, -224.5136741399765, -0.9600000455975533, -0.9600000455975533, 0.9600000455975533, 0.0, 0.0, 0.0, 0.0, 0.0, 1.705450828272496E9, 0.0, 2024-01-16 19:20:28.272
67.0, -456.2079561948776, -518.2005378603935, -332.2227928638458, -190.28610974550247, -0.9600000455975533, -0.9600000455975533, 0.9600000455975533, 0.0, 0.0, 0.0, 0.0, 0.0, 1.7054508282860608E9, 0.0, 2024-01-16 19:20:28.286
67.0, -344.1904727220535, -523.9450241923332, -325.76024574041367, -74.67832231521606, -0.9600000455975533, -0.9600000455975533, 0.9600000455975533, 0.0, 0.0, 0.0, 0.0, 0.0, 1.7054508282860608E9, 0.0, 2024-01-16 19:20:28.286
68.0, -387.0347666144371, -548.3590911030769, -350.6530198454857, -182.14808744192123, -0.9600000455975533, -0.9600000455975533, 0.9600000455975533, 0.0, 0.0, 0.0, 0.0, 0.0, 1.7054508283192227E9, 0.0, 2024-01-16 19:20:28.319
68.0, -471.5265864133835, -521.5514882206917, -316.90416264533997, -232.65169644355774, -0.9600000455975533, -0.9600000455975533, 0.9600000455975533, 0.0, 0.0, 0.0, 0.0, 0.0, 1.7054508283192227E9, 0.0, 2024-01-16 19:20:28.319
69.0, -393.49731373786926, -524.1843777894974, -334.61632883548737, -96.69885325431824, -0.9600000455975533, -0.9600000455975533, 0.9600000455975533, 0.0, 0.0, 0.0, 0.0, 0.0, 1.705450828319646E9, 0.0, 2024-01-16 19:20:28.319
69.0, -345.62659430503845, -539.5030080080032, -331.98343926668167, -138.82508635520935, -0.9600000455975533, -0.9600000455975533, 0.9600000455975533, 0.0, 0.0, 0.0, 0.0, 0.0, 1.705450828319646E9, 0.0, 2024-01-16 19:20:28.319
70.0, -454.53248101472855, -534.476582467556, -331.50473207235336, -249.16709464788437, -0.9600000455975533, -0.9600000455975533, 0.9600000455975533, 0.0, 0.0, 0.0, 0.0, 0.0, 1.7054508283203025E9, 0.0, 2024-01-16 19:20:28.320
70.0, -424.6132813692093, -516.5250626802444, -306.8513115644455, -143.85151189565659, -0.9600000455975533, -0.9600000455975533, 0.9600000455975533, 0.0, 0.0, 0.0, 0.0, 0.0, 1.7054508283203025E9, 0.0, 2024-01-16 19:20:28.320
71.0, -329.58990329504013, -528.9714497327805, -351.6104342341423, -95.26273167133331, -0.9600000455975533, -0.9600000455975533, 0.9600000455975533, 0.0, 0.0, 0.0, 0.0, 0.0, 1.7054508283211524E9, 0.0, 2024-01-16 19:20:28.321
71.0, -420.54427021741867, -537.1094720363617, -334.3769752383232, -231.21557486057281, -0.9600000455975533, -0.9600000455975533, 0.9600000455975533, 0.0, 0.0, 0.0, 0.0, 0.0, 1.7054508283211524E9, 0.0, 2024-01-16 19:20:28.321
72.0, -460.75567454099655, -520.1153666377068, -316.42545545101166, -186.21709859371185, -0.9600000455975533, -0.9600000455975533, 0.9600000455975533, 0.0, 0.0, 0.0, 0.0, 0.0, 1.7054508283310747E9, 0.0, 2024-01-16 19:20:28.331
72.0, -345.3872407078743, -523.4663169980049, -332.70150005817413, -78.02927267551422, -0.9600000455975533, -0.9600000455975533, 0.9600000455975533, 0.0, 0.0, 0.0, 0.0, 0.0, 1.7054508283310747E9, 0.0, 2024-01-16 19:20:28.331
73.0, -375.5457939505577, -538.5455936193466, -342.03629034757614, -180.95131945610046, -0.9600000455975533, -0.9600000455975533, 0.9600000455975533, 0.0, 0.0, 0.0, 0.0, 0.0, 1.7054508283462968E9, 0.0, 2024-01-16 19:20:28.346
73.0, -475.35624396800995, -522.9876098036766, -326.4783065319061, -239.1142435669899, -0.9600000455975533, -0.9600000455975533, 0.9600000455975533, 0.0, 0.0, 0.0, 0.0, 0.0, 1.7054508283462968E9, 0.0, 2024-01-16 19:20:28.346
74.0, -378.6573907136917, -514.1315267086029, -334.61632883548737, -92.39048850536346, -0.9600000455975533, -0.9600000455975533, 0.9600000455975533, 0.0, 0.0, 0.0, 0.0, 0.0, 1.7054508283624632E9, 0.0, 2024-01-16 19:20:28.362
74.0, -340.83952236175537, -539.0243008136749, -351.131727039814, -137.14961117506027, -0.9600000455975533, -0.9600000455975533, 0.9600000455975533, 0.0, 0.0, 0.0, 0.0, 0.0, 1.7054508283624632E9, 0.0, 2024-01-16 19:20:28.362
75.0, -448.5486410856247, -520.5940738320351, -325.0421849489212, -244.3800227046013, -0.9600000455975533, -0.9600000455975533, 0.9600000455975533, 0.0, 0.0, 0.0, 0.0, 0.0, 1.7054508283631089E9, 0.0, 2024-01-16 19:20:28.363
75.0, -414.799783885479, -501.92449325323105, -307.09066516160965, -131.16577124595642, -0.9600000455975533, -0.9600000455975533, 0.9600000455975533, 0.0, 0.0, 0.0, 0.0, 0.0, 1.7054508283631089E9, 0.0, 2024-01-16 19:20:28.363
76.0, -326.95701372623444, -531.6043393015862, -348.9775446653366, -91.43307411670685, -0.9600000455975533, -0.9600000455975533, 0.9600000455975533, 0.0, 0.0, 0.0, 0.0, 0.0, 1.7054508283763282E9, 0.0, 2024-01-16 19:20:28.376
76.0, -404.7469328045845, -523.9450241923332, -335.573743224144, -219.48724859952927, -0.9600000455975533, -0.9600000455975533, 0.9600000455975533, 0.0, 0.0, 0.0, 0.0, 0.0, 1.7054508283763282E9, 0.0, 2024-01-16 19:20:28.376
77.0, -433.70871806144714, -501.44578605890274, -312.35644429922104, -176.88230830430984, -0.9600000455975533, -0.9600000455975533, 0.9600000455975533, 0.0, 0.0, 0.0, 0.0, 0.0, 1.7054508283917987E9, 0.0, 2024-01-16 19:20:28.391
77.0, -334.8556824326515, -512.695405125618, -336.77051120996475, -68.69448238611221, -0.9600000455975533, -0.9600000455975533, 0.9600000455975533, 0.0, 0.0, 0.0, 0.0, 0.0, 1.7054508283917987E9, 0.0, 2024-01-16 19:20:28.391
78.0, -336.0524504184723, -501.6851396560669, -330.06861048936844, -162.28173887729645, -0.9600000455975533, -0.9600000455975533, 0.9600000455975533, 0.0, 0.0, 0.0, 0.0, 0.0, 1.7054508283924556E9, 0.0, 2024-01-16 19:20:28.392
78.0, -419.8262094259262, -458.8408457636833, -271.905686378479, -191.96158492565155, -0.9600000455975533, -0.9600000455975533, 0.9600000455975533, 0.0, 0.0, 0.0, 0.0, 0.0, 1.7054508283924556E9, 0.0, 2024-01-16 19:20:28.392
79.0, -320.9731737971306, -454.53248101472855, -282.1978910565376, -62.71064245700836, -0.9600000455975533, -0.9600000455975533, 0.9600000455975533, 0.0, 0.0, 0.0, 0.0, 0.0, 1.7054508284063385E9, 0.0, 2024-01-16 19:20:28.406
79.0, -248.20968025922775, -445.915751516819, -290.8146205544472, -79.46539425849915, -0.9600000455975533, -0.9600000455975533, 0.9600000455975533, 0.0, 0.0, 0.0, 0.0, 0.0, 1.7054508284063385E9, 0.0, 2024-01-16 19:20:28.406
80.0, -345.3872407078743, -423.8952205777168, -251.79998421669006, -172.33458995819092, -0.9600000455975533, -0.9600000455975533, 0.9760000463575125, 0.0, 0.0, 0.0, 0.0, 0.0, 1.7054508284217107E9, 0.0, 2024-01-16 19:20:28.421
80.0, -289.37849897146225, -379.13609790802, -213.98211586475372, -37.81786835193634, -0.9600000455975533, -0.9600000455975533, 0.9760000463575125, 0.0, 0.0, 0.0, 0.0, 0.0, 1.7054508284217107E9, 0.0, 2024-01-16 19:20:28.421
81.0, -185.9777449965477, -373.87031877040863, -219.00854140520096, 17.7121661901474, -0.9600000455975533, -0.9760000463575125, 0.9760000463575125, 0.0, 0.0, 0.0, 0.0, 0.0, 1.7054508284224267E9, 0.0, 2024-01-16 19:20:28.422
81.0, -250.12450903654099, -358.55168855190277, -189.0893417596817, -88.32147735357285, -0.9600000455975533, -0.9760000463575125, 0.9760000463575125, 0.0, 0.0, 0.0, 0.0, 0.0, 1.7054508284224267E9, 0.0, 2024-01-16 19:20:28.422
82.0, -281.47983026504517, -327.6750745177269, -162.28173887729645, -47.15265864133835, -0.9760000463575125, -0.9760000463575125, 0.9760000463575125, 0.0, 0.0, 0.0, 0.0, 0.0, 1.7054508284363973E9, 0.0, 2024-01-16 19:20:28.436
82.0, -161.08497089147568, -324.80283135175705, -179.27584427595139, 67.97642159461975, -0.9760000463575125, -0.9760000463575125, 0.9760000463575125, 0.0, 0.0, 0.0, 0.0, 0.0, 1.7054508284363973E9, 0.0, 2024-01-16 19:20:28.436
83.0, -183.10550183057785, -334.61632883548737, -187.41386657953262, -31.594674825668335, -0.9760000463575125, -0.9760000463575125, 0.9760000463575125, 0.0, 0.0, 0.0, 0.0, 0.0, 1.7054508284517708E9, 0.0, 2024-01-16 19:20:28.451
83.0, -265.92184644937515, -300.6281180381775, -164.43592125177383, -76.83250468969345, -0.9760000463575125, -0.9760000463575125, 0.9760000463575125, 0.0, 0.0, 0.0, 0.0, 0.0, 1.7054508284517708E9, 0.0, 2024-01-16 19:20:28.451
84.0, -180.233258664608, -298.71328926086426, -152.70759499073029, 61.51387447118759, -0.9760000463575125, -0.9760000463575125, 0.9760000463575125, 0.0, 0.0, 0.0, 0.0, 0.0, 1.7054508284671717E9, 0.0, 2024-01-16 19:20:28.467
84.0, -140.02185434103012, -319.53705221414566, -184.54162341356277, 20.58440935611725, -0.9760000463575125, -0.9760000463575125, 0.9760000463575125, 0.0, 0.0, 0.0, 0.0, 0.0, 1.7054508284671717E9, 0.0, 2024-01-16 19:20:28.467
85.0, -257.7838241457939, -323.84541696310043, -166.59010362625122, -97.4169140458107, -0.9760000463575125, -0.9760000463575125, 0.9760000463575125, 0.0, 0.0, 0.0, 0.0, 0.0, 1.7054508284829323E9, 0.0, 2024-01-16 19:20:28.482
85.0, -232.17298924922943, -319.7764058113098, -159.17014211416245, 4.787071943283081, -0.9760000463575125, -0.9760000463575125, 0.9760000463575125, 0.0, 0.0, 0.0, 0.0, 0.0, 1.7054508284829323E9, 0.0, 2024-01-16 19:20:28.482
86.0, -158.21272772550583, -349.69560545682907, -207.2802151441574, 30.876614034175873, -0.9760000463575125, -0.9760000463575125, 0.9760000463575125, 0.0, 0.0, 0.0, 0.0, 0.0, 1.7054508284832246E9, 0.0, 2024-01-16 19:20:28.483
86.0, -264.0070176720619, -378.1786835193634, -221.64143097400665, -118.48003059625626, -0.9760000463575125, -0.9760000463575125, 0.9760000463575125, 0.0, 0.0, 0.0, 0.0, 0.0, 1.7054508284832246E9, 0.0, 2024-01-16 19:20:28.483
87.0, -320.73382019996643, -375.0670867562294, -197.70607125759125, -89.51824533939362, -0.9760000463575125, -0.9760000463575125, 0.9760000463575125, 0.0, 0.0, 0.0, 0.0, 0.0, 1.705450828484214E9, 0.0, 2024-01-16 19:20:28.484
87.0, -228.82203888893127, -399.72050726413727, -245.09808349609375, 0.7180607914924622, -0.9760000463575125, -0.9760000463575125, 0.9760000463575125, 0.0, 0.0, 0.0, 0.0, 0.0, 1.705450828484214E9, 0.0, 2024-01-16 19:20:28.484
88.0, -262.33154249191284, -415.7571982741356, -259.459299325943, -102.92204678058624, -0.9760000463575125, -0.9760000463575125, 0.9760000463575125, 0.0, 0.0, 0.0, 0.0, 0.0, 1.7054508284966507E9, 0.0, 2024-01-16 19:20:28.496
88.0, -369.801307618618, -410.0127119421959, -241.98648673295975, -165.6326892375946, -0.9760000463575125, -0.9760000463575125, 0.9760000463575125, 0.0, 0.0, 0.0, 0.0, 0.0, 1.7054508284966507E9, 0.0, 2024-01-16 19:20:28.496
89.0, -299.910057246685, -422.21974539756775, -259.21994572877884, -38.29657554626465, -0.9760000463575125, -0.9760000463575125, 0.9760000463575125, 0.0, 0.0, 0.0, 0.0, 0.0, 1.7054508285117164E9, 0.0, 2024-01-16 19:20:28.511
89.0, -270.4695647954941, -454.05377382040024, -297.0378140807152, -83.29505181312561, -0.9760000463575125, -0.9760000463575125, 0.9760000463575125, 0.0, 0.0, 0.0, 0.0, 0.0, 1.7054508285117164E9, 0.0, 2024-01-16 19:20:28.511
90.0, -388.470888197422, -461.23438173532486, -278.128879904747, -203.2112039923668, -0.9760000463575125, -0.9760000463575125, 0.9600000455975533, 0.0, 0.0, 0.0, 0.0, 0.0, 1.7054508285124156E9, 0.0, 2024-01-16 19:20:28.512
90.0, -378.6573907136917, -467.2182216644287, -286.74560940265656, -106.99105793237686, -0.9760000463575125, -0.9760000463575125, 0.9600000455975533, 0.0, 0.0, 0.0, 0.0, 0.0, 1.7054508285124156E9, 0.0, 2024-01-16 19:20:28.512
91.0, -295.12298530340195, -493.06841015815735, -311.87773710489273, -69.41254317760468, -0.9760000463575125, -0.9600000455975533, 0.9600000455975533, 0.0, 0.0, 0.0, 0.0, 0.0, 1.7054508285263605E9, 0.0, 2024-01-16 19:20:28.526
91.0, -385.11993783712387, -501.44578605890274, -319.2976986169815, -208.47698312997818, -0.9760000463575125, -0.9600000455975533, 0.9600000455975533, 0.0, 0.0, 0.0, 0.0, 0.0, 1.7054508285263605E9, 0.0, 2024-01-16 19:20:28.526
92.0, -438.0170828104019, -487.5632774233818, -304.45777559280396, -177.36101549863815, -0.9600000455975533, -0.9600000455975533, 0.9600000455975533, 0.0, 0.0, 0.0, 0.0, 0.0, 1.7054508285417566E9, 0.0, 2024-01-16 19:20:28.541
92.0, -337.0098648071289, -510.30186915397644, -323.12735617160797, -80.42280864715576, -0.9600000455975533, -0.9600000455975533, 0.9600000455975533, 0.0, 0.0, 0.0, 0.0, 0.0, 1.7054508285417566E9, 0.0, 2024-01-16 19:20:28.541
93.0, -370.5193684101105, -532.5617536902428, -350.6530198454857, -186.93515938520432, -0.9600000455975533, -0.9600000455975533, 0.9600000455975533, 0.0, 0.0, 0.0, 0.0, 0.0, 1.7054508285424476E9, 0.0, 2024-01-16 19:20:28.542
93.0, -467.696928858757, -510.5412227511406, -333.65891444683075, -241.98648673295975, -0.9600000455975533, -0.9600000455975533, 0.9600000455975533, 0.0, 0.0, 0.0, 0.0, 0.0, 1.7054508285424476E9, 0.0, 2024-01-16 19:20:28.542
94.0, -385.5986450314522, -517.9611842632294, -333.8982680439949, -106.99105793237686, -0.9600000455975533, -0.9600000455975533, 0.9600000455975533, 0.0, 0.0, 0.0, 0.0, 0.0, 1.7054508285560904E9, 0.0, 2024-01-16 19:20:28.556
94.0, -353.7646166086197, -543.811372756958, -359.9878101348877, -146.00569427013397, -0.9600000455975533, -0.9600000455975533, 0.9600000455975533, 0.0, 0.0, 0.0, 0.0, 0.0, 1.7054508285560904E9, 0.0, 2024-01-16 19:20:28.556
95.0, -465.54274648427963, -537.8275328278542, -332.9408536553383, -257.54447054862976, -0.9600000455975533, -0.9600000455975533, 0.9600000455975533, 0.0, 0.0, 0.0, 0.0, 0.0, 1.7054508285721016E9, 0.0, 2024-01-16 19:20:28.572
95.0, -450.94217705726624, -534.7159360647202, -349.4562518596649, -160.60626369714737, -0.9600000455975533, -0.9600000455975533, 0.9600000455975533, 0.0, 0.0, 0.0, 0.0, 0.0, 1.7054508285721016E9, 0.0, 2024-01-16 19:20:28.572
96.0, -361.4239317178726, -562.2415997385979, -369.801307618618, -127.81482088565826, -0.9600000455975533, -0.9600000455975533, 0.9600000455975533, 0.0, 0.0, 0.0, 0.0, 0.0, 1.7054508285725029E9, 0.0, 2024-01-16 19:20:28.572
96.0, -429.8790605068207, -549.0771518945694, -349.69560545682907, -237.43876838684082, -0.9600000455975533, -0.9600000455975533, 0.9600000455975533, 0.0, 0.0, 0.0, 0.0, 0.0, 1.7054508285725029E9, 0.0, 2024-01-16 19:20:28.572
97.0, -474.39882957935333, -533.9978752732277, -320.73382019996643, -202.73249679803848, -0.9600000455975533, -0.9600000455975533, 0.9600000455975533, 0.0, 0.0, 0.0, 0.0, 0.0, 1.7054508285860777E9, 0.0, 2024-01-16 19:20:28.586
97.0, -370.04066121578217, -549.0771518945694, -362.6206997036934, -100.76786440610886, -0.9600000455975533, -0.9600000455975533, 0.9600000455975533, 0.0, 0.0, 0.0, 0.0, 0.0, 1.7054508285860777E9, 0.0, 2024-01-16 19:20:28.586
98.0, -408.09788316488266, -566.5499644875526, -373.87031877040863, -198.18477845191956, -0.9600000455975533, -0.9600000455975533, 0.9600000455975533, 0.0, 0.0, 0.0, 0.0, 0.0, 1.7054508286011107E9, 0.0, 2024-01-16 19:20:28.601
98.0, -503.1212612390518, -553.8642238378525, -341.0788759589195, -258.5018849372864, -0.9600000455975533, -0.9600000455975533, 0.9600000455975533, 0.0, 0.0, 0.0, 0.0, 0.0, 1.7054508286011107E9, 0.0, 2024-01-16 19:20:28.601
0.0, -377.2212691307068, -569.4222076535225, -376.26385474205017, -151.0321198105812, -0.9600000455975533, -0.9600000455975533, 0.9600000455975533, 0.0, 0.0, 0.0, 0.0, 0.0, 1.7054508286172316E9, 0.0, 2024-01-16 19:20:28.617
0.0, -477.51042634248734, -555.7790526151657, -363.0994068980217, -259.459299325943, -0.9600000455975533, -0.9600000455975533, 0.9600000455975533, 0.0, 0.0, 0.0, 0.0, 0.0, 1.7054508286172316E9, 0.0, 2024-01-16 19:20:28.617
1.0, -456.4473097920418, -543.811372756958, -341.0788759589195, -152.46824139356613, -0.9600000455975533, -0.2240000106394291, 0.9600000455975533, 0.0, 0.0, 0.0, 0.0, 0.0, 1.7054508286175625E9, 0.0, 2024-01-16 19:20:28.617
1.0, -364.5355284810066, -564.6351357102394, -363.33876049518585, -109.86330109834671, -0.9600000455975533, -0.2240000106394291, 0.9600000455975533, 0.0, 0.0, 0.0, 0.0, 0.0, 1.7054508286175625E9, 0.0, 2024-01-16 19:20:28.617
2.0, -451.6602378487587, -564.6351357102394, -364.5355284810066, -240.31101155281067, -0.04800000227987766, -0.2240000106394291, 0.9600000455975533, 0.0, 0.0, 0.0, 0.0, 0.0, 1.7054508286310291E9, 0.0, 2024-01-16 19:20:28.631
2.0, -491.6322885751724, -545.9655551314354, -344.66917991638184, -206.8015079498291, -0.04800000227987766, -0.2240000106394291, 0.9600000455975533, 0.0, 0.0, 0.0, 0.0, 0.0, 1.7054508286310291E9, 0.0, 2024-01-16 19:20:28.631
3.0, -380.57221949100494, -555.7790526151657, -354.00397020578384, -96.22014605998993, -0.04800000227987766, -0.2240000106394291, 0.9600000455975533, 0.0, 0.0, 0.0, 0.0, 0.0, 1.7054508286469295E9, 0.0, 2024-01-16 19:20:28.646
3.0, -390.1463633775711, -557.6938813924789, -359.26974934339523, -188.37128096818924, -0.04800000227987766, -0.2240000106394291, 0.9600000455975533, 0.0, 0.0, 0.0, 0.0, 0.0, 1.7054508286469295E9, 0.0, 2024-01-16 19:20:28.646
4.0, -469.13305044174194, -522.5089026093483, -314.0319194793701, -227.1465637087822, -0.04800000227987766, -0.2240000106394291, 0.9600000455975533, 0.0, 0.0, 0.0, 0.0, 0.0, 1.7054508286474943E9, 0.0, 2024-01-16 19:20:28.647
4.0, -399.0024464726448, -528.4927425384521, -313.31385868787766, -96.69885325431824, -0.04800000227987766, -0.2240000106394291, 0.9600000455975533, 0.0, 0.0, 0.0, 0.0, 0.0, 1.7054508286474943E9, 0.0, 2024-01-16 19:20:28.647
5.0, -354.48267740011215, -543.0933119654655, -345.3872407078743, -130.92641764879227, -0.04800000227987766, -0.2240000106394291, 0.9600000455975533, 0.0, 0.0, 0.0, 0.0, 0.0, 1.7054508286615322E9, 0.0, 2024-01-16 19:20:28.661
5.0, -474.87753677368164, -548.1197375059128, -339.88210797309875, -251.0819234251976, -0.04800000227987766, -0.2240000106394291, 0.9600000455975533, 0.0, 0.0, 0.0, 0.0, 0.0, 1.7054508286615322E9, 0.0, 2024-01-16 19:20:28.661
6.0, -452.6176522374153, -534.476582467556, -324.0847705602646, -139.30379354953766, -0.04800000227987766, -0.2240000106394291, 0.9600000455975533, 0.0, 0.0, 0.0, 0.0, 0.0, 1.7054508286767128E9, 0.0, 2024-01-16 19:20:28.676
6.0, -362.6206997036934, -563.6777213215828, -364.0568212866783, -107.70911872386932, -0.04800000227987766, -0.2240000106394291, 0.9600000455975533, 0.0, 0.0, 0.0, 0.0, 0.0, 1.7054508286767128E9, 0.0, 2024-01-16 19:20:28.676
7.0, -439.692557990551, -555.5396990180016, -351.131727039814, -233.3697572350502, -0.04800000227987766, -0.2240000106394291, 0.9600000455975533, 0.0, 0.0, 0.0, 0.0, 0.0, 1.7054508286774237E9, 0.0, 2024-01-16 19:20:28.677
7.0, -485.8878022432327, -536.3914112448692, -333.4195608496666, -199.62090003490448, -0.04800000227987766, -0.2240000106394291, 0.9600000455975533, 0.0, 0.0, 0.0, 0.0, 0.0, 1.7054508286774237E9, 0.0, 2024-01-16 19:20:28.677
8.0, -374.5883795619011, -545.4868479371071, -363.57811409235, -94.3053172826767, -0.04800000227987766, -0.2240000106394291, 0.9600000455975533, 0.0, 0.0, 0.0, 0.0, 0.0, 1.705450828691048E9, 0.0, 2024-01-16 19:20:28.691
8.0, -388.94959539175034, -553.6248702406883, -367.6471252441406, -185.73839139938354, -0.04800000227987766, -0.2240000106394291, 0.9600000455975533, 0.0, 0.0, 0.0, 0.0, 0.0, 1.705450828691048E9, 0.0, 2024-01-16 19:20:28.691
9.0, -486.36650943756104, -528.4927425384521, -326.95701372623444, -243.18325471878052, -0.04800000227987766, -0.2240000106394291, 0.9600000455975533, 0.0, 0.0, 0.0, 0.0, 0.0, 1.7054508287068152E9, 0.0, 2024-01-16 19:20:28.706
9.0, -408.57659035921097, -542.1358975768089, -342.03629034757614, -107.46976512670517, -0.04800000227987766, -0.2240000106394291, 0.9600000455975533, 0.0, 0.0, 0.0, 0.0, 0.0, 1.7054508287068152E9, 0.0, 2024-01-16 19:20:28.706
10.0, -370.04066121578217, -556.4971134066582, -355.2007381916046, -140.26120793819427, -0.04800000227987766, -0.2240000106394291, 0.9600000455975533, 0.0, 0.0, 0.0, 0.0, 0.0, 1.7054508287074351E9, 0.0, 2024-01-16 19:20:28.707
10.0, -473.4414151906967, -546.2049087285995, -336.5311576128006, -246.77355867624283, -0.04800000227987766, -0.2240000106394291, 0.9600000455975533, 0.0, 0.0, 0.0, 0.0, 0.0, 1.7054508287074351E9, 0.0, 2024-01-16 19:20:28.707
11.0, -454.53248101472855, -534.9552896618843, -314.5106266736984, -148.87793743610382, -0.04800000227987766, -0.2240000106394291, 0.9600000455975533, 0.0, 0.0, 0.0, 0.0, 0.0, 1.7054508287210767E9, 0.0, 2024-01-16 19:20:28.721
11.0, -356.63685977458954, -552.9068094491959, -355.44009178876877, -102.92204678058624, -0.04800000227987766, -0.2240000106394291, 0.9600000455975533, 0.0, 0.0, 0.0, 0.0, 0.0, 1.7054508287210767E9, 0.0, 2024-01-16 19:20:28.721
12.0, -431.3151820898056, -547.6410303115845, -351.131727039814, -224.9923813343048, -0.04800000227987766, -0.2240000106394291, 0.9600000455975533, 0.0, 0.0, 0.0, 0.0, 0.0, 1.7054508287367203E9, 0.0, 2024-01-16 19:20:28.736
12.0, -472.9627079963684, -525.8598529696465, -329.8292568922043, -192.44029211997986, -0.04800000227987766, -0.2240000106394291, 0.9600000455975533, 0.0, 0.0, 0.0, 0.0, 0.0, 1.7054508287367203E9, 0.0, 2024-01-16 19:20:28.736
13.0, -374.82773315906525, -545.0081407427788, -341.55758315324783, -86.88535577058792, -0.04800000227987766, -0.2240000106394291, 0.9600000455975533, 0.0, 0.0, 0.0, 0.0, 0.0, 1.705450828737486E9, 0.0, 2024-01-16 19:20:28.737
13.0, -393.7366673350334, -556.7364670038223, -346.58400869369507, -178.55778348445892, -0.04800000227987766, -0.2240000106394291, 0.9600000455975533, 0.0, 0.0, 0.0, 0.0, 0.0, 1.705450828737486E9, 0.0, 2024-01-16 19:20:28.737
14.0, -481.10073029994965, -532.3224000930786, -321.9305881857872, -233.60911083221436, -0.04800000227987766, -0.2240000106394291, 0.9600000455975533, 0.0, 0.0, 0.0, 0.0, 0.0, 1.7054508287513115E9, 0.0, 2024-01-16 19:20:28.751
14.0, -405.7043471932411, -533.9978752732277, -327.6750745177269, -93.82661008834839, -0.04800000227987766, -0.2240000106394291, 0.9600000455975533, 0.0, 0.0, 0.0, 0.0, 0.0, 1.7054508287513115E9, 0.0, 2024-01-16 19:20:28.751
15.0, -368.8438932299614, -557.2151741981506, -358.3123349547386, -135.23478239774704, -0.04800000227987766, -0.2240000106394291, 0.9600000455975533, 0.0, 0.0, 0.0, 0.0, 0.0, 1.7054508287668943E9, 0.0, 2024-01-16 19:20:28.766
15.0, -464.34597849845886, -538.7849472165108, -333.18020725250244, -241.02907234430313, -0.04800000227987766, -0.2240000106394291, 0.9600000455975533, 0.0, 0.0, 0.0, 0.0, 0.0, 1.7054508287668943E9, 0.0, 2024-01-16 19:20:28.766
16.0, -446.15510511398315, -528.4927425384521, -325.0421849489212, -135.71348959207535, -0.04800000227987766, -0.2240000106394291, 0.9600000455975533, 0.0, 0.0, 0.0, 0.0, 0.0, 1.7054508287675328E9, 0.0, 2024-01-16 19:20:28.767
16.0, -351.131727039814, -544.7687871456146, -349.69560545682907, -98.13497483730316, -0.04800000227987766, -0.2240000106394291, 0.9600000455975533, 0.0, 0.0, 0.0, 0.0, 0.0, 1.7054508287675328E9, 0.0, 2024-01-16 19:20:28.767
17.0, -423.4165133833885, -547.1623231172562, -346.10530149936676, -211.58857989311218, -0.04800000227987766, -0.2240000106394291, 0.9600000455975533, 0.0, 0.0, 0.0, 0.0, 0.0, 1.7054508287813177E9, 0.0, 2024-01-16 19:20:28.781
17.0, -472.9627079963684, -524.9024385809898, -314.5106266736984, -172.09523636102676, -0.04800000227987766, -0.2240000106394291, 0.9600000455975533, 0.0, 0.0, 0.0, 0.0, 0.0, 1.7054508287813177E9, 0.0, 2024-01-16 19:20:28.781
18.0, -367.6471252441406, -540.699775993824, -335.81309682130814, -74.19961512088776, -0.04800000227987766, -0.2240000106394291, 0.9600000455975533, 0.0, 0.0, 0.0, 0.0, 0.0, 1.7054508287970796E9, 0.0, 2024-01-16 19:20:28.797
18.0, -381.05092668533325, -547.4016767144203, -339.6427543759346, -167.30816441774368, -0.04800000227987766, -0.2240000106394291, 0.9600000455975533, 0.0, 0.0, 0.0, 0.0, 0.0, 1.7054508287970796E9, 0.0, 2024-01-16 19:20:28.797
19.0, -476.5530119538307, -526.8172673583031, -314.27127307653427, -217.33306622505188, -0.04800000227987766, -0.2240000106394291, 0.9600000455975533, 0.0, 0.0, 0.0, 0.0, 0.0, 1.7054508287975876E9, 0.0, 2024-01-16 19:20:28.797
19.0, -396.60891050100327, -522.03019541502, -318.10093063116074, -83.05569821596146, -0.04800000227987766, -0.2240000106394291, 0.9600000455975533, 0.0, 0.0, 0.0, 0.0, 0.0, 1.7054508287975876E9, 0.0, 2024-01-16 19:20:28.797
20.0, -350.1743126511574, -541.4178367853165, -342.2756439447403, -117.28326261043549, -0.04800000227987766, -0.2240000106394291, 0.9760000463575125, 0.0, 0.0, 0.0, 0.0, 0.0, 1.7054508288110297E9, 0.0, 2024-01-16 19:20:28.811
20.0, -453.57506662607193, -530.8862785100937, -324.32412415742874, -225.94979572296143, -0.04800000227987766, -0.2240000106394291, 0.9760000463575125, 0.0, 0.0, 0.0, 0.0, 0.0, 1.7054508288110297E9, 0.0, 2024-01-16 19:20:28.811
21.0, -433.9480716586113, -517.7218306660652, -317.6222234368324, -129.01158887147903, -0.04800000227987766, -0.2240000106394291, 0.9760000463575125, 0.0, 0.0, 0.0, 0.0, 0.0, 1.705450828827217E9, 0.0, 2024-01-16 19:20:28.827
21.0, -340.83952236175537, -538.3062400221825, -338.44598639011383, -83.53440541028976, -0.04800000227987766, -0.2240000106394291, 0.9760000463575125, 0.0, 0.0, 0.0, 0.0, 0.0, 1.705450828827217E9, 0.0, 2024-01-16 19:20:28.827
22.0, -412.40624791383743, -536.8701184391975, -337.24921840429306, -211.82793349027634, -0.04800000227987766, -0.2240000106394291, 0.9760000463575125, 0.0, 0.0, 0.0, 0.0, 0.0, 1.7054508288275511E9, 0.0, 2024-01-16 19:20:28.827
22.0, -465.3033928871155, -523.7056705951691, -308.04807955026627, -177.36101549863815, -0.04800000227987766, -0.2240000106394291, 0.9760000463575125, 0.0, 0.0, 0.0, 0.0, 0.0, 1.7054508288275511E9, 0.0, 2024-01-16 19:20:28.827
23.0, -354.00397020578384, -532.0830464959145, -327.43572092056274, -69.41254317760468, -0.04800000227987766, -0.2240000106394291, 0.9760000463575125, 0.0, 0.0, 0.0, 0.0, 0.0, 1.705450828841008E9, 0.0, 2024-01-16 19:20:28.841
23.0, -373.3916115760803, -542.3752511739731, -343.47241193056107, -168.2655788064003, -0.04800000227987766, -0.2240000106394291, 0.9760000463575125, 0.0, 0.0, 0.0, 0.0, 0.0, 1.705450828841008E9, 0.0, 2024-01-16 19:20:28.841
24.0, -462.6705033183098, -518.4398914575577, -313.31385868787766, -219.48724859952927, -0.04800000227987766, -0.2240000106394291, 0.9760000463575125, 0.0, 0.0, 0.0, 0.0, 0.0, 1.7054508288734882E9, 0.0, 2024-01-16 19:20:28.873
24.0, -391.3431313633919, -524.1843777894974, -313.79256588220596, -83.53440541028976, -0.04800000227987766, -0.2240000106394291, 0.9760000463575125, 0.0, 0.0, 0.0, 0.0, 0.0, 1.7054508288734882E9, 0.0, 2024-01-16 19:20:28.873
25.0, -344.1904727220535, -537.1094720363617, -334.8556824326515, -112.4961906671524, -0.04800000227987766, -0.2240000106394291, 0.9760000463575125, 0.0, 0.0, 0.0, 0.0, 0.0, 1.7054508288742483E9, 0.0, 2024-01-16 19:20:28.874
25.0, -443.04350835084915, -520.8334274291992, -311.87773710489273, -225.23173493146896, -0.04800000227987766, -0.2240000106394291, 0.9760000463575125, 0.0, 0.0, 0.0, 0.0, 0.0, 1.7054508288742483E9, 0.0, 2024-01-16 19:20:28.874
26.0, -412.88495510816574, -498.0948356986046, -293.44751012325287, -118.00132340192795, -0.04800000227987766, -0.2240000106394291, 0.9760000463575125, 0.0, 0.0, 0.0, 0.0, 0.0, 1.7054508288748293E9, 0.0, 2024-01-16 19:20:28.874
26.0, -329.8292568922043, -526.8172673583031, -332.70150005817413, -71.32737195491791, -0.04800000227987766, -0.2240000106394291, 0.9760000463575125, 0.0, 0.0, 0.0, 0.0, 0.0, 1.7054508288748293E9, 0.0, 2024-01-16 19:20:28.874
27.0, -404.7469328045845, -532.5617536902428, -331.98343926668167, -203.45055758953094, -0.04800000227987766, -0.2240000106394291, 0.9760000463575125, 0.0, 0.0, 0.0, 0.0, 0.0, 1.7054508288754034E9, 0.0, 2024-01-16 19:20:28.875
27.0, -451.42088425159454, -514.8495875000954, -310.20226192474365, -172.09523636102676, -0.04800000227987766, -0.2240000106394291, 0.9760000463575125, 0.0, 0.0, 0.0, 0.0, 0.0, 1.7054508288754034E9, 0.0, 2024-01-16 19:20:28.875
28.0, -345.8659479022026, -520.1153666377068, -326.95701372623444, -64.38611763715744, -0.04800000227987766, -0.2240000106394291, 0.9760000463575125, 0.0, 0.0, 0.0, 0.0, 0.0, 1.7054508288859832E9, 0.0, 2024-01-16 19:20:28.885
28.0, -370.04066121578217, -535.6733504533768, -334.8556824326515, -159.4094957113266, -0.04800000227987766, -0.2240000106394291, 0.9760000463575125, 0.0, 0.0, 0.0, 0.0, 0.0, 1.7054508288859832E9, 0.0, 2024-01-16 19:20:28.885
29.0, -464.34597849845886, -519.8760130405426, -304.6971291899681, -217.57241982221603, -0.04800000227987766, -0.2240000106394291, 0.9760000463575125, 0.0, 0.0, 0.0, 0.0, 0.0, 1.705450828917539E9, 0.0, 2024-01-16 19:20:28.917
29.0, -381.2902802824974, -514.8495875000954, -312.83515149354935, -80.66216224431992, -0.04800000227987766, -0.2240000106394291, 0.9760000463575125, 0.0, 0.0, 0.0, 0.0, 0.0, 1.705450828917539E9, 0.0, 2024-01-16 19:20:28.917
30.0, -342.03629034757614, -533.7585216760635, -333.4195608496666, -115.84714102745056, -0.04800000227987766, -0.2240000106394291, 0.9760000463575125, 0.0, 0.0, 0.0, 0.0, 0.0, 1.705450828918216E9, 0.0, 2024-01-16 19:20:28.918
30.0, -434.9054860472679, -517.9611842632294, -308.5267867445946, -212.5459942817688, -0.04800000227987766, -0.2240000106394291, 0.9760000463575125, 0.0, 0.0, 0.0, 0.0, 0.0, 1.705450828918216E9, 0.0, 2024-01-16 19:20:28.918
31.0, -419.10814863443375, -510.5412227511406, -307.3300187587738, -115.84714102745056, -0.04800000227987766, -0.2240000106394291, 0.9760000463575125, 0.0, 0.0, 0.0, 0.0, 0.0, 1.7054508289189808E9, 0.0, 2024-01-16 19:20:28.918
31.0, -339.1640471816063, -533.7585216760635, -328.1537817120552, -71.32737195491791, -0.04800000227987766, -0.2240000106394291, 0.9760000463575125, 0.0, 0.0, 0.0, 0.0, 0.0, 1.7054508289189808E9, 0.0, 2024-01-16 19:20:28.918
32.0, -403.55016481876373, -533.0404608845711, -322.64864897727966, -196.98801046609879, -0.04800000227987766, -0.2240000106394291, 0.9760000463575125, 0.0, 0.0, 0.0, 0.0, 0.0, 1.7054508289310513E9, 0.0, 2024-01-16 19:20:28.931
32.0, -456.2079561948776, -507.66897958517075, -287.70302379131317, -166.59010362625122, -0.04800000227987766, -0.2240000106394291, 0.9760000463575125, 0.0, 0.0, 0.0, 0.0, 0.0, 1.7054508289310513E9, 0.0, 2024-01-16 19:20:28.931
33.0, -360.22716373205185, -523.2269634008408, -328.1537817120552, -65.82223922014236, -0.04800000227987766, -0.2240000106394291, 0.9760000463575125, 0.0, 0.0, 0.0, 0.0, 0.0, 1.705450828946991E9, 0.0, 2024-01-16 19:20:28.946
33.0, -372.19484359025955, -533.9978752732277, -330.06861048936844, -160.12755650281906, -0.04800000227987766, -0.2240000106394291, 0.9760000463575125, 0.0, 0.0, 0.0, 0.0, 0.0, 1.705450828946991E9, 0.0, 2024-01-16 19:20:28.946
34.0, -468.1756360530853, -523.2269634008408, -314.5106266736984, -219.2478950023651, -0.04800000227987766, -0.2240000106394291, 0.9760000463575125, 0.0, 0.0, 0.0, 0.0, 0.0, 1.7054508289475162E9, 0.0, 2024-01-16 19:20:28.947
34.0, -372.912904381752, -498.33418929576874, -301.1068252325058, -68.69448238611221, -0.04800000227987766, -0.2240000106394291, 0.9760000463575125, 0.0, 0.0, 0.0, 0.0, 0.0, 1.7054508289475162E9, 0.0, 2024-01-16 19:20:28.947
35.0, -328.6324889063835, -516.7644162774086, -319.2976986169815, -108.66653311252594, -0.04800000227987766, -0.2240000106394291, 0.9760000463575125, 0.0, 0.0, 0.0, 0.0, 0.0, 1.7054508289610229E9, 0.0, 2024-01-16 19:20:28.961
35.0, -438.25643640756607, -520.8334274291992, -310.20226192474365, -225.47108852863312, -0.04800000227987766, -0.2240000106394291, 0.9760000463575125, 0.0, 0.0, 0.0, 0.0, 0.0, 1.7054508289610229E9, 0.0, 2024-01-16 19:20:28.961
36.0, -419.58685582876205, -506.9509187936783, -296.798460483551, -123.9851633310318, -0.04800000227987766, -0.2240000106394291, 0.9760000463575125, 0.0, 0.0, 0.0, 0.0, 0.0, 1.7054508289770217E9, 0.0, 2024-01-16 19:20:28.977
36.0, -333.4195608496666, -530.8862785100937, -329.350549697876, -74.91767591238022, -0.04800000227987766, -0.2240000106394291, 0.9760000463575125, 0.0, 0.0, 0.0, 0.0, 0.0, 1.7054508289770217E9, 0.0, 2024-01-16 19:20:28.977
37.0, -409.5340047478676, -531.364985704422, -340.6001687645912, -202.01443600654602, -0.04800000227987766, -0.2240000106394291, 0.9760000463575125, 0.0, 0.0, 0.0, 0.0, 0.0, 1.7054508289775033E9, 0.0, 2024-01-16 19:20:28.977
37.0, -457.4047241806984, -509.10510116815567, -310.68096911907196, -181.19067305326462, -0.04800000227987766, -0.2240000106394291, 0.9760000463575125, 0.0, 0.0, 0.0, 0.0, 0.0, 1.7054508289775033E9, 0.0, 2024-01-16 19:20:28.977
38.0, -365.2535892724991, -529.2108033299446, -343.47241193056107, -78.74733346700668, -0.04800000227987766, -0.2240000106394291, 0.9760000463575125, 0.0, 0.0, 0.0, 0.0, 0.0, 1.70545082902157E9, 0.0, 2024-01-16 19:20:29.021
38.0, -378.6573907136917, -538.0668864250183, -339.1640471816063, -164.19656765460968, -0.04800000227987766, -0.2240000106394291, 0.9760000463575125, 0.0, 0.0, 0.0, 0.0, 0.0, 1.70545082902157E9, 0.0, 2024-01-16 19:20:29.021
39.0, -466.2608072757721, -520.5940738320351, -320.9731737971306, -217.8117734193802, -0.04800000227987766, -0.2240000106394291, 0.9760000463575125, 0.0, 0.0, 0.0, 0.0, 0.0, 1.7054508290390284E9, 0.0, 2024-01-16 19:20:29.039
39.0, -385.83799862861633, -509.10510116815567, -322.4092953801155, -79.46539425849915, -0.04800000227987766, -0.2240000106394291, 0.9760000463575125, 0.0, 0.0, 0.0, 0.0, 0.0, 1.7054508290390284E9, 0.0, 2024-01-16 19:20:29.039
40.0, -338.44598639011383, -525.141792178154, -330.7866712808609, -106.2729971408844, -0.04800000227987766, -0.2240000106394291, 0.9760000463575125, 0.0, 0.0, 0.0, 0.0, 0.0, 1.7054508290395443E9, 0.0, 2024-01-16 19:20:29.039
40.0, -441.8467403650284, -513.8921731114388, -312.35644429922104, -218.52983421087265, -0.04800000227987766, -0.2240000106394291, 0.9760000463575125, 0.0, 0.0, 0.0, 0.0, 0.0, 1.7054508290395443E9, 0.0, 2024-01-16 19:20:29.039
41.0, -415.7571982741356, -501.6851396560669, -295.60169249773026, -114.17166584730148, -0.04800000227987766, -0.2240000106394291, 0.9760000463575125, 0.0, 0.0, 0.0, 0.0, 0.0, 1.7054508290404072E9, 0.0, 2024-01-16 19:20:29.040
41.0, -334.13762164115906, -522.2695490121841, -327.43572092056274, -72.76349353790283, -0.04800000227987766, -0.2240000106394291, 0.9760000463575125, 0.0, 0.0, 0.0, 0.0, 0.0, 1.7054508290404072E9, 0.0, 2024-01-16 19:20:29.040
42.0, -402.83210402727127, -526.3385601639748, -319.53705221414566, -197.4667176604271, -0.04800000227987766, -0.2240000106394291, 0.9760000463575125, 0.0, 0.0, 0.0, 0.0, 0.0, 1.7054508290410144E9, 0.0, 2024-01-16 19:20:29.041
42.0, -444.4796299338341, -501.44578605890274, -297.75587487220764, -162.28173887729645, -0.04800000227987766, -0.2240000106394291, 0.9760000463575125, 0.0, 0.0, 0.0, 0.0, 0.0, 1.7054508290410144E9, 0.0, 2024-01-16 19:20:29.041
43.0, -348.4988374710083, -511.0199299454689, -318.8189914226532, -62.949996054172516, -0.04800000227987766, -0.2240000106394291, 0.9760000463575125, 0.0, 0.0, 0.0, 0.0, 0.0, 1.7054508290517275E9, 0.0, 2024-01-16 19:20:29.051
43.0, -355.44009178876877, -524.6630849838257, -326.95701372623444, -149.83535182476044, -0.04800000227987766, -0.2240000106394291, 0.9760000463575125, 0.0, 0.0, 0.0, 0.0, 0.0, 1.7054508290517275E9, 0.0, 2024-01-16 19:20:29.051
44.0, -442.08609396219254, -501.6851396560669, -292.2507421374321, -207.04086154699326, -0.04800000227987766, -0.2240000106394291, 0.9760000463575125, 0.0, 0.0, 0.0, 0.0, 0.0, 1.7054508290524545E9, 0.0, 2024-01-16 19:20:29.052
44.0, -372.67355078458786, -500.24901807308197, -307.09066516160965, -74.67832231521606, -0.04800000227987766, -0.2240000106394291, 0.9760000463575125, 0.0, 0.0, 0.0, 0.0, 0.0, 1.7054508290524545E9, 0.0, 2024-01-16 19:20:29.052
45.0, -334.61632883548737, -523.4663169980049, -327.6750745177269, -116.08649462461472, -0.04800000227987766, -0.2240000106394291, 0.9760000463575125, 0.0, 0.0, 0.0, 0.0, 0.0, 1.7054508290668583E9, 0.0, 2024-01-16 19:20:29.066
45.0, -437.29902201890945, -517.7218306660652, -316.1861018538475, -227.86462450027466, -0.04800000227987766, -0.2240000106394291, 0.9760000463575125, 0.0, 0.0, 0.0, 0.0, 0.0, 1.7054508290668583E9, 0.0, 2024-01-16 19:20:29.066
46.0, -415.51784467697144, -500.0096644759178, -295.12298530340195, -120.8735665678978, -0.04800000227987766, -0.2240000106394291, 0.9760000463575125, 0.0, 0.0, 0.0, 0.0, 0.0, 1.705450829067494E9, 0.0, 2024-01-16 19:20:29.067
46.0, -327.91442811489105, -514.8495875000954, -319.53705221414566, -65.58288562297821, -0.04800000227987766, -0.2240000106394291, 0.9760000463575125, 0.0, 0.0, 0.0, 0.0, 0.0, 1.705450829067494E9, 0.0, 2024-01-16 19:20:29.067
47.0, -400.43856805562973, -522.9876098036766, -314.27127307653427, -192.44029211997986, -0.04800000227987766, -0.2240000106394291, 0.9760000463575125, 0.0, 0.0, 0.0, 0.0, 0.0, 1.705450829081085E9, 0.0, 2024-01-16 19:20:29.081
47.0, -454.53248101472855, -509.82316195964813, -287.22431659698486, -172.33458995819092, -0.04800000227987766, -0.2240000106394291, 0.9760000463575125, 0.0, 0.0, 0.0, 0.0, 0.0, 1.705450829081085E9, 0.0, 2024-01-16 19:20:29.081
48.0, -349.69560545682907, -514.8495875000954, -316.1861018538475, -61.03516727685928, -0.04800000227987766, -0.2240000106394291, 0.9760000463575125, 0.0, 0.0, 0.0, 0.0, 0.0, 1.7054508290968184E9, 0.0, 2024-01-16 19:20:29.096
48.0, -364.29617488384247, -531.8436928987503, -320.2551130056381, -154.86177736520767, -0.04800000227987766, -0.2240000106394291, 0.9760000463575125, 0.0, 0.0, 0.0, 0.0, 0.0, 1.7054508290968184E9, 0.0, 2024-01-16 19:20:29.096
49.0, -451.6602378487587, -506.9509187936783, -304.93648278713226, -203.6899111866951, -0.04800000227987766, -0.2240000106394291, 0.9760000463575125, 0.0, 0.0, 0.0, 0.0, 0.0, 1.7054508290974348E9, 0.0, 2024-01-16 19:20:29.097
49.0, -378.1786835193634, -505.03609001636505, -300.6281180381775, -78.98668706417084, -0.04800000227987766, -0.2240000106394291, 0.9760000463575125, 0.0, 0.0, 0.0, 0.0, 0.0, 1.7054508290974348E9, 0.0, 2024-01-16 19:20:29.097
50.0, -337.72792559862137, -533.5191680788994, -331.7440856695175, -112.4961906671524, -0.04800000227987766, -0.2240000106394291, 0.9760000463575125, 0.0, 0.0, 0.0, 0.0, 0.0, 1.7054508291111367E9, 0.0, 2024-01-16 19:20:29.111
50.0, -430.357767701149, -514.1315267086029, -310.9203227162361, -209.67375111579895, -0.04800000227987766, -0.2240000106394291, 0.9760000463575125, 0.0, 0.0, 0.0, 0.0, 0.0, 1.7054508291111367E9, 0.0, 2024-01-16 19:20:29.111
51.0, -410.0127119421959, -489.2387526035309, -303.50036120414734, -112.25683706998825, -0.04800000227987766, -0.2240000106394291, 0.9760000463575125, 0.0, 0.0, 0.0, 0.0, 0.0, 1.7054508291272962E9, 0.0, 2024-01-16 19:20:29.127
51.0, -315.2286874651909, -503.5999684333801, -316.42545545101166, -61.03516727685928, -0.04800000227987766, -0.2240000106394291, 0.9760000463575125, 0.0, 0.0, 0.0, 0.0, 0.0, 1.7054508291272962E9, 0.0, 2024-01-16 19:20:29.127
52.0, -388.470888197422, -513.8921731114388, -310.4416155219078, -189.56804895401, -0.04800000227987766, -0.2240000106394291, 0.9760000463575125, 0.0, 0.0, 0.0, 0.0, 0.0, 1.7054508291275847E9, 0.0, 2024-01-16 19:20:29.127
52.0, -431.3151820898056, -489.95681339502335, -287.70302379131317, -160.84561729431152, -0.04800000227987766, -0.2240000106394291, 0.9760000463575125, 0.0, 0.0, 0.0, 0.0, 0.0, 1.7054508291275847E9, 0.0, 2024-01-16 19:20:29.127
53.0, -335.81309682130814, -503.360614836216, -307.56937235593796, -52.41843777894974, -0.04800000227987766, -0.2240000106394291, 0.9760000463575125, 0.0, 0.0, 0.0, 0.0, 0.0, 1.7054508291416757E9, 0.0, 2024-01-16 19:20:29.141
53.0, -350.1743126511574, -512.2166979312897, -323.84541696310043, -140.73991513252258, -0.04800000227987766, -0.2240000106394291, 0.9760000463575125, 0.0, 0.0, 0.0, 0.0, 0.0, 1.7054508291416757E9, 0.0, 2024-01-16 19:20:29.141
54.0, -448.78799468278885, -509.583808362484, -293.2081565260887, -209.4343975186348, -0.04800000227987766, -0.2240000106394291, 0.9760000463575125, 0.0, 0.0, 0.0, 0.0, 0.0, 1.7054508291569014E9, 0.0, 2024-01-16 19:20:29.156
54.0, -377.6999763250351, -501.2064324617386, -300.86747163534164, -84.25246620178223, -0.04800000227987766, -0.2240000106394291, 0.9760000463575125, 0.0, 0.0, 0.0, 0.0, 0.0, 1.7054508291569014E9, 0.0, 2024-01-16 19:20:29.156
55.0, -336.5311576128006, -525.141792178154, -336.0524504184723, -118.71938419342041, -0.04800000227987766, -0.2240000106394291, 0.9760000463575125, 0.0, 0.0, 0.0, 0.0, 0.0, 1.7054508291575394E9, 0.0, 2024-01-16 19:20:29.157
55.0, -432.2725964784622, -520.5940738320351, -311.3990299105644, -225.94979572296143, -0.04800000227987766, -0.2240000106394291, 0.9760000463575125, 0.0, 0.0, 0.0, 0.0, 0.0, 1.7054508291575394E9, 0.0, 2024-01-16 19:20:29.157
56.0, -415.7571982741356, -501.92449325323105, -294.16557091474533, -125.89999210834503, -0.04800000227987766, -0.2240000106394291, 0.9760000463575125, 0.0, 0.0, 0.0, 0.0, 0.0, 1.705450829171291E9, 0.0, 2024-01-16 19:20:29.171
56.0, -333.4195608496666, -520.8334274291992, -320.9731737971306, -73.24220073223114, -0.04800000227987766, -0.2240000106394291, 0.9760000463575125, 0.0, 0.0, 0.0, 0.0, 0.0, 1.705450829171291E9, 0.0, 2024-01-16 19:20:29.171
57.0, -398.0450320839882, -521.7908418178558, -321.4518809914589, -197.22736406326294, -0.04800000227987766, -0.2240000106394291, 0.9760000463575125, 0.0, 0.0, 0.0, 0.0, 0.0, 1.705450829186885E9, 0.0, 2024-01-16 19:20:29.186
57.0, -441.1286795735359, -501.2064324617386, -292.96880292892456, -169.46234679222107, -0.04800000227987766, -0.2240000106394291, 0.9760000463575125, 0.0, 0.0, 0.0, 0.0, 0.0, 1.705450829186885E9, 0.0, 2024-01-16 19:20:29.186
58.0, -340.36081516742706, -506.9509187936783, -311.3990299105644, -59.59904569387436, -0.04800000227987766, -0.2240000106394291, 0.9760000463575125, 0.0, 0.0, 0.0, 0.0, 0.0, 1.7054508291874607E9, 0.0, 2024-01-16 19:20:29.187
58.0, -356.15815258026123, -519.1579522490501, -324.5634777545929, -153.42565578222275, -0.04800000227987766, -0.2240000106394291, 0.9760000463575125, 0.0, 0.0, 0.0, 0.0, 0.0, 1.7054508291874607E9, 0.0, 2024-01-16 19:20:29.187
59.0, -447.5912266969681, -509.82316195964813, -309.0054939389229, -211.34922629594803, -0.04800000227987766, -0.2240000106394291, 0.9760000463575125, 0.0, 0.0, 0.0, 0.0, 0.0, 1.7054508292174795E9, 0.0, 2024-01-16 19:20:29.217
59.0, -374.1096723675728, -500.24901807308197, -298.9526428580284, -82.8163446187973, -0.04800000227987766, -0.2240000106394291, 0.9760000463575125, 0.0, 0.0, 0.0, 0.0, 0.0, 1.7054508292174795E9, 0.0, 2024-01-16 19:20:29.217
60.0, -327.1963673233986, -517.2431234717369, -323.12735617160797, -109.86330109834671, -0.04800000227987766, -0.2240000106394291, 0.9760000463575125, 0.0, 0.0, 0.0, 0.0, 0.0, 1.705450829218174E9, 0.0, 2024-01-16 19:20:29.218
60.0, -418.8687950372696, -504.3180292248726, -305.6545435786247, -212.30664068460464, -0.04800000227987766, -0.2240000106394291, 0.9760000463575125, 0.0, 0.0, 0.0, 0.0, 0.0, 1.705450829218174E9, 0.0, 2024-01-16 19:20:29.218
61.0, -414.0817230939865, -500.24901807308197, -290.0965597629547, -123.26710253953934, -0.04800000227987766, -0.2240000106394291, 0.9760000463575125, 0.0, 0.0, 0.0, 0.0, 0.0, 1.7054508292189045E9, 0.0, 2024-01-16 19:20:29.218
61.0, -319.2976986169815, -503.5999684333801, -319.05834501981735, -67.97642159461975, -0.04800000227987766, -0.2240000106394291, 0.9760000463575125, 0.0, 0.0, 0.0, 0.0, 0.0, 1.7054508292189045E9, 0.0, 2024-01-16 19:20:29.218
62.0, -388.2315346002579, -509.583808362484, -314.5106266736984, -187.17451298236847, -0.04800000227987766, -0.2240000106394291, 0.9760000463575125, 0.0, 0.0, 0.0, 0.0, 0.0, 1.7054508292310617E9, 0.0, 2024-01-16 19:20:29.231
62.0, -441.1286795735359, -497.6161285042763, -292.96880292892456, -158.9307885169983, -0.04800000227987766, -0.2240000106394291, 0.9760000463575125, 0.0, 0.0, 0.0, 0.0, 0.0, 1.7054508292310617E9, 0.0, 2024-01-16 19:20:29.231
63.0, -347.5414230823517, -516.2857090830803, -317.6222234368324, -61.753228068351746, -0.04800000227987766, -0.2240000106394291, 0.9760000463575125, 0.0, 0.0, 0.0, 0.0, 0.0, 1.7054508292474654E9, 0.0, 2024-01-16 19:20:29.247
63.0, -360.70587092638016, -524.1843777894974, -320.73382019996643, -149.35664463043213, -0.04800000227987766, -0.2240000106394291, 0.9760000463575125, 0.0, 0.0, 0.0, 0.0, 0.0, 1.7054508292474654E9, 0.0, 2024-01-16 19:20:29.247
64.0, -453.57506662607193, -502.1638468503952, -293.9262173175812, -206.08344715833664, -0.04800000227987766, -0.2240000106394291, 0.9760000463575125, 0.0, 0.0, 0.0, 0.0, 0.0, 1.7054508292622993E9, 0.0, 2024-01-16 19:20:29.262
64.0, -377.46062272787094, -497.85548210144043, -304.6971291899681, -83.29505181312561, -0.04800000227987766, -0.2240000106394291, 0.9760000463575125, 0.0, 0.0, 0.0, 0.0, 0.0, 1.7054508292622993E9, 0.0, 2024-01-16 19:20:29.262
65.0, -326.95701372623444, -513.6528195142746, -315.46804106235504, -104.35816836357117, -0.04800000227987766, -0.2240000106394291, 0.9760000463575125, 0.0, 0.0, 0.0, 0.0, 0.0, 1.705450829262506E9, 0.0, 2024-01-16 19:20:29.262
65.0, -420.54427021741867, -501.44578605890274, -299.6707036495209, -202.97185039520264, -0.04800000227987766, -0.2240000106394291, 0.9760000463575125, 0.0, 0.0, 0.0, 0.0, 0.0, 1.705450829262506E9, 0.0, 2024-01-16 19:20:29.262
66.0, -401.87468963861465, -484.9303878545761, -289.6178525686264, -113.21425145864487, -0.04800000227987766, -0.2240000106394291, 0.9760000463575125, 0.0, 0.0, 0.0, 0.0, 0.0, 1.7054508292771895E9, 0.0, 2024-01-16 19:20:29.277
66.0, -306.13325077295303, -492.8290565609932, -296.08039969205856, -54.33326655626297, -0.04800000227987766, -0.2240000106394291, 0.9760000463575125, 0.0, 0.0, 0.0, 0.0, 0.0, 1.7054508292771895E9, 0.0, 2024-01-16 19:20:29.277
67.0, -375.78514754772186, -500.7277252674103, -310.4416155219078, -179.7545514702797, -0.04800000227987766, -0.2240000106394291, 0.9760000463575125, 0.0, 0.0, 0.0, 0.0, 0.0, 1.7054508292918892E9, 0.0, 2024-01-16 19:20:29.291
67.0, -427.48552453517914, -480.8613767027855, -290.0965597629547, -154.62242376804352, -0.04800000227987766, -0.2240000106394291, 0.9760000463575125, 0.0, 0.0, 0.0, 0.0, 0.0, 1.7054508292918892E9, 0.0, 2024-01-16 19:20:29.291
68.0, -336.29180401563644, -497.13742130994797, -306.3726043701172, -55.290680944919586, -0.04800000227987766, -0.2240000106394291, 0.9760000463575125, 0.0, 0.0, 0.0, 0.0, 0.0, 1.705450829292439E9, 0.0, 2024-01-16 19:20:29.292
68.0, -353.2859094142914, -512.4560515284538, -315.46804106235504, -146.48440146446228, -0.04800000227987766, -0.2240000106394291, 0.9760000463575125, 0.0, 0.0, 0.0, 0.0, 0.0, 1.705450829292439E9, 0.0, 2024-01-16 19:20:29.292
69.0, -438.97449719905853, -492.8290565609932, -287.9423773884773, -201.5357288122177, -0.04800000227987766, -0.2240000106394291, 0.9760000463575125, 0.0, 0.0, 0.0, 0.0, 0.0, 1.7054508293067837E9, 0.0, 2024-01-16 19:20:29.306
69.0, -366.2110036611557, -490.43552058935165, -289.37849897146225, -74.43896871805191, -0.04800000227987766, -0.2240000106394291, 0.9760000463575125, 0.0, 0.0, 0.0, 0.0, 0.0, 1.7054508293067837E9, 0.0, 2024-01-16 19:20:29.306
70.0, -316.42545545101166, -503.360614836216, -304.93648278713226, -93.82661008834839, -0.04800000227987766, -0.2240000106394291, 0.9760000463575125, 0.0, 0.0, 0.0, 0.0, 0.0, 1.705450829307422E9, 0.0, 2024-01-16 19:20:29.307
70.0, -406.1830543875694, -491.6322885751724, -289.1391453742981, -197.4667176604271, -0.04800000227987766, -0.2240000106394291, 0.9760000463575125, 0.0, 0.0, 0.0, 0.0, 0.0, 1.705450829307422E9, 0.0, 2024-01-16 19:20:29.307
71.0, -391.58248496055603, -470.808525621891, -278.6075870990753, -109.3845939040184, -0.04800000227987766, -0.2240000106394291, 0.9760000463575125, 0.0, 0.0, 0.0, 0.0, 0.0, 1.7054508293213007E9, 0.0, 2024-01-16 19:20:29.321
71.0, -302.5429468154907, -491.6322885751724, -303.97906839847565, -54.33326655626297, -0.04800000227987766, -0.2240000106394291, 0.9760000463575125, 0.0, 0.0, 0.0, 0.0, 0.0, 1.7054508293213007E9, 0.0, 2024-01-16 19:20:29.321
72.0, -371.9554899930954, -494.7438853383064, -301.5855324268341, -176.88230830430984, -0.04800000227987766, -0.2240000106394291, 0.9760000463575125, 0.0, 0.0, 0.0, 0.0, 0.0, 1.705450829337543E9, 0.0, 2024-01-16 19:20:29.337
72.0, -423.4165133833885, -478.46784073114395, -285.5488414168358, -150.0747054219246, -0.04800000227987766, -0.2240000106394291, 0.9760000463575125, 0.0, 0.0, 0.0, 0.0, 0.0, 1.705450829337543E9, 0.0, 2024-01-16 19:20:29.337
73.0, -333.8982680439949, -496.8980677127838, -302.0642396211624, -51.93973058462143, -0.04800000227987766, -0.2240000106394291, 0.9760000463575125, 0.0, 0.0, 0.0, 0.0, 0.0, 1.7054508293382547E9, 0.0, 2024-01-16 19:20:29.338
73.0, -349.9349590539932, -515.5676482915878, -320.4944666028023, -143.13345110416412, -0.04800000227987766, -0.2240000106394291, 0.9760000463575125, 0.0, 0.0, 0.0, 0.0, 0.0, 1.7054508293382547E9, 0.0, 2024-01-16 19:20:29.338
74.0, -439.2138507962227, -494.02582454681396, -285.0701342225075, -195.79124248027802, -0.04800000227987766, -0.2240000106394291, 0.9760000463575125, 0.0, 0.0, 0.0, 0.0, 0.0, 1.7054508293515549E9, 0.0, 2024-01-16 19:20:29.351
74.0, -363.0994068980217, -484.9303878545761, -283.63401263952255, -72.76349353790283, -0.04800000227987766, -0.2240000106394291, 0.9760000463575125, 0.0, 0.0, 0.0, 0.0, 0.0, 1.7054508293515549E9, 0.0, 2024-01-16 19:20:29.351
75.0, -314.98933386802673, -500.4883716702461, -316.1861018538475, -100.5285108089447, -0.04800000227987766, -0.2240000106394291, 0.9760000463575125, 0.0, 0.0, 0.0, 0.0, 0.0, 1.7054508293667924E9, 0.0, 2024-01-16 19:20:29.366
75.0, -396.8482640981674, -484.9303878545761, -297.75587487220764, -202.01443600654602, -0.04800000227987766, -0.2240000106394291, 0.9760000463575125, 0.0, 0.0, 0.0, 0.0, 0.0, 1.7054508293667924E9, 0.0, 2024-01-16 19:20:29.366
76.0, -394.69408172369003, -481.3400838971138, -287.22431659698486, -112.4961906671524, -0.04800000227987766, -0.2240000106394291, 0.9760000463575125, 0.0, 0.0, 0.0, 0.0, 0.0, 1.705450829367494E9, 0.0, 2024-01-16 19:20:29.367
76.0, -308.7661403417587, -497.3767749071121, -307.09066516160965, -56.2480953335762, -0.04800000227987766, -0.2240000106394291, 0.9760000463575125, 0.0, 0.0, 0.0, 0.0, 0.0, 1.705450829367494E9, 0.0, 2024-01-16 19:20:29.367
77.0, -365.49294286966324, -491.6322885751724, -309.9629083275795, -175.92489391565323, -0.04800000227987766, -0.2240000106394291, 0.9760000463575125, 0.0, 0.0, 0.0, 0.0, 0.0, 1.7054508293814197E9, 0.0, 2024-01-16 19:20:29.381
77.0, -426.7674637436867, -478.46784073114395, -280.7617694735527, -154.86177736520767, -0.04800000227987766, -0.2240000106394291, 0.9760000463575125, 0.0, 0.0, 0.0, 0.0, 0.0, 1.7054508293814197E9, 0.0, 2024-01-16 19:20:29.381
78.0, -334.8556824326515, -497.3767749071121, -313.79256588220596, -55.769388139247894, -0.04800000227987766, -0.2240000106394291, 0.9760000463575125, 0.0, 0.0, 0.0, 0.0, 0.0, 1.7054508293972673E9, 0.0, 2024-01-16 19:20:29.397
78.0, -351.131727039814, -520.3547202348709, -320.01575940847397, -150.5534126162529, -0.04800000227987766, -0.2240000106394291, 0.9760000463575125, 0.0, 0.0, 0.0, 0.0, 0.0, 1.7054508293972673E9, 0.0, 2024-01-16 19:20:29.397
79.0, -444.71898353099823, -503.1212612390518, -311.3990299105644, -210.15245831012726, -0.04800000227987766, -0.2240000106394291, 0.9760000463575125, 0.0, 0.0, 0.0, 0.0, 0.0, 1.705450829428402E9, 0.0, 2024-01-16 19:20:29.428
79.0, -372.67355078458786, -494.2651781439781, -293.9262173175812, -77.0718582868576, -0.04800000227987766, -0.2240000106394291, 0.9760000463575125, 0.0, 0.0, 0.0, 0.0, 0.0, 1.705450829428402E9, 0.0, 2024-01-16 19:20:29.428
80.0, -325.9995993375778, -511.73799073696136, -320.01575940847397, -101.48592519760132, -0.04800000227987766, -0.2240000106394291, 0.9600000455975533, 0.0, 0.0, 0.0, 0.0, 0.0, 1.7054508294289875E9, 0.0, 2024-01-16 19:20:29.428
80.0, -423.6558669805527, -511.4986371397972, -304.93648278713226, -214.93953025341034, -0.04800000227987766, -0.2240000106394291, 0.9600000455975533, 0.0, 0.0, 0.0, 0.0, 0.0, 1.7054508294289875E9, 0.0, 2024-01-16 19:20:29.428
81.0, -414.0817230939865, -499.5309572815895, -304.45777559280396, -127.81482088565826, -0.04800000227987766, -0.2400000113993883, 0.9600000455975533, 0.0, 0.0, 0.0, 0.0, 0.0, 1.7054508294431903E9, 0.0, 2024-01-16 19:20:29.443
81.0, -324.32412415742874, -511.0199299454689, -315.7073946595192, -70.8486647605896, -0.04800000227987766, -0.2400000113993883, 0.9600000455975533, 0.0, 0.0, 0.0, 0.0, 0.0, 1.7054508294431903E9, 0.0, 2024-01-16 19:20:29.443
82.0, -387.5134738087654, -511.25928354263306, -325.76024574041367, -193.87641370296478, -0.04800000227987766, -0.2400000113993883, 0.9600000455975533, 0.0, 0.0, 0.0, 0.0, 0.0, 1.7054508294438531E9, 0.0, 2024-01-16 19:20:29.443
82.0, -439.45320439338684, -505.03609001636505, -300.86747163534164, -176.6429547071457, -0.04800000227987766, -0.2400000113993883, 0.9600000455975533, 0.0, 0.0, 0.0, 0.0, 0.0, 1.7054508294438531E9, 0.0, 2024-01-16 19:20:29.443
83.0, -348.9775446653366, -509.583808362484, -317.8615770339966, -70.13060396909714, -0.04800000227987766, -0.2400000113993883, 0.9600000455975533, 0.0, 0.0, 0.0, 0.0, 0.0, 1.7054508294445791E9, 0.0, 2024-01-16 19:20:29.444
83.0, -362.6206997036934, -529.4501569271088, -343.47241193056107, -159.64884930849075, -0.04800000227987766, -0.2400000113993883, 0.9600000455975533, 0.0, 0.0, 0.0, 0.0, 0.0, 1.7054508294445791E9, 0.0, 2024-01-16 19:20:29.444
84.0, -447.5912266969681, -513.1741123199463, -316.1861018538475, -211.58857989311218, -0.04800000227987766, -0.2400000113993883, 0.9600000455975533, 0.0, 0.0, 0.0, 0.0, 0.0, 1.7054508294453764E9, 0.0, 2024-01-16 19:20:29.445
84.0, -385.5986450314522, -505.51479721069336, -317.1435162425041, -90.47565972805023, -0.04800000227987766, -0.2400000113993883, 0.9600000455975533, 0.0, 0.0, 0.0, 0.0, 0.0, 1.7054508294453764E9, 0.0, 2024-01-16 19:20:29.445
85.0, -338.2066327929497, -526.5779137611389, -329.58990329504013, -112.73554426431656, -0.04800000227987766, -0.2400000113993883, 0.9600000455975533, 0.0, 0.0, 0.0, 0.0, 0.0, 1.7054508294560528E9, 0.0, 2024-01-16 19:20:29.456
85.0, -416.7146126627922, -503.5999684333801, -319.2976986169815, -204.64732557535172, -0.04800000227987766, -0.2400000113993883, 0.9600000455975533, 0.0, 0.0, 0.0, 0.0, 0.0, 1.7054508294560528E9, 0.0, 2024-01-16 19:20:29.456
86.0, -397.5663248896599, -481.57943749427795, -286.26690220832825, -114.88972663879395, -0.04800000227987766, -0.2400000113993883, 0.9600000455975533, 0.0, 0.0, 0.0, 0.0, 0.0, 1.7054508294710927E9, 0.0, 2024-01-16 19:20:29.471
86.0, -311.87773710489273, -496.4193605184555, -317.3828698396683, -65.1041784286499, -0.04800000227987766, -0.2400000113993883, 0.9600000455975533, 0.0, 0.0, 0.0, 0.0, 0.0, 1.7054508294710927E9, 0.0, 2024-01-16 19:20:29.471
87.0, -373.6309651732445, -500.7277252674103, -308.5267867445946, -183.8235626220703, -0.04800000227987766, -0.2400000113993883, 0.9600000455975533, 0.0, 0.0, 0.0, 0.0, 0.0, 1.705450829487028E9, 0.0, 2024-01-16 19:20:29.487
87.0, -419.8262094259262, -479.1859015226364, -283.8733662366867, -156.7766061425209, -0.04800000227987766, -0.2400000113993883, 0.9600000455975533, 0.0, 0.0, 0.0, 0.0, 0.0, 1.705450829487028E9, 0.0, 2024-01-16 19:20:29.487
88.0, -332.9408536553383, -493.06841015815735, -293.9262173175812, -49.54619461297989, -0.04800000227987766, -0.2400000113993883, 0.9600000455975533, 0.0, 0.0, 0.0, 0.0, 0.0, 1.705450829487522E9, 0.0, 2024-01-16 19:20:29.487
88.0, -351.131727039814, -518.4398914575577, -312.1170907020569, -145.52698707580566, -0.04800000227987766, -0.2400000113993883, 0.9600000455975533, 0.0, 0.0, 0.0, 0.0, 0.0, 1.705450829487522E9, 0.0, 2024-01-16 19:20:29.487
89.0, -436.580961227417, -504.3180292248726, -301.1068252325058, -206.8015079498291, -0.04800000227987766, -0.2400000113993883, 0.9600000455975533, 0.0, 0.0, 0.0, 0.0, 0.0, 1.705450829501104E9, 0.0, 2024-01-16 19:20:29.501
89.0, -383.9231698513031, -501.2064324617386, -303.2610076069832, -88.560830950737, -0.04800000227987766, -0.2400000113993883, 0.9600000455975533, 0.0, 0.0, 0.0, 0.0, 0.0, 1.705450829501104E9, 0.0, 2024-01-16 19:20:29.501
90.0, -346.3446550965309, -524.4237313866615, -342.99370473623276, -114.88972663879395, -0.04800000227987766, -0.2400000113993883, 0.9760000463575125, 0.0, 0.0, 0.0, 0.0, 0.0, 1.705450829517044E9, 0.0, 2024-01-16 19:20:29.517
90.0, -426.28875654935837, -513.6528195142746, -308.2874331474304, -214.70017665624619, -0.04800000227987766, -0.2400000113993883, 0.9760000463575125, 0.0, 0.0, 0.0, 0.0, 0.0, 1.705450829517044E9, 0.0, 2024-01-16 19:20:29.517
91.0, -422.4590989947319, -509.583808362484, -303.97906839847565, -131.40512484312057, -0.04800000227987766, -0.2240000106394291, 0.9760000463575125, 0.0, 0.0, 0.0, 0.0, 0.0, 1.7054508295174613E9, 0.0, 2024-01-16 19:20:29.517
91.0, -337.9672791957855, -524.1843777894974, -338.685339987278, -78.02927267551422, -0.04800000227987766, -0.2240000106394291, 0.9760000463575125, 0.0, 0.0, 0.0, 0.0, 0.0, 1.7054508295174613E9, 0.0, 2024-01-16 19:20:29.517
92.0, -394.69408172369003, -527.2959745526314, -325.76024574041367, -187.65322017669678, -0.06400000303983688, -0.2240000106394291, 0.9760000463575125, 0.0, 0.0, 0.0, 0.0, 0.0, 1.705450829547855E9, 0.0, 2024-01-16 19:20:29.547
92.0, -430.59712129831314, -493.7864709496498, -303.50036120414734, -161.80303168296814, -0.06400000303983688, -0.2240000106394291, 0.9760000463575125, 0.0, 0.0, 0.0, 0.0, 0.0, 1.705450829547855E9, 0.0, 2024-01-16 19:20:29.547
93.0, -342.99370473623276, -497.85548210144043, -306.61195796728134, -60.31710648536682, -0.06400000303983688, -0.2240000106394291, 0.9760000463575125, 0.0, 0.0, 0.0, 0.0, 0.0, 1.7054508295486157E9, 0.0, 2024-01-16 19:20:29.548
93.0, -352.0891414284706, -516.0463554859161, -318.3402842283249, -149.59599822759628, -0.06400000303983688, -0.2240000106394291, 0.9760000463575125, 0.0, 0.0, 0.0, 0.0, 0.0, 1.7054508295486157E9, 0.0, 2024-01-16 19:20:29.548
94.0, -439.93191158771515, -499.5309572815895, -300.38876444101334, -204.88667917251587, -0.06400000303983688, -0.2240000106394291, 0.9760000463575125, 0.0, 0.0, 0.0, 0.0, 0.0, 1.705450829578154E9, 0.0, 2024-01-16 19:20:29.578
94.0, -374.82773315906525, -488.5206918120384, -292.01138854026794, -74.43896871805191, -0.06400000303983688, -0.2240000106394291, 0.9760000463575125, 0.0, 0.0, 0.0, 0.0, 0.0, 1.705450829578154E9, 0.0, 2024-01-16 19:20:29.578
95.0, -325.5208921432495, -515.5676482915878, -317.3828698396683, -106.03364354372025, -0.06400000303983688, -0.2240000106394291, 0.9760000463575125, 0.0, 0.0, 0.0, 0.0, 0.0, 1.7054508295788205E9, 0.0, 2024-01-16 19:20:29.578
95.0, -415.99655187129974, -504.7967364192009, -298.9526428580284, -206.56215435266495, -0.06400000303983688, -0.2240000106394291, 0.9760000463575125, 0.0, 0.0, 0.0, 0.0, 0.0, 1.7054508295788205E9, 0.0, 2024-01-16 19:20:29.578
96.0, -400.91727524995804, -481.10073029994965, -290.33591336011887, -114.41101944446564, -0.06400000303983688, -0.2240000106394291, 0.9760000463575125, 0.0, 0.0, 0.0, 0.0, 0.0, 1.7054508295933733E9, 0.0, 2024-01-16 19:20:29.593
96.0, -317.8615770339966, -503.5999684333801, -314.5106266736984, -69.89125037193298, -0.06400000303983688, -0.2240000106394291, 0.9760000463575125, 0.0, 0.0, 0.0, 0.0, 0.0, 1.7054508295933733E9, 0.0, 2024-01-16 19:20:29.593
97.0, -375.5457939505577, -506.71156519651413, -311.15967631340027, -188.6106345653534, -0.06400000303983688, -0.2240000106394291, 0.9760000463575125, 0.0, 0.0, 0.0, 0.0, 0.0, 1.7054508295939395E9, 0.0, 2024-01-16 19:20:29.593
97.0, -423.17715978622437, -482.05814468860626, -292.01138854026794, -164.91462844610214, -0.06400000303983688, -0.2240000106394291, 0.9760000463575125, 0.0, 0.0, 0.0, 0.0, 0.0, 1.7054508295939395E9, 0.0, 2024-01-16 19:20:29.593
98.0, -338.92469358444214, -497.6161285042763, -306.3726043701172, -66.54030001163483, -0.06400000303983688, -0.2240000106394291, 0.9760000463575125, 0.0, 0.0, 0.0, 0.0, 0.0, 1.7054508295947094E9, 0.0, 2024-01-16 19:20:29.594
98.0, -346.8233622908592, -506.71156519651413, -318.10093063116074, -140.50056153535843, -0.06400000303983688, -0.2240000106394291, 0.9760000463575125, 0.0, 0.0, 0.0, 0.0, 0.0, 1.7054508295947094E9, 0.0, 2024-01-16 19:20:29.594
99.0, -432.9906572699547, -495.9406533241272, -292.7294493317604, -197.9454248547554, -0.06400000303983688, -0.2240000106394291, 0.9760000463575125, 0.0, 0.0, 0.0, 0.0, 0.0, 1.7054508295955148E9, 0.0, 2024-01-16 19:20:29.595
99.0, -375.30644035339355, -492.11099576950073, -294.64427810907364, -85.20988059043884, -0.06400000303983688, -0.2240000106394291, 0.9760000463575125, 0.0, 0.0, 0.0, 0.0, 0.0, 1.7054508295955148E9, 0.0, 2024-01-16 19:20:29.595
0.0, -415.2784910798073, -507.19027239084244, -300.38876444101334, -203.6899111866951, -0.06400000303983688, -0.2240000106394291, 0.9600000455975533, 0.0, 0.0, 0.0, 0.0, 0.0, 1.7054508296222265E9, 0.0, 2024-01-16 19:20:29.622
0.0, -397.0876176953316, -478.94654792547226, -284.8307806253433, -120.15550577640533, -0.06400000303983688, -0.2240000106394291, 0.9600000455975533, 0.0, 0.0, 0.0, 0.0, 0.0, 1.7054508296222265E9, 0.0, 2024-01-16 19:20:29.622
1.0, -309.9629083275795, -496.8980677127838, -300.38876444101334, -67.49771440029144, -0.06400000303983688, -0.2240000106394291, 0.9600000455975533, 0.0, 0.0, 0.0, 0.0, 0.0, 1.7054508296225672E9, 0.0, 2024-01-16 19:20:29.622
1.0, -370.7587220072746, -502.88190764188766, -302.7823004126549, -177.83972269296646, -0.06400000303983688, -0.2240000106394291, 0.9600000455975533, 0.0, 0.0, 0.0, 0.0, 0.0, 1.7054508296225672E9, 0.0, 2024-01-16 19:20:29.622
2.0, -421.9803918004036, -483.73361986875534, -286.5062558054924, -156.2978989481926, -0.04800000227987766, -0.2240000106394291, 0.9600000455975533, 0.0, 0.0, 0.0, 0.0, 0.0, 1.705450829636083E9, 0.0, 2024-01-16 19:20:29.636
2.0, -342.7543511390686, -503.5999684333801, -308.5267867445946, -59.83839929103851, -0.04800000227987766, -0.2240000106394291, 0.9600000455975533, 0.0, 0.0, 0.0, 0.0, 0.0, 1.705450829636083E9, 0.0, 2024-01-16 19:20:29.636
3.0, -360.466517329216, -523.2269634008408, -327.91442811489105, -151.98953419923782, -0.04800000227987766, -0.2240000106394291, 0.9600000455975533, 0.0, 0.0, 0.0, 0.0, 0.0, 1.7054508296520696E9, 0.0, 2024-01-16 19:20:29.652
3.0, -438.97449719905853, -501.44578605890274, -303.2610076069832, -211.58857989311218, -0.04800000227987766, -0.2240000106394291, 0.9600000455975533, 0.0, 0.0, 0.0, 0.0, 0.0, 1.7054508296520696E9, 0.0, 2024-01-16 19:20:29.652
4.0, -374.82773315906525, -488.7600454092026, -290.0965597629547, -85.68858778476715, -0.04800000227987766, -0.2240000106394291, 0.9600000455975533, 0.0, 0.0, 0.0, 0.0, 0.0, 1.7054508296526463E9, 0.0, 2024-01-16 19:20:29.652
4.0, -336.29180401563644, -512.9347587227821, -325.5208921432495, -113.93231225013733, -0.04800000227987766, -0.2240000106394291, 0.9600000455975533, 0.0, 0.0, 0.0, 0.0, 0.0, 1.7054508296526463E9, 0.0, 2024-01-16 19:20:29.652
5.0, -420.54427021741867, -510.30186915397644, -309.4842011332512, -208.71633672714233, -0.04800000227987766, -0.2240000106394291, 0.9600000455975533, 0.0, 0.0, 0.0, 0.0, 0.0, 1.705450829666299E9, 0.0, 2024-01-16 19:20:29.666
5.0, -398.76309287548065, -483.9729734659195, -282.67659825086594, -113.93231225013733, -0.04800000227987766, -0.2240000106394291, 0.9600000455975533, 0.0, 0.0, 0.0, 0.0, 0.0, 1.705450829666299E9, 0.0, 2024-01-16 19:20:29.666
6.0, -314.27127307653427, -498.81289649009705, -308.04807955026627, -59.83839929103851, -0.04800000227987766, -0.2240000106394291, 0.9600000455975533, 0.0, 0.0, 0.0, 0.0, 0.0, 1.705450829682058E9, 0.0, 2024-01-16 19:20:29.682
6.0, -373.3916115760803, -497.3767749071121, -314.0319194793701, -175.44618672132492, -0.04800000227987766, -0.2240000106394291, 0.9600000455975533, 0.0, 0.0, 0.0, 0.0, 0.0, 1.705450829682058E9, 0.0, 2024-01-16 19:20:29.682
7.0, -426.28875654935837, -478.94654792547226, -284.11271983385086, -150.0747054219246, -0.04800000227987766, -0.2240000106394291, 0.9600000455975533, 0.0, 0.0, 0.0, 0.0, 0.0, 1.7054508296830049E9, 0.0, 2024-01-16 19:20:29.683
7.0, -336.5311576128006, -489.47810620069504, -297.5165212750435, -56.487448930740356, -0.04800000227987766, -0.2240000106394291, 0.9600000455975533, 0.0, 0.0, 0.0, 0.0, 0.0, 1.7054508296830049E9, 0.0, 2024-01-16 19:20:29.683
8.0, -341.3182295560837, -499.5309572815895, -317.8615770339966, -138.82508635520935, -0.04800000227987766, -0.2240000106394291, 0.9600000455975533, 0.0, 0.0, 0.0, 0.0, 0.0, 1.7054508296962845E9, 0.0, 2024-01-16 19:20:29.696
8.0, -425.5706957578659, -486.6058630347252, -281.9585374593735, -188.84998816251755, -0.04800000227987766, -0.2240000106394291, 0.9600000455975533, 0.0, 0.0, 0.0, 0.0, 0.0, 1.7054508296962845E9, 0.0, 2024-01-16 19:20:29.696
9.0, -362.86005330085754, -478.46784073114395, -279.8043550848961, -74.19961512088776, -0.04800000227987766, -0.2240000106394291, 0.9600000455975533, 0.0, 0.0, 0.0, 0.0, 0.0, 1.7054508297123044E9, 0.0, 2024-01-16 19:20:29.712
9.0, -320.4944666028023, -499.29160368442535, -315.7073946595192, -99.09238922595978, -0.04800000227987766, -0.2240000106394291, 0.9600000455975533, 0.0, 0.0, 0.0, 0.0, 0.0, 1.7054508297123044E9, 0.0, 2024-01-16 19:20:29.712
10.0, -411.9275407195091, -497.13742130994797, -295.8410460948944, -204.1686183810234, -0.04800000227987766, -0.2240000106394291, 0.9760000463575125, 0.0, 0.0, 0.0, 0.0, 0.0, 1.7054508297125647E9, 0.0, 2024-01-16 19:20:29.712
10.0, -407.61917597055435, -487.5632774233818, -292.7294493317604, -121.11292016506195, -0.04800000227987766, -0.2240000106394291, 0.9760000463575125, 0.0, 0.0, 0.0, 0.0, 0.0, 1.7054508297125647E9, 0.0, 2024-01-16 19:20:29.712
11.0, -318.3402842283249, -500.4883716702461, -316.6648090481758, -65.34353202581406, -0.04800000227987766, -0.2240000106394291, 0.9760000463575125, 0.0, 0.0, 0.0, 0.0, 0.0, 1.7054508297260582E9, 0.0, 2024-01-16 19:20:29.726
11.0, -374.1096723675728, -502.1638468503952, -306.8513115644455, -183.58420902490616, -0.04800000227987766, -0.2240000106394291, 0.9760000463575125, 0.0, 0.0, 0.0, 0.0, 0.0, 1.7054508297260582E9, 0.0, 2024-01-16 19:20:29.726
12.0, -425.33134216070175, -486.84521663188934, -288.89979177713394, -163.23915326595306, -0.03200000151991844, -0.2240000106394291, 0.9760000463575125, 0.0, 0.0, 0.0, 0.0, 0.0, 1.7054508297425575E9, 0.0, 2024-01-16 19:20:29.742
12.0, -337.0098648071289, -498.81289649009705, -307.09066516160965, -64.38611763715744, -0.03200000151991844, -0.2240000106394291, 0.9760000463575125, 0.0, 0.0, 0.0, 0.0, 0.0, 1.7054508297425575E9, 0.0, 2024-01-16 19:20:29.742
13.0, -348.25948387384415, -516.7644162774086, -332.9408536553383, -153.42565578222275, -0.03200000151991844, -0.2240000106394291, 0.9760000463575125, 0.0, 0.0, 0.0, 0.0, 0.0, 1.7054508297426736E9, 0.0, 2024-01-16 19:20:29.742
13.0, -432.9906572699547, -497.3767749071121, -303.7397148013115, -213.0247014760971, -0.03200000151991844, -0.2240000106394291, 0.9760000463575125, 0.0, 0.0, 0.0, 0.0, 0.0, 1.7054508297426736E9, 0.0, 2024-01-16 19:20:29.742
14.0, -368.3651860356331, -490.1961669921875, -296.55910688638687, -93.34790289402008, -0.03200000151991844, -0.2240000106394291, 0.9760000463575125, 0.0, 0.0, 0.0, 0.0, 0.0, 1.7054508297560475E9, 0.0, 2024-01-16 19:20:29.756
14.0, -322.8880025744438, -508.3870403766632, -322.64864897727966, -102.68269318342209, -0.03200000151991844, -0.2240000106394291, 0.9760000463575125, 0.0, 0.0, 0.0, 0.0, 0.0, 1.7054508297560475E9, 0.0, 2024-01-16 19:20:29.756
15.0, -400.91727524995804, -491.1535813808441, -306.61195796728134, -201.77508240938187, -0.03200000151991844, -0.2240000106394291, 0.9760000463575125, 0.0, 0.0, 0.0, 0.0, 0.0, 1.7054508297717087E9, 0.0, 2024-01-16 19:20:29.771
15.0, -395.17278891801834, -479.9039623141289, -291.2933277487755, -114.65037304162979, -0.03200000151991844, -0.2240000106394291, 0.9760000463575125, 0.0, 0.0, 0.0, 0.0, 0.0, 1.7054508297717087E9, 0.0, 2024-01-16 19:20:29.771
16.0, -322.8880025744438, -510.78057634830475, -315.7073946595192, -74.91767591238022, -0.03200000151991844, -0.2240000106394291, 0.9760000463575125, 0.0, 0.0, 0.0, 0.0, 0.0, 1.705450829772431E9, 0.0, 2024-01-16 19:20:29.772
16.0, -391.58248496055603, -522.2695490121841, -326.238952934742, -193.15835291147232, -0.03200000151991844, -0.2240000106394291, 0.9760000463575125, 0.0, 0.0, 0.0, 0.0, 0.0, 1.705450829772431E9, 0.0, 2024-01-16 19:20:29.772
17.0, -426.5281101465225, -491.6322885751724, -302.30359321832657, -166.35075002908707, -0.03200000151991844, -0.2240000106394291, 0.9760000463575125, 0.0, 0.0, 0.0, 0.0, 0.0, 1.7054508297866848E9, 0.0, 2024-01-16 19:20:29.786
17.0, -339.40340077877045, -501.6851396560669, -308.7661403417587, -70.8486647605896, -0.03200000151991844, -0.2240000106394291, 0.9760000463575125, 0.0, 0.0, 0.0, 0.0, 0.0, 1.7054508297866848E9, 0.0, 2024-01-16 19:20:29.786
18.0, -351.6104342341423, -512.2166979312897, -324.80283135175705, -151.51082700490952, -0.03200000151991844, -0.2240000106394291, 0.9760000463575125, 0.0, 0.0, 0.0, 0.0, 0.0, 1.7054508298017905E9, 0.0, 2024-01-16 19:20:29.801
18.0, -431.7938892841339, -495.4619461297989, -293.9262173175812, -203.6899111866951, -0.03200000151991844, -0.2240000106394291, 0.9760000463575125, 0.0, 0.0, 0.0, 0.0, 0.0, 1.7054508298017905E9, 0.0, 2024-01-16 19:20:29.801
19.0, -371.71613639593124, -486.6058630347252, -289.6178525686264, -85.9279413819313, -0.03200000151991844, -0.2240000106394291, 0.9760000463575125, 0.0, 0.0, 0.0, 0.0, 0.0, 1.7054508298024783E9, 0.0, 2024-01-16 19:20:29.802
19.0, -326.95701372623444, -511.73799073696136, -323.3667097687721, -110.34200829267502, -0.03200000151991844, -0.2240000106394291, 0.9760000463575125, 0.0, 0.0, 0.0, 0.0, 0.0, 1.7054508298024783E9, 0.0, 2024-01-16 19:20:29.802
20.0, -424.6132813692093, -514.6102339029312, -326.95701372623444, -214.93953025341034, -0.03200000151991844, -0.2240000106394291, 0.9760000463575125, 0.0, 0.0, 0.0, 0.0, 0.0, 1.7054508298164525E9, 0.0, 2024-01-16 19:20:29.816
20.0, -410.25206553936005, -489.2387526035309, -297.5165212750435, -128.29352807998657, -0.03200000151991844, -0.2240000106394291, 0.9760000463575125, 0.0, 0.0, 0.0, 0.0, 0.0, 1.7054508298164525E9, 0.0, 2024-01-16 19:20:29.816
21.0, -336.0524504184723, -514.6102339029312, -329.1111961007118, -78.02927267551422, -0.03200000151991844, -0.20800000987946987, 0.9760000463575125, 0.0, 0.0, 0.0, 0.0, 0.0, 1.705450829848112E9, 0.0, 2024-01-16 19:20:29.848
21.0, -394.2153745293617, -514.6102339029312, -333.18020725250244, -188.13192737102509, -0.03200000151991844, -0.20800000987946987, 0.9760000463575125, 0.0, 0.0, 0.0, 0.0, 0.0, 1.705450829848112E9, 0.0, 2024-01-16 19:20:29.848
22.0, -428.92164611816406, -484.69103425741196, -303.7397148013115, -171.8558827638626, -0.04800000227987766, -0.20800000987946987, 0.9760000463575125, 0.0, 0.0, 0.0, 0.0, 0.0, 1.7054508298489323E9, 0.0, 2024-01-16 19:20:29.848
22.0, -341.0788759589195, -493.3077637553215, -298.71328926086426, -60.79581367969513, -0.04800000227987766, -0.20800000987946987, 0.9760000463575125, 0.0, 0.0, 0.0, 0.0, 0.0, 1.7054508298489323E9, 0.0, 2024-01-16 19:20:29.848
23.0, -351.131727039814, -511.9773443341255, -323.84541696310043, -150.31405901908875, -0.04800000227987766, -0.20800000987946987, 0.9760000463575125, 0.0, 0.0, 0.0, 0.0, 0.0, 1.7054508298497088E9, 0.0, 2024-01-16 19:20:29.849
23.0, -436.1022540330887, -499.77031087875366, -306.61195796728134, -210.15245831012726, -0.04800000227987766, -0.20800000987946987, 0.9760000463575125, 0.0, 0.0, 0.0, 0.0, 0.0, 1.7054508298497088E9, 0.0, 2024-01-16 19:20:29.849
24.0, -375.0670867562294, -484.4516806602478, -287.9423773884773, -86.88535577058792, -0.04800000227987766, -0.20800000987946987, 0.9760000463575125, 0.0, 0.0, 0.0, 0.0, 0.0, 1.7054508298503804E9, 0.0, 2024-01-16 19:20:29.850
24.0, -327.6750745177269, -503.1212612390518, -332.2227928638458, -107.23041152954102, -0.04800000227987766, -0.20800000987946987, 0.9760000463575125, 0.0, 0.0, 0.0, 0.0, 0.0, 1.7054508298503804E9, 0.0, 2024-01-16 19:20:29.850
25.0, -412.40624791383743, -501.2064324617386, -307.8087259531021, -206.3228007555008, -0.04800000227987766, -0.20800000987946987, 0.9760000463575125, 0.0, 0.0, 0.0, 0.0, 0.0, 1.7054508298769364E9, 0.0, 2024-01-16 19:20:29.876
25.0, -400.43856805562973, -478.2284871339798, -286.9849629998207, -122.78839534521103, -0.04800000227987766, -0.20800000987946987, 0.9760000463575125, 0.0, 0.0, 0.0, 0.0, 0.0, 1.7054508298769364E9, 0.0, 2024-01-16 19:20:29.876
26.0, -322.4092953801155, -499.29160368442535, -309.0054939389229, -66.77965360879898, -0.04800000227987766, -0.20800000987946987, 0.9760000463575125, 0.0, 0.0, 0.0, 0.0, 0.0, 1.7054508298774912E9, 0.0, 2024-01-16 19:20:29.877
26.0, -376.98191553354263, -505.99350440502167, -309.4842011332512, -181.90873384475708, -0.04800000227987766, -0.20800000987946987, 0.9760000463575125, 0.0, 0.0, 0.0, 0.0, 0.0, 1.7054508298774912E9, 0.0, 2024-01-16 19:20:29.877
27.0, -428.44293892383575, -483.73361986875534, -286.0275486111641, -161.80303168296814, -0.04800000227987766, -0.20800000987946987, 0.9760000463575125, 0.0, 0.0, 0.0, 0.0, 0.0, 1.7054508298918147E9, 0.0, 2024-01-16 19:20:29.891
27.0, -340.6001687645912, -490.1961669921875, -306.3726043701172, -64.38611763715744, -0.04800000227987766, -0.20800000987946987, 0.9760000463575125, 0.0, 0.0, 0.0, 0.0, 0.0, 1.7054508298918147E9, 0.0, 2024-01-16 19:20:29.891
28.0, -348.25948387384415, -509.3444547653198, -322.8880025744438, -141.6973295211792, -0.04800000227987766, -0.20800000987946987, 0.9760000463575125, 0.0, 0.0, 0.0, 0.0, 0.0, 1.7054508298924727E9, 0.0, 2024-01-16 19:20:29.892
28.0, -421.022977411747, -475.1168903708458, -291.2933277487755, -193.15835291147232, -0.04800000227987766, -0.20800000987946987, 0.9760000463575125, 0.0, 0.0, 0.0, 0.0, 0.0, 1.7054508298924727E9, 0.0, 2024-01-16 19:20:29.892
29.0, -359.74845653772354, -476.0743047595024, -285.30948781967163, -75.63573670387268, -0.04800000227987766, -0.20800000987946987, 0.9760000463575125, 0.0, 0.0, 0.0, 0.0, 0.0, 1.7054508299060452E9, 0.0, 2024-01-16 19:20:29.906
29.0, -319.05834501981735, -497.3767749071121, -314.27127307653427, -92.86919569969177, -0.04800000227987766, -0.20800000987946987, 0.9760000463575125, 0.0, 0.0, 0.0, 0.0, 0.0, 1.7054508299060452E9, 0.0, 2024-01-16 19:20:29.906
30.0, -405.7043471932411, -486.36650943756104, -294.64427810907364, -192.679645717144, -0.04800000227987766, -0.20800000987946987, 0.9760000463575125, 0.0, 0.0, 0.0, 0.0, 0.0, 1.705450829921739E9, 0.0, 2024-01-16 19:20:29.921
30.0, -394.2153745293617, -476.7923655509949, -289.1391453742981, -114.88972663879395, -0.04800000227987766, -0.20800000987946987, 0.9760000463575125, 0.0, 0.0, 0.0, 0.0, 0.0, 1.705450829921739E9, 0.0, 2024-01-16 19:20:29.921
31.0, -316.90416264533997, -493.7864709496498, -306.3726043701172, -62.949996054172516, -0.04800000227987766, -0.2240000106394291, 0.9760000463575125, 0.0, 0.0, 0.0, 0.0, 0.0, 1.7054508299224968E9, 0.0, 2024-01-16 19:20:29.922
31.0, -376.26385474205017, -499.29160368442535, -304.45777559280396, -173.77071154117584, -0.04800000227987766, -0.2240000106394291, 0.9760000463575125, 0.0, 0.0, 0.0, 0.0, 0.0, 1.7054508299224968E9, 0.0, 2024-01-16 19:20:29.922
32.0, -419.8262094259262, -480.8613767027855, -287.463670194149, -157.2553133368492, -0.04800000227987766, -0.2240000106394291, 0.9760000463575125, 0.0, 0.0, 0.0, 0.0, 0.0, 1.7054508299528356E9, 0.0, 2024-01-16 19:20:29.952
32.0, -341.796936750412, -493.54711735248566, -305.8938971757889, -62.949996054172516, -0.04800000227987766, -0.2240000106394291, 0.9760000463575125, 0.0, 0.0, 0.0, 0.0, 0.0, 1.7054508299528356E9, 0.0, 2024-01-16 19:20:29.952
33.0, -343.9511191248894, -504.07867562770844, -315.46804106235504, -141.2186223268509, -0.04800000227987766, -0.2240000106394291, 0.9760000463575125, 0.0, 0.0, 0.0, 0.0, 0.0, 1.7054508299532022E9, 0.0, 2024-01-16 19:20:29.953
33.0, -432.9906572699547, -491.6322885751724, -289.37849897146225, -199.14219284057617, -0.04800000227987766, -0.2240000106394291, 0.9760000463575125, 0.0, 0.0, 0.0, 0.0, 0.0, 1.7054508299532022E9, 0.0, 2024-01-16 19:20:29.953
34.0, -371.4767827987671, -487.32392382621765, -302.30359321832657, -77.78991907835007, -0.04800000227987766, -0.2240000106394291, 0.9760000463575125, 0.0, 0.0, 0.0, 0.0, 0.0, 1.7054508299539268E9, 0.0, 2024-01-16 19:20:29.953
34.0, -330.06861048936844, -510.78057634830475, -324.5634777545929, -99.57109642028809, -0.04800000227987766, -0.2240000106394291, 0.9760000463575125, 0.0, 0.0, 0.0, 0.0, 0.0, 1.7054508299539268E9, 0.0, 2024-01-16 19:20:29.953
35.0, -413.6030158996582, -495.22259253263474, -301.82488602399826, -196.74865686893463, -0.04800000227987766, -0.2240000106394291, 0.9760000463575125, 0.0, 0.0, 0.0, 0.0, 0.0, 1.7054508299824345E9, 0.0, 2024-01-16 19:20:29.982
35.0, -406.1830543875694, -483.25491267442703, -307.09066516160965, -119.43744498491287, -0.04800000227987766, -0.2240000106394291, 0.9760000463575125, 0.0, 0.0, 0.0, 0.0, 0.0, 1.7054508299824345E9, 0.0, 2024-01-16 19:20:29.982
36.0, -329.58990329504013, -507.9083331823349, -325.9995993375778, -72.52413994073868, -0.04800000227987766, -0.2240000106394291, 0.9760000463575125, 0.0, 0.0, 0.0, 0.0, 0.0, 1.7054508299988973E9, 0.0, 2024-01-16 19:20:29.998
36.0, -388.470888197422, -513.6528195142746, -323.6060633659363, -188.37128096818924, -0.04800000227987766, -0.2240000106394291, 0.9760000463575125, 0.0, 0.0, 0.0, 0.0, 0.0, 1.7054508299988973E9, 0.0, 2024-01-16 19:20:29.998
37.0, -429.6397069096565, -491.6322885751724, -295.60169249773026, -167.06881082057953, -0.04800000227987766, -0.2240000106394291, 0.9760000463575125, 0.0, 0.0, 0.0, 0.0, 0.0, 1.705450829999666E9, 0.0, 2024-01-16 19:20:29.999
37.0, -350.41366624832153, -498.0948356986046, -302.0642396211624, -63.18934965133667, -0.04800000227987766, -0.2240000106394291, 0.9760000463575125, 0.0, 0.0, 0.0, 0.0, 0.0, 1.705450829999666E9, 0.0, 2024-01-16 19:20:29.999
38.0, -358.3123349547386, -518.2005378603935, -326.4783065319061, -140.02185434103012, -0.04800000227987766, -0.2240000106394291, 0.9760000463575125, 0.0, 0.0, 0.0, 0.0, 0.0, 1.7054508300003972E9, 0.0, 2024-01-16 19:20:30.000
38.0, -437.77772921323776, -494.5045317411423, -290.575266957283, -202.73249679803848, -0.04800000227987766, -0.2240000106394291, 0.9760000463575125, 0.0, 0.0, 0.0, 0.0, 0.0, 1.7054508300003972E9, 0.0, 2024-01-16 19:20:30.000
39.0, -376.024501144886, -488.0419846177101, -297.0378140807152, -77.78991907835007, -0.04800000227987766, -0.2240000106394291, 0.9760000463575125, 0.0, 0.0, 0.0, 0.0, 0.0, 1.7054508300010128E9, 0.0, 2024-01-16 19:20:30.001
39.0, -335.81309682130814, -519.3973058462143, -328.6324889063835, -100.28915721178055, -0.04800000227987766, -0.2240000106394291, 0.9760000463575125, 0.0, 0.0, 0.0, 0.0, 0.0, 1.7054508300010128E9, 0.0, 2024-01-16 19:20:30.001
40.0, -410.4914191365242, -500.0096644759178, -305.41518998146057, -204.1686183810234, -0.04800000227987766, -0.2240000106394291, 0.9760000463575125, 0.0, 0.0, 0.0, 0.0, 0.0, 1.7054508300111957E9, 0.0, 2024-01-16 19:20:30.011
40.0, -405.9437007904053, -479.1859015226364, -284.8307806253433, -122.30968815088272, -0.04800000227987766, -0.2240000106394291, 0.9760000463575125, 0.0, 0.0, 0.0, 0.0, 0.0, 1.7054508300111957E9, 0.0, 2024-01-16 19:20:30.011
41.0, -308.2874331474304, -484.9303878545761, -296.798460483551, -57.92357051372528, -0.04800000227987766, -0.2240000106394291, 0.9760000463575125, 0.0, 0.0, 0.0, 0.0, 0.0, 1.7054508300260243E9, 0.0, 2024-01-16 19:20:30.026
41.0, -366.45035725831985, -497.85548210144043, -309.0054939389229, -171.61652916669846, -0.04800000227987766, -0.2240000106394291, 0.9760000463575125, 0.0, 0.0, 0.0, 0.0, 0.0, 1.7054508300260243E9, 0.0, 2024-01-16 19:20:30.026
42.0, -426.28875654935837, -487.0845702290535, -285.0701342225075, -158.9307885169983, -0.04800000227987766, -0.2240000106394291, 0.9760000463575125, 0.0, 0.0, 0.0, 0.0, 0.0, 1.7054508300417645E9, 0.0, 2024-01-16 19:20:30.041
42.0, -339.6427543759346, -488.7600454092026, -295.60169249773026, -54.81197375059128, -0.04800000227987766, -0.2240000106394291, 0.9760000463575125, 0.0, 0.0, 0.0, 0.0, 0.0, 1.7054508300417645E9, 0.0, 2024-01-16 19:20:30.041
43.0, -347.5414230823517, -510.30186915397644, -308.2874331474304, -142.1760367155075, -0.04800000227987766, -0.2240000106394291, 0.9760000463575125, 0.0, 0.0, 0.0, 0.0, 0.0, 1.7054508300424688E9, 0.0, 2024-01-16 19:20:30.042
43.0, -436.34160763025284, -498.5735428929329, -296.798460483551, -199.14219284057617, -0.04800000227987766, -0.2240000106394291, 0.9760000463575125, 0.0, 0.0, 0.0, 0.0, 0.0, 1.7054508300424688E9, 0.0, 2024-01-16 19:20:30.042
44.0, -374.82773315906525, -489.2387526035309, -288.6604381799698, -76.5931510925293, -0.04800000227987766, -0.2240000106394291, 0.9760000463575125, 0.0, 0.0, 0.0, 0.0, 0.0, 1.7054508300560193E9, 0.0, 2024-01-16 19:20:30.056
44.0, -329.58990329504013, -513.6528195142746, -321.9305881857872, -104.35816836357117, -0.04800000227987766, -0.2240000106394291, 0.9760000463575125, 0.0, 0.0, 0.0, 0.0, 0.0, 1.7054508300560193E9, 0.0, 2024-01-16 19:20:30.056
45.0, -409.77335834503174, -496.4193605184555, -305.6545435786247, -197.22736406326294, -0.04800000227987766, -0.2240000106394291, 0.9760000463575125, 0.0, 0.0, 0.0, 0.0, 0.0, 1.7054508300717692E9, 0.0, 2024-01-16 19:20:30.071
45.0, -410.9701263308525, -486.1271558403969, -292.49009573459625, -118.71938419342041, -0.04800000227987766, -0.2240000106394291, 0.9760000463575125, 0.0, 0.0, 0.0, 0.0, 0.0, 1.7054508300717692E9, 0.0, 2024-01-16 19:20:30.071
46.0, -323.84541696310043, -495.70129972696304, -309.0054939389229, -61.753228068351746, -0.04800000227987766, -0.2240000106394291, 0.9760000463575125, 0.0, 0.0, 0.0, 0.0, 0.0, 1.7054508300724769E9, 0.0, 2024-01-16 19:20:30.072
46.0, -377.6999763250351, -506.71156519651413, -314.5106266736984, -179.51519787311554, -0.04800000227987766, -0.2240000106394291, 0.9760000463575125, 0.0, 0.0, 0.0, 0.0, 0.0, 1.7054508300724769E9, 0.0, 2024-01-16 19:20:30.072
47.0, -426.7674637436867, -478.94654792547226, -283.63401263952255, -158.45208132266998, -0.04800000227987766, -0.2240000106394291, 0.9760000463575125, 0.0, 0.0, 0.0, 0.0, 0.0, 1.705450830086161E9, 0.0, 2024-01-16 19:20:30.086
47.0, -342.99370473623276, -496.65871411561966, -301.5855324268341, -54.093912959098816, -0.04800000227987766, -0.2240000106394291, 0.9760000463575125, 0.0, 0.0, 0.0, 0.0, 0.0, 1.705450830086161E9, 0.0, 2024-01-16 19:20:30.086
48.0, -345.62659430503845, -505.99350440502167, -325.9995993375778, -143.37280470132828, -0.04800000227987766, -0.2240000106394291, 0.9760000463575125, 0.0, 0.0, 0.0, 0.0, 0.0, 1.7054508301021647E9, 0.0, 2024-01-16 19:20:30.102
48.0, -421.9803918004036, -486.84521663188934, -296.08039969205856, -196.98801046609879, -0.04800000227987766, -0.2240000106394291, 0.9760000463575125, 0.0, 0.0, 0.0, 0.0, 0.0, 1.7054508301021647E9, 0.0, 2024-01-16 19:20:30.102
49.0, -370.2800148129463, -478.94654792547226, -298.4739356637001, -79.94410145282745, -0.04800000227987766, -0.2240000106394291, 0.9760000463575125, 0.0, 0.0, 0.0, 0.0, 0.0, 1.7054508301025128E9, 0.0, 2024-01-16 19:20:30.102
49.0, -322.16994178295135, -505.51479721069336, -305.1758363842964, -92.15113490819931, -0.04800000227987766, -0.2240000106394291, 0.9760000463575125, 0.0, 0.0, 0.0, 0.0, 0.0, 1.7054508301025128E9, 0.0, 2024-01-16 19:20:30.102
50.0, -410.25206553936005, -495.4619461297989, -299.910057246685, -193.15835291147232, -0.04800000227987766, -0.2240000106394291, 0.9760000463575125, 0.0, 0.0, 0.0, 0.0, 0.0, 1.7054508301329117E9, 0.0, 2024-01-16 19:20:30.132
50.0, -402.35339683294296, -479.1859015226364, -279.8043550848961, -110.34200829267502, -0.04800000227987766, -0.2240000106394291, 0.9760000463575125, 0.0, 0.0, 0.0, 0.0, 0.0, 1.7054508301329117E9, 0.0, 2024-01-16 19:20:30.132
51.0, -323.3667097687721, -497.85548210144043, -308.5267867445946, -56.966156125068665, -0.04800000227987766, -0.2240000106394291, 0.9760000463575125, 0.0, 0.0, 0.0, 0.0, 0.0, 1.7054508301332352E9, 0.0, 2024-01-16 19:20:30.133
51.0, -372.4341971874237, -497.3767749071121, -322.64864897727966, -179.27584427595139, -0.04800000227987766, -0.2240000106394291, 0.9760000463575125, 0.0, 0.0, 0.0, 0.0, 0.0, 1.7054508301332352E9, 0.0, 2024-01-16 19:20:30.133
52.0, -418.3900878429413, -470.09046483039856, -284.352073431015, -159.64884930849075, -0.04800000227987766, -0.2240000106394291, 0.9760000463575125, 0.0, 0.0, 0.0, 0.0, 0.0, 1.7054508301339257E9, 0.0, 2024-01-16 19:20:30.133
52.0, -338.685339987278, -485.16974145174026, -298.71328926086426, -51.93973058462143, -0.04800000227987766, -0.2240000106394291, 0.9760000463575125, 0.0, 0.0, 0.0, 0.0, 0.0, 1.7054508301339257E9, 0.0, 2024-01-16 19:20:30.133
53.0, -337.0098648071289, -498.0948356986046, -311.3990299105644, -131.16577124595642, -0.04800000227987766, -0.2240000106394291, 0.9760000463575125, 0.0, 0.0, 0.0, 0.0, 0.0, 1.70545083014609E9, 0.0, 2024-01-16 19:20:30.146
53.0, -427.00681734085083, -484.21232706308365, -288.6604381799698, -187.41386657953262, -0.04800000227987766, -0.2240000106394291, 0.9760000463575125, 0.0, 0.0, 0.0, 0.0, 0.0, 1.70545083014609E9, 0.0, 2024-01-16 19:20:30.146
54.0, -360.70587092638016, -479.42525511980057, -289.1391453742981, -72.04543274641037, -0.04800000227987766, -0.2240000106394291, 0.9760000463575125, 0.0, 0.0, 0.0, 0.0, 0.0, 1.7054508301617427E9, 0.0, 2024-01-16 19:20:30.161
54.0, -321.21252739429474, -492.11099576950073, -301.1068252325058, -91.1937205195427, -0.04800000227987766, -0.2240000106394291, 0.9760000463575125, 0.0, 0.0, 0.0, 0.0, 0.0, 1.7054508301617427E9, 0.0, 2024-01-16 19:20:30.161
55.0, -399.4811536669731, -488.0419846177101, -297.0378140807152, -190.52546334266663, -0.04800000227987766, -0.2240000106394291, 0.9760000463575125, 0.0, 0.0, 0.0, 0.0, 0.0, 1.7054508301624506E9, 0.0, 2024-01-16 19:20:30.162
55.0, -394.9334353208542, -470.3298184275627, -286.0275486111641, -106.99105793237686, -0.04800000227987766, -0.2240000106394291, 0.9760000463575125, 0.0, 0.0, 0.0, 0.0, 0.0, 1.7054508301624506E9, 0.0, 2024-01-16 19:20:30.162
56.0, -315.7073946595192, -487.32392382621765, -300.86747163534164, -51.22166979312897, -0.04800000227987766, -0.2240000106394291, 0.9760000463575125, 0.0, 0.0, 0.0, 0.0, 0.0, 1.705450830176495E9, 0.0, 2024-01-16 19:20:30.176
56.0, -374.34902596473694, -493.7864709496498, -302.0642396211624, -167.786871612072, -0.04800000227987766, -0.2240000106394291, 0.9760000463575125, 0.0, 0.0, 0.0, 0.0, 0.0, 1.705450830176495E9, 0.0, 2024-01-16 19:20:30.176
57.0, -423.4165133833885, -481.57943749427795, -278.84694069623947, -154.86177736520767, -0.04800000227987766, -0.2240000106394291, 0.9760000463575125, 0.0, 0.0, 0.0, 0.0, 0.0, 1.705450830191935E9, 0.0, 2024-01-16 19:20:30.191
57.0, -332.70150005817413, -488.0419846177101, -290.0965597629547, -51.700376987457275, -0.04800000227987766, -0.2240000106394291, 0.9760000463575125, 0.0, 0.0, 0.0, 0.0, 0.0, 1.705450830191935E9, 0.0, 2024-01-16 19:20:30.191
58.0, -338.2066327929497, -508.14768677949905, -305.6545435786247, -135.71348959207535, -0.04800000227987766, -0.2240000106394291, 0.9760000463575125, 0.0, 0.0, 0.0, 0.0, 0.0, 1.705450830192469E9, 0.0, 2024-01-16 19:20:30.192
58.0, -427.00681734085083, -484.9303878545761, -295.8410460948944, -195.07318168878555, -0.04800000227987766, -0.2240000106394291, 0.9760000463575125, 0.0, 0.0, 0.0, 0.0, 0.0, 1.705450830192469E9, 0.0, 2024-01-16 19:20:30.192
59.0, -358.07298135757446, -471.5265864133835, -286.0275486111641, -76.35379749536514, -0.04800000227987766, -0.2240000106394291, 0.9760000463575125, 0.0, 0.0, 0.0, 0.0, 0.0, 1.7054508302062485E9, 0.0, 2024-01-16 19:20:30.206
59.0, -325.76024574041367, -504.55738282203674, -316.42545545101166, -99.09238922595978, -0.04800000227987766, -0.2240000106394291, 0.9760000463575125, 0.0, 0.0, 0.0, 0.0, 0.0, 1.7054508302062485E9, 0.0, 2024-01-16 19:20:30.206
60.0, -410.73077273368835, -499.77031087875366, -295.3623389005661, -198.66348564624786, -0.04800000227987766, -0.2240000106394291, 0.9760000463575125, 0.0, 0.0, 0.0, 0.0, 0.0, 1.7054508302223542E9, 0.0, 2024-01-16 19:20:30.222
60.0, -404.50757920742035, -477.2710727453232, -280.04370868206024, -107.23041152954102, -0.04800000227987766, -0.2240000106394291, 0.9760000463575125, 0.0, 0.0, 0.0, 0.0, 0.0, 1.7054508302223542E9, 0.0, 2024-01-16 19:20:30.222
61.0, -325.0421849489212, -503.360614836216, -301.82488602399826, -60.556460082530975, -0.04800000227987766, -0.2400000113993883, 0.9760000463575125, 0.0, 0.0, 0.0, 0.0, 0.0, 1.7054508302367363E9, 0.0, 2024-01-16 19:20:30.236
61.0, -383.9231698513031, -510.30186915397644, -297.0378140807152, -176.16424751281738, -0.04800000227987766, -0.2400000113993883, 0.9760000463575125, 0.0, 0.0, 0.0, 0.0, 0.0, 1.7054508302367363E9, 0.0, 2024-01-16 19:20:30.236
62.0, -436.1022540330887, -487.80263102054596, -286.74560940265656, -159.64884930849075, -0.04800000227987766, -0.2400000113993883, 0.9760000463575125, 0.0, 0.0, 0.0, 0.0, 0.0, 1.7054508302374477E9, 0.0, 2024-01-16 19:20:30.237
62.0, -355.2007381916046, -500.24901807308197, -312.5957978963852, -60.07775288820267, -0.04800000227987766, -0.2400000113993883, 0.9760000463575125, 0.0, 0.0, 0.0, 0.0, 0.0, 1.7054508302374477E9, 0.0, 2024-01-16 19:20:30.237
63.0, -358.7910421490669, -515.0889410972595, -322.16994178295135, -141.45797592401505, -0.04800000227987766, -0.2400000113993883, 0.9760000463575125, 0.0, 0.0, 0.0, 0.0, 0.0, 1.705450830252318E9, 0.0, 2024-01-16 19:20:30.252
63.0, -442.804154753685, -496.8980677127838, -300.86747163534164, -200.33896082639694, -0.04800000227987766, -0.2400000113993883, 0.9760000463575125, 0.0, 0.0, 0.0, 0.0, 0.0, 1.705450830252318E9, 0.0, 2024-01-16 19:20:30.252
