%OpenBCI Raw EXG Data
%Number of channels = 4
%Sample Rate = 200 Hz
%Board = OpenBCI_GUI$BoardGanglionBLE
Sample Index, EXG Channel 0, EXG Channel 1, EXG Channel 2, EXG Channel 3, Accel Channel 0, Accel Channel 1, Accel Channel 2, Other, Other, Other, Other, Other, Timestamp, Other, Timestamp (Formatted)
6.0, -47.3920122385025, -220.20530939102173, -169.94105398654938, 326.95701372623444, 0.0, 0.0, 0.0, 0.0, 0.0, 0.0, 0.0, 0.0, 1.7054295956310868E9, 0.0, 2024-01-16 13:26:35.631
6.0, 0.0, 0.0, 0.0, 0.0, 0.0, 0.0, 0.0, 0.0, 0.0, 0.0, 0.0, 0.0, 1.7054295956310868E9, 0.0, 2024-01-16 13:26:35.631
0.0, -105.55493634939194, -306.13325077295303, -242.7045475244522, 268.07602882385254, 0.0, 0.0, 1.008000047877431, 0.0, 0.0, 0.0, 0.0, 0.0, 1.705429595673086E9, 0.0, 2024-01-16 13:26:35.673
0.0, 6.223193526268005, -133.3199536204338, -116.56520181894302, 392.06119215488434, 0.0, 0.0, 1.008000047877431, 0.0, 0.0, 0.0, 0.0, 0.0, 1.705429595673086E9, 0.0, 2024-01-16 13:26:35.673
1.0, 38.29657554626465, -137.86767196655273, -125.18193131685257, 411.4488335251808, 0.0, -1.008000047877431, 1.008000047877431, 0.0, 0.0, 0.0, 0.0, 0.0, 1.7054295956877327E9, 0.0, 2024-01-16 13:26:35.687
1.0, -89.99695253372192, -302.30359321832657, -237.67812198400497, 279.0862942934036, 0.0, -1.008000047877431, 1.008000047877431, 0.0, 0.0, 0.0, 0.0, 0.0, 1.7054295956877327E9, 0.0, 2024-01-16 13:26:35.687
2.0, -51.93973058462143, -203.2112039923668, -160.60626369714737, 336.77051120996475, -1.008000047877431, -1.008000047877431, 1.008000047877431, 0.0, 0.0, 0.0, 0.0, 0.0, 1.705429595702246E9, 0.0, 2024-01-16 13:26:35.702
2.0, 55.05132734775543, -99.57109642028809, -94.3053172826767, 432.7513036727905, -1.008000047877431, -1.008000047877431, 1.008000047877431, 0.0, 0.0, 0.0, 0.0, 0.0, 1.705429595702246E9, 0.0, 2024-01-16 13:26:35.702
3.0, -42.844293892383575, -252.75739860534668, -207.99827593564987, 320.73382019996643, -1.008000047877431, -1.008000047877431, 1.008000047877431, 0.0, 0.0, 0.0, 0.0, 0.0, 1.7054295957029953E9, 0.0, 2024-01-16 13:26:35.702
3.0, -75.87509030103683, -261.6134817004204, -205.36538636684418, 294.16557091474533, -1.008000047877431, -1.008000047877431, 1.008000047877431, 0.0, 0.0, 0.0, 0.0, 0.0, 1.7054295957029953E9, 0.0, 2024-01-16 13:26:35.702
4.0, 47.63136583566666, -90.23630613088608, -78.98668706417084, 438.97449719905853, -1.008000047877431, -1.008000047877431, 1.008000047877431, 0.0, 0.0, 0.0, 0.0, 0.0, 1.705429595732833E9, 0.0, 2024-01-16 13:26:35.732
4.0, -11.967679858207703, -203.6899111866951, -173.05265074968338, 361.9026389122009, -1.008000047877431, -1.008000047877431, 1.008000047877431, 0.0, 0.0, 0.0, 0.0, 0.0, 1.705429595732833E9, 0.0, 2024-01-16 13:26:35.732
5.0, -99.09238922595978, -292.2507421374321, -235.04523241519928, 272.8631007671356, -1.008000047877431, -1.008000047877431, 1.008000047877431, 0.0, 0.0, 0.0, 0.0, 0.0, 1.705429595733543E9, 0.0, 2024-01-16 13:26:35.733
5.0, -3.829657554626465, -148.3992302417755, -125.18193131685257, 380.8115730881691, -1.008000047877431, -1.008000047877431, 1.008000047877431, 0.0, 0.0, 0.0, 0.0, 0.0, 1.705429595733543E9, 0.0, 2024-01-16 13:26:35.733
6.0, 21.063116550445557, -151.0321198105812, -140.50056153535843, 397.3269712924957, -1.008000047877431, -1.008000047877431, 1.008000047877431, 0.0, 0.0, 0.0, 0.0, 0.0, 1.7054295957343032E9, 0.0, 2024-01-16 13:26:35.734
6.0, -89.75759893655777, -303.50036120414734, -240.31101155281067, 265.2037856578827, -1.008000047877431, -1.008000047877431, 1.008000047877431, 0.0, 0.0, 0.0, 0.0, 0.0, 1.7054295957343032E9, 0.0, 2024-01-16 13:26:35.734
7.0, -50.98231619596481, -206.8015079498291, -177.83972269296646, 328.39313530921936, -1.008000047877431, -1.008000047877431, 1.008000047877431, 0.0, 0.0, 0.0, 0.0, 0.0, 1.7054295957630064E9, 0.0, 2024-01-16 13:26:35.763
7.0, 43.56235468387604, -111.53877627849579, -110.34200829267502, 422.9378061890602, -1.008000047877431, -1.008000047877431, 1.008000047877431, 0.0, 0.0, 0.0, 0.0, 0.0, 1.7054295957630064E9, 0.0, 2024-01-16 13:26:35.763
8.0, -49.306841015815735, -261.6134817004204, -213.98211586475372, 315.2286874651909, -1.008000047877431, -1.008000047877431, 1.008000047877431, 0.0, 0.0, 0.0, 0.0, 0.0, 1.7054295957637277E9, 0.0, 2024-01-16 13:26:35.763
8.0, -76.35379749536514, -259.459299325943, -210.63116550445557, 291.2933277487755, -1.008000047877431, -1.008000047877431, 1.008000047877431, 0.0, 0.0, 0.0, 0.0, 0.0, 1.7054295957637277E9, 0.0, 2024-01-16 13:26:35.763
9.0, 38.77528274059296, -100.5285108089447, -95.74143886566162, 418.62944144010544, -1.008000047877431, -1.008000047877431, 1.008000047877431, 0.0, 0.0, 0.0, 0.0, 0.0, 1.7054295957644415E9, 0.0, 2024-01-16 13:26:35.764
9.0, -1.6754751801490784, -201.0570216178894, -161.08497089147568, 365.7322964668274, -1.008000047877431, -1.008000047877431, 1.008000047877431, 0.0, 0.0, 0.0, 0.0, 0.0, 1.7054295957644415E9, 0.0, 2024-01-16 13:26:35.764
10.0, -95.50208526849747, -299.4313500523567, -229.54009968042374, 276.45340472459793, -1.008000047877431, -1.008000047877431, 0.49600002355873585, 0.0, 0.0, 0.0, 0.0, 0.0, 1.705429595776477E9, 0.0, 2024-01-16 13:26:35.776
10.0, 7.65931510925293, -132.60189282894135, -119.43744498491287, 381.52963387966156, -1.008000047877431, -1.008000047877431, 0.49600002355873585, 0.0, 0.0, 0.0, 0.0, 0.0, 1.705429595776477E9, 0.0, 2024-01-16 13:26:35.776
11.0, 36.14239317178726, -134.99542880058289, -124.46387052536011, 406.1830543875694, -1.008000047877431, -0.49600002355873585, 0.49600002355873585, 0.0, 0.0, 0.0, 0.0, 0.0, 1.7054295957924984E9, 0.0, 2024-01-16 13:26:35.792
11.0, -87.36406296491623, -300.6281180381775, -245.8161442875862, 269.7515040040016, -1.008000047877431, -0.49600002355873585, 0.49600002355873585, 0.0, 0.0, 0.0, 0.0, 0.0, 1.7054295957924984E9, 0.0, 2024-01-16 13:26:35.792
12.0, -46.67395144701004, -203.45055758953094, -167.30816441774368, 333.4195608496666, -0.49600002355873585, -0.49600002355873585, 0.49600002355873585, 0.0, 0.0, 0.0, 0.0, 0.0, 1.705429595792922E9, 0.0, 2024-01-16 13:26:35.792
12.0, 51.22166979312897, -98.85303562879562, -91.1937205195427, 434.9054860472679, -0.49600002355873585, -0.49600002355873585, 0.49600002355873585, 0.0, 0.0, 0.0, 0.0, 0.0, 1.705429595792922E9, 0.0, 2024-01-16 13:26:35.792
13.0, -54.572620153427124, -262.0921888947487, -211.58857989311218, 313.79256588220596, -0.49600002355873585, -0.49600002355873585, 0.49600002355873585, 0.0, 0.0, 0.0, 0.0, 0.0, 1.70542959580674E9, 0.0, 2024-01-16 13:26:35.806
13.0, -80.66216224431992, -261.3741281032562, -207.04086154699326, 295.12298530340195, -0.49600002355873585, -0.49600002355873585, 0.49600002355873585, 0.0, 0.0, 0.0, 0.0, 0.0, 1.70542959580674E9, 0.0, 2024-01-16 13:26:35.806
14.0, 46.434597849845886, -92.15113490819931, -81.85893023014069, 432.5119500756264, -0.49600002355873585, -0.49600002355873585, 0.49600002355873585, 0.0, 0.0, 0.0, 0.0, 0.0, 1.7054295958542821E9, 0.0, 2024-01-16 13:26:35.854
14.0, -9.095436692237854, -207.04086154699326, -170.65911477804184, 359.26974934339523, -0.49600002355873585, -0.49600002355873585, 0.49600002355873585, 0.0, 0.0, 0.0, 0.0, 0.0, 1.7054295958542821E9, 0.0, 2024-01-16 13:26:35.854
15.0, -101.72527879476547, -301.34617882966995, -235.04523241519928, 268.07602882385254, -0.49600002355873585, -0.49600002355873585, 0.49600002355873585, 0.0, 0.0, 0.0, 0.0, 0.0, 1.7054295958549762E9, 0.0, 2024-01-16 13:26:35.854
15.0, 5.265779137611389, -137.38896477222443, -117.52261620759964, 387.9921810030937, -0.49600002355873585, -0.49600002355873585, 0.49600002355873585, 0.0, 0.0, 0.0, 0.0, 0.0, 1.7054295958549762E9, 0.0, 2024-01-16 13:26:35.854
16.0, 28.004370868206024, -142.89409750699997, -140.26120793819427, 397.80567848682404, -0.49600002355873585, -0.49600002355873585, 0.49600002355873585, 0.0, 0.0, 0.0, 0.0, 0.0, 1.705429595855752E9, 0.0, 2024-01-16 13:26:35.855
16.0, -100.0498036146164, -315.2286874651909, -250.84256982803345, 263.5283104777336, -0.49600002355873585, -0.49600002355873585, 0.49600002355873585, 0.0, 0.0, 0.0, 0.0, 0.0, 1.705429595855752E9, 0.0, 2024-01-16 13:26:35.855
17.0, -49.78554821014404, -210.87051910161972, -167.54751801490784, 327.43572092056274, -0.49600002355873585, -0.49600002355873585, 0.49600002355873585, 0.0, 0.0, 0.0, 0.0, 0.0, 1.705429595856495E9, 0.0, 2024-01-16 13:26:35.856
17.0, 44.519769072532654, -108.9058867096901, -102.20398598909378, 426.7674637436867, -0.49600002355873585, -0.49600002355873585, 0.49600002355873585, 0.0, 0.0, 0.0, 0.0, 0.0, 1.705429595856495E9, 0.0, 2024-01-16 13:26:35.856
18.0, -62.47128885984421, -273.3418079614639, -222.59884536266327, 299.910057246685, -0.49600002355873585, -0.49600002355873585, 0.49600002355873585, 0.0, 0.0, 0.0, 0.0, 0.0, 1.705429595868798E9, 0.0, 2024-01-16 13:26:35.868
18.0, -94.54467087984085, -272.62374716997147, -222.83819895982742, 276.6927583217621, -0.49600002355873585, -0.49600002355873585, 0.49600002355873585, 0.0, 0.0, 0.0, 0.0, 0.0, 1.705429595868798E9, 0.0, 2024-01-16 13:26:35.868
19.0, 27.046956479549408, -114.88972663879395, -103.1614003777504, 405.46499359607697, -0.49600002355873585, -0.49600002355873585, 0.49600002355873585, 0.0, 0.0, 0.0, 0.0, 0.0, 1.7054295958693104E9, 0.0, 2024-01-16 13:26:35.869
19.0, -12.925094246864319, -212.30664068460464, -174.9674795269966, 354.243323802948, -0.49600002355873585, -0.49600002355873585, 0.49600002355873585, 0.0, 0.0, 0.0, 0.0, 0.0, 1.7054295958693104E9, 0.0, 2024-01-16 13:26:35.869
20.0, -114.65037304162979, -318.57963782548904, -245.8161442875862, 259.459299325943, -0.49600002355873585, -0.49600002355873585, 0.7520000357180834, 0.0, 0.0, 0.0, 0.0, 0.0, 1.7054295958700151E9, 0.0, 2024-01-16 13:26:35.870
20.0, -0.4787071943283081, -141.45797592401505, -120.15550577640533, 387.0347666144371, -0.49600002355873585, -0.49600002355873585, 0.7520000357180834, 0.0, 0.0, 0.0, 0.0, 0.0, 1.7054295958700151E9, 0.0, 2024-01-16 13:26:35.870
21.0, 39.49334353208542, -137.38896477222443, -113.21425145864487, 412.88495510816574, -0.49600002355873585, -0.7520000357180834, 0.7520000357180834, 0.0, 0.0, 0.0, 0.0, 0.0, 1.7054295958818462E9, 0.0, 2024-01-16 13:26:35.881
21.0, -95.98079246282578, -314.0319194793701, -247.01291227340698, 270.4695647954941, -0.49600002355873585, -0.7520000357180834, 0.7520000357180834, 0.0, 0.0, 0.0, 0.0, 0.0, 1.7054295958818462E9, 0.0, 2024-01-16 13:26:35.881
22.0, -50.98231619596481, -204.40797197818756, -169.22299319505692, 333.8982680439949, -0.7520000357180834, -0.7520000357180834, 0.7520000357180834, 0.0, 0.0, 0.0, 0.0, 0.0, 1.7054295958965116E9, 0.0, 2024-01-16 13:26:35.896
22.0, 47.63136583566666, -106.2729971408844, -100.76786440610886, 427.48552453517914, -0.7520000357180834, -0.7520000357180834, 0.7520000357180834, 0.0, 0.0, 0.0, 0.0, 0.0, 1.7054295958965116E9, 0.0, 2024-01-16 13:26:35.896
23.0, -52.897144973278046, -262.81024968624115, -215.6575910449028, 313.31385868787766, -0.7520000357180834, -0.7520000357180834, 0.7520000357180834, 0.0, 0.0, 0.0, 0.0, 0.0, 1.7054295959285448E9, 0.0, 2024-01-16 13:26:35.928
23.0, -87.60341656208038, -269.03344321250916, -202.49314320087433, 295.12298530340195, -0.7520000357180834, -0.7520000357180834, 0.7520000357180834, 0.0, 0.0, 0.0, 0.0, 0.0, 1.7054295959285448E9, 0.0, 2024-01-16 13:26:35.928
24.0, 48.34942662715912, -91.91178131103516, -81.38022303581238, 434.18742525577545, -0.7520000357180834, -0.7520000357180834, 0.7520000357180834, 0.0, 0.0, 0.0, 0.0, 0.0, 1.7054295959292507E9, 0.0, 2024-01-16 13:26:35.929
24.0, -8.8560830950737, -206.08344715833664, -170.41976118087769, 358.7910421490669, -0.7520000357180834, -0.7520000357180834, 0.7520000357180834, 0.0, 0.0, 0.0, 0.0, 0.0, 1.7054295959292507E9, 0.0, 2024-01-16 13:26:35.929
25.0, -107.23041152954102, -308.2874331474304, -239.35359716415405, 266.1612000465393, -0.7520000357180834, -0.7520000357180834, 0.7520000357180834, 0.0, 0.0, 0.0, 0.0, 0.0, 1.705429595930061E9, 0.0, 2024-01-16 13:26:35.930
25.0, 0.7180607914924622, -145.76634067296982, -122.30968815088272, 381.7689874768257, -0.7520000357180834, -0.7520000357180834, 0.7520000357180834, 0.0, 0.0, 0.0, 0.0, 0.0, 1.705429595930061E9, 0.0, 2024-01-16 13:26:35.930
26.0, 33.74885720014572, -145.2876334786415, -129.2509424686432, 401.87468963861465, -0.7520000357180834, -0.7520000357180834, 0.7520000357180834, 0.0, 0.0, 0.0, 0.0, 0.0, 1.7054295959307463E9, 0.0, 2024-01-16 13:26:35.930
26.0, -97.65626764297485, -309.9629083275795, -246.05549788475037, 266.40055364370346, -0.7520000357180834, -0.7520000357180834, 0.7520000357180834, 0.0, 0.0, 0.0, 0.0, 0.0, 1.7054295959307463E9, 0.0, 2024-01-16 13:26:35.930
27.0, -54.572620153427124, -204.64732557535172, -176.88230830430984, 324.80283135175705, -0.7520000357180834, -0.7520000357180834, 0.7520000357180834, 0.0, 0.0, 0.0, 0.0, 0.0, 1.7054295959417994E9, 0.0, 2024-01-16 13:26:35.941
27.0, 51.46102339029312, -97.65626764297485, -99.81045001745224, 421.9803918004036, -0.7520000357180834, -0.7520000357180834, 0.7520000357180834, 0.0, 0.0, 0.0, 0.0, 0.0, 1.7054295959417994E9, 0.0, 2024-01-16 13:26:35.941
28.0, -55.769388139247894, -265.2037856578827, -222.35949176549911, 307.8087259531021, -0.7520000357180834, -0.7520000357180834, 0.7520000357180834, 0.0, 0.0, 0.0, 0.0, 0.0, 1.7054295959568083E9, 0.0, 2024-01-16 13:26:35.956
28.0, -98.85303562879562, -277.6501727104187, -217.8117734193802, 285.78819501399994, -0.7520000357180834, -0.7520000357180834, 0.7520000357180834, 0.0, 0.0, 0.0, 0.0, 0.0, 1.7054295959568083E9, 0.0, 2024-01-16 13:26:35.956
29.0, 41.88687950372696, -100.5285108089447, -95.98079246282578, 416.7146126627922, -0.7520000357180834, -0.7520000357180834, 0.7520000357180834, 0.0, 0.0, 0.0, 0.0, 0.0, 1.70542959597224E9, 0.0, 2024-01-16 13:26:35.972
29.0, 3.590303957462311, -190.76481693983078, -162.0423852801323, 363.81746768951416, -0.7520000357180834, -0.7520000357180834, 0.7520000357180834, 0.0, 0.0, 0.0, 0.0, 0.0, 1.70542959597224E9, 0.0, 2024-01-16 13:26:35.972
30.0, -94.54467087984085, -293.2081565260887, -231.21557486057281, 271.4269791841507, -0.7520000357180834, -0.7520000357180834, 0.8640000410377979, 0.0, 0.0, 0.0, 0.0, 0.0, 1.7054295959729855E9, 0.0, 2024-01-16 13:26:35.972
30.0, 3.829657554626465, -138.1070255637169, -119.43744498491287, 384.8805842399597, -0.7520000357180834, -0.7520000357180834, 0.8640000410377979, 0.0, 0.0, 0.0, 0.0, 0.0, 1.7054295959729855E9, 0.0, 2024-01-16 13:26:35.972
31.0, 32.55208921432495, -140.26120793819427, -123.9851633310318, 403.7895184159279, -0.7520000357180834, -0.8640000410377979, 0.8640000410377979, 0.0, 0.0, 0.0, 0.0, 0.0, 1.7054295960028703E9, 0.0, 2024-01-16 13:26:36.002
31.0, -77.31121188402176, -285.0701342225075, -232.17298924922943, 280.7617694735527, -0.7520000357180834, -0.8640000410377979, 0.8640000410377979, 0.0, 0.0, 0.0, 0.0, 0.0, 1.7054295960028703E9, 0.0, 2024-01-16 13:26:36.002
32.0, -41.40817230939865, -196.03059607744217, -160.36691009998322, 337.4885720014572, -0.8640000410377979, -0.8640000410377979, 0.8640000410377979, 0.0, 0.0, 0.0, 0.0, 0.0, 1.7054295960035691E9, 0.0, 2024-01-16 13:26:36.003
32.0, 57.92357051372528, -93.34790289402008, -94.3053172826767, 425.81004935503006, -0.8640000410377979, -0.8640000410377979, 0.8640000410377979, 0.0, 0.0, 0.0, 0.0, 0.0, 1.7054295960035691E9, 0.0, 2024-01-16 13:26:36.003
33.0, -47.63136583566666, -258.9805921316147, -213.98211586475372, 304.6971291899681, -0.8640000410377979, -0.8640000410377979, 0.8640000410377979, 0.0, 0.0, 0.0, 0.0, 0.0, 1.7054295960042956E9, 0.0, 2024-01-16 13:26:36.004
33.0, -85.68858778476715, -264.7250784635544, -210.87051910161972, 289.6178525686264, -0.8640000410377979, -0.8640000410377979, 0.8640000410377979, 0.0, 0.0, 0.0, 0.0, 0.0, 1.7054295960042956E9, 0.0, 2024-01-16 13:26:36.004
34.0, 44.2804154753685, -93.34790289402008, -87.36406296491623, 422.4590989947319, -0.8640000410377979, -0.8640000410377979, 0.8640000410377979, 0.0, 0.0, 0.0, 0.0, 0.0, 1.7054295960165627E9, 0.0, 2024-01-16 13:26:36.016
34.0, -10.531558275222778, -201.0570216178894, -176.88230830430984, 356.63685977458954, -0.8640000410377979, -0.8640000410377979, 0.8640000410377979, 0.0, 0.0, 0.0, 0.0, 0.0, 1.7054295960165627E9, 0.0, 2024-01-16 13:26:36.016
35.0, -117.04390901327133, -313.31385868787766, -250.84256982803345, 256.10834896564484, -0.8640000410377979, -0.8640000410377979, 0.8640000410377979, 0.0, 0.0, 0.0, 0.0, 0.0, 1.7054295960325203E9, 0.0, 2024-01-16 13:26:36.032
35.0, -6.7019007205963135, -137.86767196655273, -124.94257771968842, 383.4444626569748, -0.8640000410377979, -0.8640000410377979, 0.8640000410377979, 0.0, 0.0, 0.0, 0.0, 0.0, 1.7054295960325203E9, 0.0, 2024-01-16 13:26:36.032
36.0, 31.35532122850418, -146.24504786729813, -131.64447844028473, 399.0024464726448, -0.8640000410377979, -0.8640000410377979, 0.8640000410377979, 0.0, 0.0, 0.0, 0.0, 0.0, 1.7054295960330937E9, 0.0, 2024-01-16 13:26:36.033
36.0, -99.09238922595978, -308.2874331474304, -255.15093457698822, 258.5018849372864, -0.8640000410377979, -0.8640000410377979, 0.8640000410377979, 0.0, 0.0, 0.0, 0.0, 0.0, 1.7054295960330937E9, 0.0, 2024-01-16 13:26:36.033
37.0, -57.44486331939697, -218.2904806137085, -177.6003690958023, 323.12735617160797, -0.8640000410377979, -0.8640000410377979, 0.8640000410377979, 0.0, 0.0, 0.0, 0.0, 0.0, 1.7054295960464897E9, 0.0, 2024-01-16 13:26:36.046
37.0, 50.0249018073082, -104.59752196073532, -98.61368203163147, 429.8790605068207, -0.8640000410377979, -0.8640000410377979, 0.8640000410377979, 0.0, 0.0, 0.0, 0.0, 0.0, 1.7054295960464897E9, 0.0, 2024-01-16 13:26:36.046
38.0, -53.1364985704422, -265.2037856578827, -222.12013816833496, 305.8938971757889, -0.8640000410377979, -0.8640000410377979, 0.8640000410377979, 0.0, 0.0, 0.0, 0.0, 0.0, 1.7054295960623605E9, 0.0, 2024-01-16 13:26:36.062
38.0, -91.672427713871, -275.9746975302696, -218.2904806137085, 282.1978910565376, -0.8640000410377979, -0.8640000410377979, 0.8640000410377979, 0.0, 0.0, 0.0, 0.0, 0.0, 1.7054295960623605E9, 0.0, 2024-01-16 13:26:36.062
39.0, 42.844293892383575, -101.96463239192963, -88.80018454790115, 423.8952205777168, -0.8640000410377979, -0.8640000410377979, 0.8640000410377979, 0.0, 0.0, 0.0, 0.0, 0.0, 1.7054295960629537E9, 0.0, 2024-01-16 13:26:36.062
39.0, 3.1115967631340027, -195.07318168878555, -167.30816441774368, 359.74845653772354, -0.8640000410377979, -0.8640000410377979, 0.8640000410377979, 0.0, 0.0, 0.0, 0.0, 0.0, 1.7054295960629537E9, 0.0, 2024-01-16 13:26:36.062
40.0, -97.17756044864655, -294.64427810907364, -232.8910500407219, 267.1186144351959, -0.8640000410377979, -0.8640000410377979, 0.944000044837594, 0.0, 0.0, 0.0, 0.0, 0.0, 1.7054295960764704E9, 0.0, 2024-01-16 13:26:36.076
40.0, 6.223193526268005, -133.55930721759796, -118.48003059625626, 388.470888197422, -0.8640000410377979, -0.8640000410377979, 0.944000044837594, 0.0, 0.0, 0.0, 0.0, 0.0, 1.7054295960764704E9, 0.0, 2024-01-16 13:26:36.076
41.0, 44.75912266969681, -129.49029606580734, -115.36843383312225, 412.40624791383743, -0.8640000410377979, -0.944000044837594, 0.944000044837594, 0.0, 0.0, 0.0, 0.0, 0.0, 1.7054295960923524E9, 0.0, 2024-01-16 13:26:36.092
41.0, -86.40664857625961, -290.8146205544472, -238.6355363726616, 275.4959903359413, -0.8640000410377979, -0.944000044837594, 0.944000044837594, 0.0, 0.0, 0.0, 0.0, 0.0, 1.7054295960923524E9, 0.0, 2024-01-16 13:26:36.092
42.0, -45.47718346118927, -197.70607125759125, -165.1539820432663, 339.1640471816063, -0.944000044837594, -0.944000044837594, 0.944000044837594, 0.0, 0.0, 0.0, 0.0, 0.0, 1.7054295960929406E9, 0.0, 2024-01-16 13:26:36.092
42.0, 56.72680252790451, -94.06596368551254, -87.84277015924454, 441.3680331707001, -0.944000044837594, -0.944000044837594, 0.944000044837594, 0.0, 0.0, 0.0, 0.0, 0.0, 1.7054295960929406E9, 0.0, 2024-01-16 13:26:36.092
43.0, -48.82813382148743, -256.10834896564484, -209.19504392147064, 310.68096911907196, -0.944000044837594, -0.944000044837594, 0.944000044837594, 0.0, 0.0, 0.0, 0.0, 0.0, 1.705429596106574E9, 0.0, 2024-01-16 13:26:36.106
43.0, -77.0718582868576, -256.8264097571373, -203.6899111866951, 294.16557091474533, -0.944000044837594, -0.944000044837594, 0.944000044837594, 0.0, 0.0, 0.0, 0.0, 0.0, 1.705429596106574E9, 0.0, 2024-01-16 13:26:36.106
44.0, 43.80170828104019, -102.44333958625793, -96.93820685148239, 420.54427021741867, -0.944000044837594, -0.944000044837594, 0.944000044837594, 0.0, 0.0, 0.0, 0.0, 0.0, 1.70542959613856E9, 0.0, 2024-01-16 13:26:36.138
44.0, -10.05285108089447, -208.47698312997818, -182.3874410390854, 350.1743126511574, -0.944000044837594, -0.944000044837594, 0.944000044837594, 0.0, 0.0, 0.0, 0.0, 0.0, 1.70542959613856E9, 0.0, 2024-01-16 13:26:36.138
45.0, -94.784024477005, -293.686863720417, -234.08781802654266, 272.14503997564316, -0.944000044837594, -0.944000044837594, 0.944000044837594, 0.0, 0.0, 0.0, 0.0, 0.0, 1.7054295961390374E9, 0.0, 2024-01-16 13:26:36.139
45.0, 4.547718346118927, -137.62831836938858, -119.43744498491287, 391.3431313633919, -0.944000044837594, -0.944000044837594, 0.944000044837594, 0.0, 0.0, 0.0, 0.0, 0.0, 1.7054295961390374E9, 0.0, 2024-01-16 13:26:36.139
46.0, 28.004370868206024, -141.93668311834335, -132.8412464261055, 398.5237392783165, -0.944000044837594, -0.944000044837594, 0.944000044837594, 0.0, 0.0, 0.0, 0.0, 0.0, 1.7054295961529553E9, 0.0, 2024-01-16 13:26:36.152
46.0, -95.50208526849747, -306.3726043701172, -251.0819234251976, 258.5018849372864, -0.944000044837594, -0.944000044837594, 0.944000044837594, 0.0, 0.0, 0.0, 0.0, 0.0, 1.7054295961529553E9, 0.0, 2024-01-16 13:26:36.152
47.0, -48.58878022432327, -207.99827593564987, -175.20683312416077, 324.32412415742874, -0.944000044837594, -0.944000044837594, 0.944000044837594, 0.0, 0.0, 0.0, 0.0, 0.0, 1.7054295961536596E9, 0.0, 2024-01-16 13:26:36.153
47.0, 56.487448930740356, -99.09238922595978, -92.86919569969177, 432.9906572699547, -0.944000044837594, -0.944000044837594, 0.944000044837594, 0.0, 0.0, 0.0, 0.0, 0.0, 1.7054295961536596E9, 0.0, 2024-01-16 13:26:36.153
48.0, -49.06748741865158, -263.76766407489777, -214.22146946191788, 316.6648090481758, -0.944000044837594, -0.944000044837594, 0.944000044837594, 0.0, 0.0, 0.0, 0.0, 0.0, 1.7054295961543624E9, 0.0, 2024-01-16 13:26:36.154
48.0, -86.88535577058792, -258.74123853445053, -204.64732557535172, 294.16557091474533, -0.944000044837594, -0.944000044837594, 0.944000044837594, 0.0, 0.0, 0.0, 0.0, 0.0, 1.7054295961543624E9, 0.0, 2024-01-16 13:26:36.154
49.0, 44.2804154753685, -89.51824533939362, -84.97052699327469, 428.2035853266716, -0.944000044837594, -0.944000044837594, 0.944000044837594, 0.0, 0.0, 0.0, 0.0, 0.0, 1.7054295961669862E9, 0.0, 2024-01-16 13:26:36.166
49.0, -1.6754751801490784, -193.63706010580063, -160.36691009998322, 367.40777164697647, -0.944000044837594, -0.944000044837594, 0.944000044837594, 0.0, 0.0, 0.0, 0.0, 0.0, 1.7054295961669862E9, 0.0, 2024-01-16 13:26:36.166
50.0, -97.65626764297485, -296.3197532892227, -225.47108852863312, 276.93211191892624, -0.944000044837594, -0.944000044837594, 0.9760000463575125, 0.0, 0.0, 0.0, 0.0, 0.0, 1.7054295961823096E9, 0.0, 2024-01-16 13:26:36.182
50.0, 6.462547123432159, -131.64447844028473, -108.9058867096901, 395.17278891801834, -0.944000044837594, -0.944000044837594, 0.9760000463575125, 0.0, 0.0, 0.0, 0.0, 0.0, 1.7054295961823096E9, 0.0, 2024-01-16 13:26:36.182
51.0, 36.860453963279724, -127.81482088565826, -118.48003059625626, 413.36366230249405, -0.944000044837594, -0.9760000463575125, 0.9760000463575125, 0.0, 0.0, 0.0, 0.0, 0.0, 1.705429596182888E9, 0.0, 2024-01-16 13:26:36.182
51.0, -86.16729497909546, -296.55910688638687, -236.9600611925125, 281.47983026504517, -0.944000044837594, -0.9760000463575125, 0.9760000463575125, 0.0, 0.0, 0.0, 0.0, 0.0, 1.705429596182888E9, 0.0, 2024-01-16 13:26:36.182
52.0, -40.450757920742035, -198.66348564624786, -162.0423852801323, 340.83952236175537, -0.9760000463575125, -0.9760000463575125, 0.9760000463575125, 0.0, 0.0, 0.0, 0.0, 0.0, 1.7054295961970356E9, 0.0, 2024-01-16 13:26:36.197
52.0, 66.06159281730652, -84.97052699327469, -84.01311260461807, 443.52221554517746, -0.9760000463575125, -0.9760000463575125, 0.9760000463575125, 0.0, 0.0, 0.0, 0.0, 0.0, 1.7054295961970356E9, 0.0, 2024-01-16 13:26:36.197
53.0, -47.3920122385025, -253.47545939683914, -206.08344715833664, 318.3402842283249, -0.9760000463575125, -0.9760000463575125, 0.9760000463575125, 0.0, 0.0, 0.0, 0.0, 0.0, 1.7054295962122514E9, 0.0, 2024-01-16 13:26:36.212
53.0, -72.28478634357452, -250.84256982803345, -195.3125352859497, 306.13325077295303, -0.9760000463575125, -0.9760000463575125, 0.9760000463575125, 0.0, 0.0, 0.0, 0.0, 0.0, 1.7054295962122514E9, 0.0, 2024-01-16 13:26:36.212
54.0, 42.36558669805527, -94.784024477005, -89.03953814506531, 426.7674637436867, -0.9760000463575125, -0.9760000463575125, 0.9760000463575125, 0.0, 0.0, 0.0, 0.0, 0.0, 1.7054295962128568E9, 0.0, 2024-01-16 13:26:36.212
54.0, -16.276044607162476, -207.04086154699326, -177.121661901474, 350.89237344264984, -0.9760000463575125, -0.9760000463575125, 0.9760000463575125, 0.0, 0.0, 0.0, 0.0, 0.0, 1.7054295962128568E9, 0.0, 2024-01-16 13:26:36.212
55.0, -112.73554426431656, -310.4416155219078, -242.94390112161636, 265.682492852211, -0.9760000463575125, -0.9760000463575125, 0.9760000463575125, 0.0, 0.0, 0.0, 0.0, 0.0, 1.7054295962265985E9, 0.0, 2024-01-16 13:26:36.226
55.0, -6.9412543177604675, -137.14961117506027, -119.91615217924118, 386.5560594201088, -0.9760000463575125, -0.9760000463575125, 0.9760000463575125, 0.0, 0.0, 0.0, 0.0, 0.0, 1.7054295962265985E9, 0.0, 2024-01-16 13:26:36.226
56.0, 24.89277410507202, -145.04827988147736, -129.01158887147903, 399.72050726413727, -0.9760000463575125, -0.9760000463575125, 0.9760000463575125, 0.0, 0.0, 0.0, 0.0, 0.0, 1.705429596242237E9, 0.0, 2024-01-16 13:26:36.242
56.0, -103.6401075720787, -320.73382019996643, -248.92774105072021, 270.9482719898224, -0.9760000463575125, -0.9760000463575125, 0.9760000463575125, 0.0, 0.0, 0.0, 0.0, 0.0, 1.705429596242237E9, 0.0, 2024-01-16 13:26:36.242
57.0, -56.72680252790451, -211.10987269878387, -169.46234679222107, 336.77051120996475, -0.9760000463575125, -0.9760000463575125, 0.9760000463575125, 0.0, 0.0, 0.0, 0.0, 0.0, 1.7054295962428567E9, 0.0, 2024-01-16 13:26:36.242
57.0, 39.49334353208542, -108.18782591819763, -112.0174834728241, 415.51784467697144, -0.9760000463575125, -0.9760000463575125, 0.9760000463575125, 0.0, 0.0, 0.0, 0.0, 0.0, 1.7054295962428567E9, 0.0, 2024-01-16 13:26:36.242
58.0, -63.428703248500824, -273.82051515579224, -225.94979572296143, 302.7823004126549, -0.9760000463575125, -0.9760000463575125, 0.9760000463575125, 0.0, 0.0, 0.0, 0.0, 0.0, 1.7054295962737453E9, 0.0, 2024-01-16 13:26:36.273
58.0, -94.06596368551254, -272.3843935728073, -211.10987269878387, 292.2507421374321, -0.9760000463575125, -0.9760000463575125, 0.9760000463575125, 0.0, 0.0, 0.0, 0.0, 0.0, 1.7054295962737453E9, 0.0, 2024-01-16 13:26:36.273
59.0, 37.33916115760803, -92.62984210252762, -83.05569821596146, 434.4267788529396, -0.9760000463575125, -0.9760000463575125, 0.9760000463575125, 0.0, 0.0, 0.0, 0.0, 0.0, 1.705429596274315E9, 0.0, 2024-01-16 13:26:36.274
59.0, 1.4361215829849243, -190.76481693983078, -159.64884930849075, 369.3226004242897, -0.9760000463575125, -0.9760000463575125, 0.9760000463575125, 0.0, 0.0, 0.0, 0.0, 0.0, 1.705429596274315E9, 0.0, 2024-01-16 13:26:36.274
60.0, -100.76786440610886, -297.5165212750435, -229.7794532775879, 273.5811615586281, -0.9760000463575125, -0.9760000463575125, 0.9760000463575125, 0.0, 0.0, 0.0, 0.0, 0.0, 1.705429596275001E9, 0.0, 2024-01-16 13:26:36.275
60.0, 8.616729497909546, -133.08060002326965, -103.87946116924286, 397.3269712924957, -0.9760000463575125, -0.9760000463575125, 0.9760000463575125, 0.0, 0.0, 0.0, 0.0, 0.0, 1.705429596275001E9, 0.0, 2024-01-16 13:26:36.275
61.0, 40.69011151790619, -127.57546728849411, -112.97489786148071, 420.06556302309036, -0.9760000463575125, -0.9760000463575125, 0.9760000463575125, 0.0, 0.0, 0.0, 0.0, 0.0, 1.7054295962869108E9, 0.0, 2024-01-16 13:26:36.286
61.0, -89.03953814506531, -296.55910688638687, -230.2581604719162, 286.74560940265656, -0.9760000463575125, -0.9760000463575125, 0.9760000463575125, 0.0, 0.0, 0.0, 0.0, 0.0, 1.7054295962869108E9, 0.0, 2024-01-16 13:26:36.286
62.0, -45.95589065551758, -198.18477845191956, -158.69143491983414, 344.1904727220535, -0.9760000463575125, -0.9760000463575125, 0.9760000463575125, 0.0, 0.0, 0.0, 0.0, 0.0, 1.7054295963185942E9, 0.0, 2024-01-16 13:26:36.318
62.0, 57.20550972223282, -91.672427713871, -82.09828382730484, 442.3254475593567, -0.9760000463575125, -0.9760000463575125, 0.9760000463575125, 0.0, 0.0, 0.0, 0.0, 0.0, 1.7054295963185942E9, 0.0, 2024-01-16 13:26:36.318
63.0, -57.44486331939697, -260.65606731176376, -209.4343975186348, 319.7764058113098, -0.9760000463575125, -0.9760000463575125, 0.9760000463575125, 0.0, 0.0, 0.0, 0.0, 0.0, 1.705429596319288E9, 0.0, 2024-01-16 13:26:36.319
63.0, -96.45949965715408, -272.14503997564316, -213.50340867042542, 288.6604381799698, -0.9760000463575125, -0.9760000463575125, 0.9760000463575125, 0.0, 0.0, 0.0, 0.0, 0.0, 1.705429596319288E9, 0.0, 2024-01-16 13:26:36.319
64.0, 31.35532122850418, -103.6401075720787, -94.3053172826767, 423.8952205777168, -0.9760000463575125, -0.9760000463575125, 0.9760000463575125, 0.0, 0.0, 0.0, 0.0, 0.0, 1.7054295963200593E9, 0.0, 2024-01-16 13:26:36.320
64.0, -17.7121661901474, -210.3918119072914, -176.40360110998154, 357.354920566082, -0.9760000463575125, -0.9760000463575125, 0.9760000463575125, 0.0, 0.0, 0.0, 0.0, 0.0, 1.7054295963200593E9, 0.0, 2024-01-16 13:26:36.320
65.0, -113.21425145864487, -309.4842011332512, -237.19941478967667, 268.794089615345, -0.9760000463575125, -0.9760000463575125, 0.9760000463575125, 0.0, 0.0, 0.0, 0.0, 0.0, 1.7054295963207743E9, 0.0, 2024-01-16 13:26:36.320
65.0, -2.8722431659698486, -138.34637916088104, -113.69295865297318, 398.28438568115234, -0.9760000463575125, -0.9760000463575125, 0.9760000463575125, 0.0, 0.0, 0.0, 0.0, 0.0, 1.7054295963207743E9, 0.0, 2024-01-16 13:26:36.320
66.0, 19.866348564624786, -143.85151189565659, -128.29352807998657, 405.2256399989128, -0.9760000463575125, -0.9760000463575125, 0.9760000463575125, 0.0, 0.0, 0.0, 0.0, 0.0, 1.705429596331488E9, 0.0, 2024-01-16 13:26:36.331
66.0, -100.0498036146164, -309.0054939389229, -244.61937630176544, 275.4959903359413, -0.9760000463575125, -0.9760000463575125, 0.9760000463575125, 0.0, 0.0, 0.0, 0.0, 0.0, 1.705429596331488E9, 0.0, 2024-01-16 13:26:36.331
67.0, -57.68421691656113, -208.47698312997818, -159.64884930849075, 340.6001687645912, -0.9760000463575125, -0.9760000463575125, 0.9760000463575125, 0.0, 0.0, 0.0, 0.0, 0.0, 1.7054295963468852E9, 0.0, 2024-01-16 13:26:36.346
67.0, 42.844293892383575, -104.59752196073532, -99.81045001745224, 432.7513036727905, -0.9760000463575125, -0.9760000463575125, 0.9760000463575125, 0.0, 0.0, 0.0, 0.0, 0.0, 1.7054295963468852E9, 0.0, 2024-01-16 13:26:36.346
68.0, -64.86482483148575, -273.3418079614639, -221.8807845711708, 307.8087259531021, -0.9760000463575125, -0.9760000463575125, 0.9760000463575125, 0.0, 0.0, 0.0, 0.0, 0.0, 1.705429596362306E9, 0.0, 2024-01-16 13:26:36.362
68.0, -99.57109642028809, -268.55473601818085, -210.15245831012726, 287.22431659698486, -0.9760000463575125, -0.9760000463575125, 0.9760000463575125, 0.0, 0.0, 0.0, 0.0, 0.0, 1.705429596362306E9, 0.0, 2024-01-16 13:26:36.362
69.0, 34.466917991638184, -104.35816836357117, -94.3053172826767, 421.9803918004036, -0.9760000463575125, -0.9760000463575125, 0.9760000463575125, 0.0, 0.0, 0.0, 0.0, 0.0, 1.705429596362942E9, 0.0, 2024-01-16 13:26:36.362
69.0, -12.925094246864319, -203.92926478385925, -168.98363959789276, 359.5091029405594, -0.9760000463575125, -0.9760000463575125, 0.9760000463575125, 0.0, 0.0, 0.0, 0.0, 0.0, 1.705429596362942E9, 0.0, 2024-01-16 13:26:36.362
70.0, -111.77812987565994, -303.50036120414734, -237.43876838684082, 273.1024543642998, -0.9760000463575125, -0.9760000463575125, 0.9920000471174717, 0.0, 0.0, 0.0, 0.0, 0.0, 1.7054295963766687E9, 0.0, 2024-01-16 13:26:36.376
70.0, 0.0, -129.49029606580734, -114.65037304162979, 390.6250705718994, -0.9760000463575125, -0.9760000463575125, 0.9920000471174717, 0.0, 0.0, 0.0, 0.0, 0.0, 1.7054295963766687E9, 0.0, 2024-01-16 13:26:36.376
71.0, 28.96178525686264, -143.85151189565659, -131.88383203744888, 401.1566288471222, -0.9760000463575125, -0.9920000471174717, 0.9920000471174717, 0.0, 0.0, 0.0, 0.0, 0.0, 1.705429596392537E9, 0.0, 2024-01-16 13:26:36.392
71.0, -94.54467087984085, -308.5267867445946, -241.02907234430313, 269.51215040683746, -0.9760000463575125, -0.9920000471174717, 0.9920000471174717, 0.0, 0.0, 0.0, 0.0, 0.0, 1.705429596392537E9, 0.0, 2024-01-16 13:26:36.392
72.0, -49.306841015815735, -200.81766802072525, -160.60626369714737, 333.65891444683075, -0.9920000471174717, -0.9920000471174717, 0.9920000471174717, 0.0, 0.0, 0.0, 0.0, 0.0, 1.7054295963930209E9, 0.0, 2024-01-16 13:26:36.393
72.0, 51.46102339029312, -94.06596368551254, -96.93820685148239, 430.11841410398483, -0.9920000471174717, -0.9920000471174717, 0.9920000471174717, 0.0, 0.0, 0.0, 0.0, 0.0, 1.7054295963930209E9, 0.0, 2024-01-16 13:26:36.393
73.0, -52.41843777894974, -264.4857248663902, -218.52983421087265, 310.20226192474365, -0.9920000471174717, -0.9920000471174717, 0.9920000471174717, 0.0, 0.0, 0.0, 0.0, 0.0, 1.7054295964068315E9, 0.0, 2024-01-16 13:26:36.406
73.0, -90.23630613088608, -270.4695647954941, -214.70017665624619, 282.9159518480301, -0.9920000471174717, -0.9920000471174717, 0.9920000471174717, 0.0, 0.0, 0.0, 0.0, 0.0, 1.7054295964068315E9, 0.0, 2024-01-16 13:26:36.406
74.0, 34.70627158880234, -99.09238922595978, -98.37432843446732, 415.99655187129974, -0.9920000471174717, -0.9920000471174717, 0.9920000471174717, 0.0, 0.0, 0.0, 0.0, 0.0, 1.7054295964225912E9, 0.0, 2024-01-16 13:26:36.422
74.0, -16.03669100999832, -216.1362982392311, -182.14808744192123, 344.4298263192177, -0.9920000471174717, -0.9920000471174717, 0.9920000471174717, 0.0, 0.0, 0.0, 0.0, 0.0, 1.7054295964225912E9, 0.0, 2024-01-16 13:26:36.422
75.0, -117.04390901327133, -316.90416264533997, -252.99675220251083, 249.64580184221268, -0.9920000471174717, -0.9920000471174717, 0.9920000471174717, 0.0, 0.0, 0.0, 0.0, 0.0, 1.7054295964230018E9, 0.0, 2024-01-16 13:26:36.423
75.0, -4.308364748954773, -148.63858383893967, -128.05417448282242, 378.6573907136917, -0.9920000471174717, -0.9920000471174717, 0.9920000471174717, 0.0, 0.0, 0.0, 0.0, 0.0, 1.7054295964230018E9, 0.0, 2024-01-16 13:26:36.423
76.0, 22.738591730594635, -148.63858383893967, -133.55930721759796, 390.6250705718994, -0.9920000471174717, -0.9920000471174717, 0.9920000471174717, 0.0, 0.0, 0.0, 0.0, 0.0, 1.7054295964368403E9, 0.0, 2024-01-16 13:26:36.436
76.0, -106.2729971408844, -320.9731737971306, -266.1612000465393, 246.53420507907867, -0.9920000471174717, -0.9920000471174717, 0.9920000471174717, 0.0, 0.0, 0.0, 0.0, 0.0, 1.7054295964368403E9, 0.0, 2024-01-16 13:26:36.436
77.0, -52.897144973278046, -206.8015079498291, -174.4887723326683, 325.28153854608536, -0.9920000471174717, -0.9920000471174717, 0.9920000471174717, 0.0, 0.0, 0.0, 0.0, 0.0, 1.7054295964523885E9, 0.0, 2024-01-16 13:26:36.452
77.0, 43.80170828104019, -107.46976512670517, -101.96463239192963, 422.69845259189606, -0.9920000471174717, -0.9920000471174717, 0.9920000471174717, 0.0, 0.0, 0.0, 0.0, 0.0, 1.7054295964523885E9, 0.0, 2024-01-16 13:26:36.452
78.0, -62.71064245700836, -269.7515040040016, -226.18914932012558, 301.34617882966995, -0.9920000471174717, -0.9920000471174717, 0.9920000471174717, 0.0, 0.0, 0.0, 0.0, 0.0, 1.7054295964530473E9, 0.0, 2024-01-16 13:26:36.453
78.0, -88.560830950737, -268.794089615345, -219.00854140520096, 280.7617694735527, -0.9920000471174717, -0.9920000471174717, 0.9920000471174717, 0.0, 0.0, 0.0, 0.0, 0.0, 1.7054295964530473E9, 0.0, 2024-01-16 13:26:36.453
79.0, 29.679846048355103, -102.92204678058624, -97.4169140458107, 411.68818712234497, -0.9920000471174717, -0.9920000471174717, 0.9920000471174717, 0.0, 0.0, 0.0, 0.0, 0.0, 1.7054295964670713E9, 0.0, 2024-01-16 13:26:36.467
79.0, -18.669580578804016, -212.0672870874405, -185.02033060789108, 347.0627158880234, -0.9920000471174717, -0.9920000471174717, 0.9920000471174717, 0.0, 0.0, 0.0, 0.0, 0.0, 1.7054295964670713E9, 0.0, 2024-01-16 13:26:36.467
80.0, -118.71938419342041, -318.8189914226532, -253.47545939683914, 253.7148129940033, -0.9920000471174717, -0.9920000471174717, 0.9920000471174717, 0.0, 0.0, 0.0, 0.0, 0.0, 1.7054295964828773E9, 0.0, 2024-01-16 13:26:36.482
80.0, -14.839923024177551, -153.42565578222275, -139.78250074386597, 364.29617488384247, -0.9920000471174717, -0.9920000471174717, 0.9920000471174717, 0.0, 0.0, 0.0, 0.0, 0.0, 1.7054295964828773E9, 0.0, 2024-01-16 13:26:36.482
81.0, 13.403801441192627, -157.01595973968506, -143.61215829849243, 386.79541301727295, -0.9920000471174717, -0.9920000471174717, 0.9920000471174717, 0.0, 0.0, 0.0, 0.0, 0.0, 1.7054295964835885E9, 0.0, 2024-01-16 13:26:36.483
81.0, -106.99105793237686, -327.6750745177269, -260.8954209089279, 259.459299325943, -0.9920000471174717, -0.9920000471174717, 0.9920000471174717, 0.0, 0.0, 0.0, 0.0, 0.0, 1.7054295964835885E9, 0.0, 2024-01-16 13:26:36.483
82.0, -63.428703248500824, -221.16272377967834, -180.7119658589363, 316.6648090481758, -0.9920000471174717, -0.9920000471174717, 0.9920000471174717, 0.0, 0.0, 0.0, 0.0, 0.0, 1.7054295964969668E9, 0.0, 2024-01-16 13:26:36.496
82.0, 44.041061878204346, -106.99105793237686, -111.29942268133163, 418.15073424577713, -0.9920000471174717, -0.9920000471174717, 0.9920000471174717, 0.0, 0.0, 0.0, 0.0, 0.0, 1.7054295964969668E9, 0.0, 2024-01-16 13:26:36.496
83.0, -61.9925816655159, -277.6501727104187, -230.2581604719162, 298.9526428580284, -0.9920000471174717, -0.9920000471174717, 0.9920000471174717, 0.0, 0.0, 0.0, 0.0, 0.0, 1.7054295965125074E9, 0.0, 2024-01-16 13:26:36.512
83.0, -94.54467087984085, -277.6501727104187, -222.83819895982742, 277.6501727104187, -0.9920000471174717, -0.9920000471174717, 0.9920000471174717, 0.0, 0.0, 0.0, 0.0, 0.0, 1.7054295965125074E9, 0.0, 2024-01-16 13:26:36.512
84.0, 36.62110036611557, -106.2729971408844, -103.6401075720787, 410.4914191365242, -0.9920000471174717, -0.9920000471174717, 0.9920000471174717, 0.0, 0.0, 0.0, 0.0, 0.0, 1.705429596512937E9, 0.0, 2024-01-16 13:26:36.512
84.0, -9.574143886566162, -211.82793349027634, -179.99390506744385, 350.6530198454857, -0.9920000471174717, -0.9920000471174717, 0.9920000471174717, 0.0, 0.0, 0.0, 0.0, 0.0, 1.705429596512937E9, 0.0, 2024-01-16 13:26:36.512
85.0, -107.46976512670517, -306.8513115644455, -242.46519392728806, 259.21994572877884, -0.9920000471174717, -0.9920000471174717, 0.9920000471174717, 0.0, 0.0, 0.0, 0.0, 0.0, 1.705429596526692E9, 0.0, 2024-01-16 13:26:36.526
85.0, 2.6328895688056946, -136.4315503835678, -115.36843383312225, 386.0773522257805, -0.9920000471174717, -0.9920000471174717, 0.9920000471174717, 0.0, 0.0, 0.0, 0.0, 0.0, 1.705429596526692E9, 0.0, 2024-01-16 13:26:36.526
86.0, 31.594674825668335, -139.0644399523735, -126.6180528998375, 404.50757920742035, -0.9920000471174717, -0.9920000471174717, 0.9920000471174717, 0.0, 0.0, 0.0, 0.0, 0.0, 1.7054295965425284E9, 0.0, 2024-01-16 13:26:36.542
86.0, -96.22014605998993, -309.24484753608704, -247.01291227340698, 269.99085760116577, -0.9920000471174717, -0.9920000471174717, 0.9920000471174717, 0.0, 0.0, 0.0, 0.0, 0.0, 1.7054295965425284E9, 0.0, 2024-01-16 13:26:36.542
87.0, -50.503609001636505, -206.56215435266495, -164.19656765460968, 335.3343896269798, -0.9920000471174717, -0.9920000471174717, 0.9920000471174717, 0.0, 0.0, 0.0, 0.0, 0.0, 1.7054295965429685E9, 0.0, 2024-01-16 13:26:36.542
87.0, 46.19524425268173, -105.55493634939194, -101.96463239192963, 427.246170938015, -0.9920000471174717, -0.9920000471174717, 0.9920000471174717, 0.0, 0.0, 0.0, 0.0, 0.0, 1.7054295965429685E9, 0.0, 2024-01-16 13:26:36.542
88.0, -63.428703248500824, -274.29922235012054, -225.47108852863312, 299.6707036495209, -0.9920000471174717, -0.9920000471174717, 0.9920000471174717, 0.0, 0.0, 0.0, 0.0, 0.0, 1.7054295965566769E9, 0.0, 2024-01-16 13:26:36.556
88.0, -100.5285108089447, -277.41081911325455, -224.27432054281235, 278.6075870990753, -0.9920000471174717, -0.9920000471174717, 0.9920000471174717, 0.0, 0.0, 0.0, 0.0, 0.0, 1.7054295965566769E9, 0.0, 2024-01-16 13:26:36.556
89.0, 33.27015000581741, -105.31558275222778, -98.61368203163147, 420.7836238145828, -0.9920000471174717, -0.9920000471174717, 0.9920000471174717, 0.0, 0.0, 0.0, 0.0, 0.0, 1.7054295965722632E9, 0.0, 2024-01-16 13:26:36.572
89.0, -9.813497483730316, -206.3228007555008, -179.27584427595139, 350.1743126511574, -0.9920000471174717, -0.9920000471174717, 0.9920000471174717, 0.0, 0.0, 0.0, 0.0, 0.0, 1.7054295965722632E9, 0.0, 2024-01-16 13:26:36.572
90.0, -109.86330109834671, -307.3300187587738, -242.94390112161636, 261.13477450609207, -0.9920000471174717, -0.9920000471174717, 0.9920000471174717, 0.0, 0.0, 0.0, 0.0, 0.0, 1.705429596572857E9, 0.0, 2024-01-16 13:26:36.572
90.0, -1.4361215829849243, -141.93668311834335, -125.42128491401672, 378.41803711652756, -0.9920000471174717, -0.9920000471174717, 0.9920000471174717, 0.0, 0.0, 0.0, 0.0, 0.0, 1.705429596572857E9, 0.0, 2024-01-16 13:26:36.572
91.0, 27.76501727104187, -144.09086549282074, -130.44771045446396, 397.0876176953316, -0.9920000471174717, -0.9920000471174717, 0.9920000471174717, 0.0, 0.0, 0.0, 0.0, 0.0, 1.7054295965866716E9, 0.0, 2024-01-16 13:26:36.586
91.0, -104.35816836357117, -312.35644429922104, -253.236105799675, 267.8366752266884, -0.9920000471174717, -0.9920000471174717, 0.9920000471174717, 0.0, 0.0, 0.0, 0.0, 0.0, 1.7054295965866716E9, 0.0, 2024-01-16 13:26:36.586
92.0, -57.92357051372528, -207.75892233848572, -170.898468375206, 332.9408536553383, -0.9920000471174717, -0.9920000471174717, 0.9920000471174717, 0.0, 0.0, 0.0, 0.0, 0.0, 1.7054295966022668E9, 0.0, 2024-01-16 13:26:36.602
92.0, 42.12623310089111, -110.34200829267502, -105.55493634939194, 419.3475022315979, -0.9920000471174717, -0.9920000471174717, 0.9920000471174717, 0.0, 0.0, 0.0, 0.0, 0.0, 1.7054295966022668E9, 0.0, 2024-01-16 13:26:36.602
93.0, -64.14676403999329, -276.93211191892624, -226.42850291728973, 301.1068252325058, -0.9920000471174717, -0.9920000471174717, 0.9920000471174717, 0.0, 0.0, 0.0, 0.0, 0.0, 1.7054295966028593E9, 0.0, 2024-01-16 13:26:36.602
93.0, -91.43307411670685, -267.1186144351959, -223.31690615415573, 283.8733662366867, -0.9920000471174717, -0.9920000471174717, 0.9920000471174717, 0.0, 0.0, 0.0, 0.0, 0.0, 1.7054295966028593E9, 0.0, 2024-01-16 13:26:36.602
94.0, 32.07338201999664, -98.13497483730316, -89.75759893655777, 422.69845259189606, -0.9920000471174717, -0.9920000471174717, 0.9920000471174717, 0.0, 0.0, 0.0, 0.0, 0.0, 1.705429596616584E9, 0.0, 2024-01-16 13:26:36.616
94.0, -3.829657554626465, -197.22736406326294, -160.84561729431152, 366.45035725831985, -0.9920000471174717, -0.9920000471174717, 0.9920000471174717, 0.0, 0.0, 0.0, 0.0, 0.0, 1.705429596616584E9, 0.0, 2024-01-16 13:26:36.616
95.0, -99.57109642028809, -294.64427810907364, -232.41234284639359, 279.56500148773193, -0.9920000471174717, -0.9920000471174717, 0.9920000471174717, 0.0, 0.0, 0.0, 0.0, 0.0, 1.7054295966326284E9, 0.0, 2024-01-16 13:26:36.632
95.0, 9.813497483730316, -130.92641764879227, -111.29942268133163, 399.24180006980896, -0.9920000471174717, -0.9920000471174717, 0.9920000471174717, 0.0, 0.0, 0.0, 0.0, 0.0, 1.7054295966326284E9, 0.0, 2024-01-16 13:26:36.632
96.0, 49.306841015815735, -121.83098095655441, -108.42717951536179, 425.81004935503006, -0.9920000471174717, -0.9920000471174717, 0.9920000471174717, 0.0, 0.0, 0.0, 0.0, 0.0, 1.7054295966328948E9, 0.0, 2024-01-16 13:26:36.632
96.0, -76.5931510925293, -289.1391453742981, -224.75302773714066, 288.42108458280563, -0.9920000471174717, -0.9920000471174717, 0.9920000471174717, 0.0, 0.0, 0.0, 0.0, 0.0, 1.7054295966328948E9, 0.0, 2024-01-16 13:26:36.632
97.0, -35.4243323802948, -188.37128096818924, -141.45797592401505, 359.26974934339523, -0.9920000471174717, -0.9920000471174717, 0.9920000471174717, 0.0, 0.0, 0.0, 0.0, 0.0, 1.70542959664669E9, 0.0, 2024-01-16 13:26:36.646
97.0, 73.72090792655945, -75.39638310670853, -68.93383598327637, 458.362138569355, -0.9920000471174717, -0.9920000471174717, 0.9920000471174717, 0.0, 0.0, 0.0, 0.0, 0.0, 1.70542959664669E9, 0.0, 2024-01-16 13:26:36.646
98.0, -47.3920122385025, -251.32127702236176, -202.49314320087433, 331.02602487802505, -0.9920000471174717, -0.9920000471174717, 0.9920000471174717, 0.0, 0.0, 0.0, 0.0, 0.0, 1.7054295966617827E9, 0.0, 2024-01-16 13:26:36.661
98.0, -84.49181979894638, -265.44313925504684, -211.82793349027634, 292.49009573459625, -0.9920000471174717, -0.9920000471174717, 0.9920000471174717, 0.0, 0.0, 0.0, 0.0, 0.0, 1.7054295966617827E9, 0.0, 2024-01-16 13:26:36.661
0.0, 15.557983815670013, -174.01006513834, -140.50056153535843, 392.3005457520485, -0.9920000471174717, -0.9920000471174717, 1.008000047877431, 0.0, 0.0, 0.0, 0.0, 0.0, 1.7054295966778424E9, 0.0, 2024-01-16 13:26:36.677
0.0, -87.60341656208038, -287.9423773884773, -225.47108852863312, 279.8043550848961, -0.9920000471174717, -0.9920000471174717, 1.008000047877431, 0.0, 0.0, 0.0, 0.0, 0.0, 1.7054295966778424E9, 0.0, 2024-01-16 13:26:36.677
1.0, 21.78117734193802, -116.80455541610718, -91.1937205195427, 417.911380648613, -0.9920000471174717, -0.06400000303983688, 1.008000047877431, 0.0, 0.0, 0.0, 0.0, 0.0, 1.705429596678579E9, 0.0, 2024-01-16 13:26:36.678
1.0, 54.093912959098816, -112.73554426431656, -95.26273167133331, 439.2138507962227, -0.9920000471174717, -0.06400000303983688, 1.008000047877431, 0.0, 0.0, 0.0, 0.0, 0.0, 1.705429596678579E9, 0.0, 2024-01-16 13:26:36.678
2.0, -74.19961512088776, -279.3256478905678, -214.70017665624619, 310.4416155219078, 0.09600000455975533, -0.06400000303983688, 1.008000047877431, 0.0, 0.0, 0.0, 0.0, 0.0, 1.7054295966918125E9, 0.0, 2024-01-16 13:26:36.691
2.0, -21.063116550445557, -165.87204283475876, -117.52261620759964, 386.31670582294464, 0.09600000455975533, -0.06400000303983688, 1.008000047877431, 0.0, 0.0, 0.0, 0.0, 0.0, 1.7054295966918125E9, 0.0, 2024-01-16 13:26:36.691
3.0, 69.17318958044052, -76.11444389820099, -69.89125037193298, 462.6705033183098, 0.09600000455975533, -0.06400000303983688, 1.008000047877431, 0.0, 0.0, 0.0, 0.0, 0.0, 1.7054295967072568E9, 0.0, 2024-01-16 13:26:36.707
3.0, -40.69011151790619, -245.57679069042206, -185.73839139938354, 347.5414230823517, 0.09600000455975533, -0.06400000303983688, 1.008000047877431, 0.0, 0.0, 0.0, 0.0, 0.0, 1.7054295967072568E9, 0.0, 2024-01-16 13:26:36.707
4.0, -77.31121188402176, -249.40644824504852, -184.78097701072693, 328.1537817120552, 0.09600000455975533, -0.06400000303983688, 1.008000047877431, 0.0, 0.0, 0.0, 0.0, 0.0, 1.7054295967079082E9, 0.0, 2024-01-16 13:26:36.707
4.0, 41.40817230939865, -84.25246620178223, -66.77965360879898, 463.6279177069664, 0.09600000455975533, -0.06400000303983688, 1.008000047877431, 0.0, 0.0, 0.0, 0.0, 0.0, 1.7054295967079082E9, 0.0, 2024-01-16 13:26:36.707
5.0, 1.4361215829849243, -184.30226981639862, -143.37280470132828, 403.0714576244354, 0.09600000455975533, -0.06400000303983688, 1.008000047877431, 0.0, 0.0, 0.0, 0.0, 0.0, 1.705429596721751E9, 0.0, 2024-01-16 13:26:36.721
5.0, -106.03364354372025, -287.70302379131317, -212.30664068460464, 301.1068252325058, 0.09600000455975533, -0.06400000303983688, 1.008000047877431, 0.0, 0.0, 0.0, 0.0, 0.0, 1.705429596721751E9, 0.0, 2024-01-16 13:26:36.721
6.0, -5.744486331939697, -131.88383203744888, -112.0174834728241, 408.8159439563751, 0.09600000455975533, -0.06400000303983688, 1.008000047877431, 0.0, 0.0, 0.0, 0.0, 0.0, 1.7054295967372642E9, 0.0, 2024-01-16 13:26:36.737
6.0, 42.36558669805527, -118.00132340192795, -93.82661008834839, 453.57506662607193, 0.09600000455975533, -0.06400000303983688, 1.008000047877431, 0.0, 0.0, 0.0, 0.0, 0.0, 1.7054295967372642E9, 0.0, 2024-01-16 13:26:36.737
7.0, -85.449234187603, -282.4372446537018, -208.47698312997818, 313.0745050907135, 0.09600000455975533, -0.06400000303983688, 1.008000047877431, 0.0, 0.0, 0.0, 0.0, 0.0, 1.7054295967378728E9, 0.0, 2024-01-16 13:26:36.737
7.0, -43.08364748954773, -185.4990378022194, -136.19219678640366, 374.82773315906525, 0.09600000455975533, -0.06400000303983688, 1.008000047877431, 0.0, 0.0, 0.0, 0.0, 0.0, 1.7054295967378728E9, 0.0, 2024-01-16 13:26:36.737
8.0, 70.13060396909714, -74.91767591238022, -69.65189677476883, 469.61175763607025, 0.09600000455975533, -0.06400000303983688, 1.008000047877431, 0.0, 0.0, 0.0, 0.0, 0.0, 1.7054295967516477E9, 0.0, 2024-01-16 13:26:36.751
8.0, -35.184978783130646, -239.1142435669899, -193.15835291147232, 345.3872407078743, 0.09600000455975533, -0.06400000303983688, 1.008000047877431, 0.0, 0.0, 0.0, 0.0, 0.0, 1.7054295967516477E9, 0.0, 2024-01-16 13:26:36.751
9.0, -67.97642159461975, -233.3697572350502, -179.27584427595139, 333.65891444683075, 0.09600000455975533, -0.06400000303983688, 1.008000047877431, 0.0, 0.0, 0.0, 0.0, 0.0, 1.705429596767302E9, 0.0, 2024-01-16 13:26:36.767
9.0, 59.59904569387436, -67.97642159461975, -56.00874173641205, 475.83495116233826, 0.09600000455975533, -0.06400000303983688, 1.008000047877431, 0.0, 0.0, 0.0, 0.0, 0.0, 1.705429596767302E9, 0.0, 2024-01-16 13:26:36.767
10.0, 1.6754751801490784, -183.344855427742, -140.97926872968674, 404.2682256102562, 0.09600000455975533, -0.06400000303983688, 0.9920000471174717, 0.0, 0.0, 0.0, 0.0, 0.0, 1.7054295967678678E9, 0.0, 2024-01-16 13:26:36.767
10.0, -94.784024477005, -282.4372446537018, -213.50340867042542, 304.93648278713226, 0.09600000455975533, -0.06400000303983688, 0.9920000471174717, 0.0, 0.0, 0.0, 0.0, 0.0, 1.7054295967678678E9, 0.0, 2024-01-16 13:26:36.767
11.0, 4.547718346118927, -123.26710253953934, -88.08212375640869, 433.23001086711884, 0.09600000455975533, -0.06400000303983688, 0.9920000471174717, 0.0, 0.0, 0.0, 0.0, 0.0, 1.7054295967820091E9, 0.0, 2024-01-16 13:26:36.782
11.0, 29.44049245119095, -130.6870640516281, -109.86330109834671, 441.6073867678642, 0.09600000455975533, -0.06400000303983688, 0.9920000471174717, 0.0, 0.0, 0.0, 0.0, 0.0, 1.7054295967820091E9, 0.0, 2024-01-16 13:26:36.782
12.0, -89.51824533939362, -289.85720616579056, -230.49751406908035, 299.910057246685, 0.09600000455975533, -0.06400000303983688, 0.9920000471174717, 0.0, 0.0, 0.0, 0.0, 0.0, 1.7054295967974195E9, 0.0, 2024-01-16 13:26:36.797
12.0, -49.06748741865158, -192.2009385228157, -153.42565578222275, 355.2007381916046, 0.09600000455975533, -0.06400000303983688, 0.9920000471174717, 0.0, 0.0, 0.0, 0.0, 0.0, 1.7054295967974195E9, 0.0, 2024-01-16 13:26:36.797
13.0, 60.79581367969513, -85.68858778476715, -79.46539425849915, 451.6602378487587, 0.09600000455975533, -0.06400000303983688, 0.9920000471174717, 0.0, 0.0, 0.0, 0.0, 0.0, 1.7054295967979093E9, 0.0, 2024-01-16 13:26:36.797
13.0, -45.716537058353424, -252.51804500818253, -197.9454248547554, 340.83952236175537, 0.09600000455975533, -0.06400000303983688, 0.9920000471174717, 0.0, 0.0, 0.0, 0.0, 0.0, 1.7054295967979093E9, 0.0, 2024-01-16 13:26:36.797
14.0, -86.40664857625961, -257.3051169514656, -195.3125352859497, 316.90416264533997, 0.09600000455975533, -0.06400000303983688, 0.9920000471174717, 0.0, 0.0, 0.0, 0.0, 0.0, 1.7054295968117878E9, 0.0, 2024-01-16 13:26:36.811
14.0, 47.15265864133835, -86.88535577058792, -75.15702950954437, 447.11251950263977, 0.09600000455975533, -0.06400000303983688, 0.9920000471174717, 0.0, 0.0, 0.0, 0.0, 0.0, 1.7054295968117878E9, 0.0, 2024-01-16 13:26:36.811
15.0, -1.9148287773132324, -188.13192737102509, -154.62242376804352, 384.16252344846725, 0.09600000455975533, -0.06400000303983688, 0.9920000471174717, 0.0, 0.0, 0.0, 0.0, 0.0, 1.7054295968277988E9, 0.0, 2024-01-16 13:26:36.827
15.0, -107.46976512670517, -297.75587487220764, -227.38591730594635, 291.2933277487755, 0.09600000455975533, -0.06400000303983688, 0.9920000471174717, 0.0, 0.0, 0.0, 0.0, 0.0, 1.7054295968277988E9, 0.0, 2024-01-16 13:26:36.827
16.0, -5.026425540447235, -127.57546728849411, -99.81045001745224, 417.911380648613, 0.09600000455975533, -0.06400000303983688, 0.9920000471174717, 0.0, 0.0, 0.0, 0.0, 0.0, 1.7054295968425283E9, 0.0, 2024-01-16 13:26:36.842
16.0, 25.132127702236176, -136.19219678640366, -111.77812987565994, 428.6822925209999, 0.09600000455975533, -0.06400000303983688, 0.9920000471174717, 0.0, 0.0, 0.0, 0.0, 0.0, 1.7054295968425283E9, 0.0, 2024-01-16 13:26:36.842
17.0, -101.48592519760132, -309.4842011332512, -240.31101155281067, 285.0701342225075, 0.09600000455975533, -0.06400000303983688, 0.9920000471174717, 0.0, 0.0, 0.0, 0.0, 0.0, 1.705429596842972E9, 0.0, 2024-01-16 13:26:36.842
17.0, -56.487448930740356, -209.67375111579895, -167.30816441774368, 347.0627158880234, 0.09600000455975533, -0.06400000303983688, 0.9920000471174717, 0.0, 0.0, 0.0, 0.0, 0.0, 1.705429596842972E9, 0.0, 2024-01-16 13:26:36.842
18.0, 46.434597849845886, -94.54467087984085, -95.74143886566162, 442.56480115652084, 0.09600000455975533, -0.06400000303983688, 0.9920000471174717, 0.0, 0.0, 0.0, 0.0, 0.0, 1.7054295968738365E9, 0.0, 2024-01-16 13:26:36.873
18.0, -54.572620153427124, -259.69865292310715, -210.63116550445557, 325.9995993375778, 0.09600000455975533, -0.06400000303983688, 0.9920000471174717, 0.0, 0.0, 0.0, 0.0, 0.0, 1.7054295968738365E9, 0.0, 2024-01-16 13:26:36.873
19.0, -87.12470936775208, -262.570896089077, -207.75892233848572, 296.798460483551, 0.09600000455975533, -0.06400000303983688, 0.9920000471174717, 0.0, 0.0, 0.0, 0.0, 0.0, 1.7054295968743129E9, 0.0, 2024-01-16 13:26:36.874
19.0, 40.21140432357788, -92.62984210252762, -83.77375900745392, 435.6235468387604, 0.09600000455975533, -0.06400000303983688, 0.9920000471174717, 0.0, 0.0, 0.0, 0.0, 0.0, 1.7054295968743129E9, 0.0, 2024-01-16 13:26:36.874
20.0, -8.616729497909546, -193.39770650863647, -166.82945722341537, 365.2535892724991, 0.09600000455975533, -0.06400000303983688, 1.008000047877431, 0.0, 0.0, 0.0, 0.0, 0.0, 1.7054295968750362E9, 0.0, 2024-01-16 13:26:36.875
20.0, -106.2729971408844, -300.38876444101334, -236.4813539981842, 275.017283141613, 0.09600000455975533, -0.06400000303983688, 1.008000047877431, 0.0, 0.0, 0.0, 0.0, 0.0, 1.7054295968750362E9, 0.0, 2024-01-16 13:26:36.875
21.0, -8.138022303581238, -140.97926872968674, -117.04390901327133, 386.5560594201088, 0.09600000455975533, -0.06400000303983688, 1.008000047877431, 0.0, 0.0, 0.0, 0.0, 0.0, 1.7054295968757775E9, 0.0, 2024-01-16 13:26:36.875
21.0, 24.89277410507202, -145.2876334786415, -130.2083568572998, 404.02887201309204, 0.09600000455975533, -0.06400000303983688, 1.008000047877431, 0.0, 0.0, 0.0, 0.0, 0.0, 1.7054295968757775E9, 0.0, 2024-01-16 13:26:36.875
22.0, -101.72527879476547, -308.7661403417587, -251.79998421669006, 268.794089615345, 0.09600000455975533, -0.06400000303983688, 1.008000047877431, 0.0, 0.0, 0.0, 0.0, 0.0, 1.7054295969026413E9, 0.0, 2024-01-16 13:26:36.902
22.0, -62.47128885984421, -215.41823744773865, -174.9674795269966, 326.7176601290703, 0.09600000455975533, -0.06400000303983688, 1.008000047877431, 0.0, 0.0, 0.0, 0.0, 0.0, 1.7054295969026413E9, 0.0, 2024-01-16 13:26:36.902
23.0, 41.1688187122345, -101.96463239192963, -98.37432843446732, 430.357767701149, 0.09600000455975533, -0.06400000303983688, 1.008000047877431, 0.0, 0.0, 0.0, 0.0, 0.0, 1.705429596903114E9, 0.0, 2024-01-16 13:26:36.903
23.0, -63.90741044282913, -271.66633278131485, -213.0247014760971, 315.94674825668335, 0.09600000455975533, -0.06400000303983688, 1.008000047877431, 0.0, 0.0, 0.0, 0.0, 0.0, 1.705429596903114E9, 0.0, 2024-01-16 13:26:36.903
24.0, -97.4169140458107, -272.8631007671356, -208.23762953281403, 295.12298530340195, 0.09600000455975533, -0.06400000303983688, 1.008000047877431, 0.0, 0.0, 0.0, 0.0, 0.0, 1.7054295969173272E9, 0.0, 2024-01-16 13:26:36.917
24.0, 29.201138854026794, -105.07622915506363, -86.40664857625961, 432.9906572699547, 0.09600000455975533, -0.06400000303983688, 1.008000047877431, 0.0, 0.0, 0.0, 0.0, 0.0, 1.7054295969173272E9, 0.0, 2024-01-16 13:26:36.917
25.0, -14.361215829849243, -198.90283924341202, -164.91462844610214, 370.2800148129463, 0.09600000455975533, -0.06400000303983688, 1.008000047877431, 0.0, 0.0, 0.0, 0.0, 0.0, 1.7054295969179697E9, 0.0, 2024-01-16 13:26:36.917
25.0, -108.9058867096901, -300.6281180381775, -232.17298924922943, 276.93211191892624, 0.09600000455975533, -0.06400000303983688, 1.008000047877431, 0.0, 0.0, 0.0, 0.0, 0.0, 1.7054295969179697E9, 0.0, 2024-01-16 13:26:36.917
26.0, -10.05285108089447, -140.02185434103012, -120.63421297073364, 390.86442416906357, 0.09600000455975533, -0.06400000303983688, 1.008000047877431, 0.0, 0.0, 0.0, 0.0, 0.0, 1.7054295969317524E9, 0.0, 2024-01-16 13:26:36.931
26.0, 35.184978783130646, -129.01158887147903, -119.91615217924118, 413.84236949682236, 0.09600000455975533, -0.06400000303983688, 1.008000047877431, 0.0, 0.0, 0.0, 0.0, 0.0, 1.7054295969317524E9, 0.0, 2024-01-16 13:26:36.931
27.0, -99.81045001745224, -310.20226192474365, -236.0026468038559, 281.00112307071686, 0.09600000455975533, -0.06400000303983688, 1.008000047877431, 0.0, 0.0, 0.0, 0.0, 0.0, 1.705429596947332E9, 0.0, 2024-01-16 13:26:36.947
27.0, -51.22166979312897, -202.01443600654602, -161.32432448863983, 341.55758315324783, 0.09600000455975533, -0.06400000303983688, 1.008000047877431, 0.0, 0.0, 0.0, 0.0, 0.0, 1.705429596947332E9, 0.0, 2024-01-16 13:26:36.947
28.0, 43.08364748954773, -99.57109642028809, -90.95436692237854, 434.4267788529396, 0.09600000455975533, -0.06400000303983688, 1.008000047877431, 0.0, 0.0, 0.0, 0.0, 0.0, 1.7054295969479375E9, 0.0, 2024-01-16 13:26:36.947
28.0, -70.60931116342545, -279.8043550848961, -222.59884536266327, 302.5429468154907, 0.09600000455975533, -0.06400000303983688, 1.008000047877431, 0.0, 0.0, 0.0, 0.0, 0.0, 1.7054295969479375E9, 0.0, 2024-01-16 13:26:36.947
29.0, -104.59752196073532, -279.3256478905678, -216.85435903072357, 284.59142702817917, 0.09600000455975533, -0.06400000303983688, 1.008000047877431, 0.0, 0.0, 0.0, 0.0, 0.0, 1.705429596961615E9, 0.0, 2024-01-16 13:26:36.961
29.0, 26.328895688056946, -105.79428994655609, -96.22014605998993, 417.43267345428467, 0.09600000455975533, -0.06400000303983688, 1.008000047877431, 0.0, 0.0, 0.0, 0.0, 0.0, 1.705429596961615E9, 0.0, 2024-01-16 13:26:36.961
30.0, -18.190873384475708, -206.08344715833664, -180.47261226177216, 348.25948387384415, 0.09600000455975533, -0.06400000303983688, 1.008000047877431, 0.0, 0.0, 0.0, 0.0, 0.0, 1.70542959697744E9, 0.0, 2024-01-16 13:26:36.977
30.0, -129.01158887147903, -324.32412415742874, -252.27869141101837, 257.06576335430145, 0.09600000455975533, -0.06400000303983688, 1.008000047877431, 0.0, 0.0, 0.0, 0.0, 0.0, 1.70542959697744E9, 0.0, 2024-01-16 13:26:36.977
31.0, -16.994105398654938, -155.57983815670013, -134.99542880058289, 374.1096723675728, 0.09600000455975533, -0.06400000303983688, 1.008000047877431, 0.0, 0.0, 0.0, 0.0, 0.0, 1.7054295969779708E9, 0.0, 2024-01-16 13:26:36.977
31.0, 21.78117734193802, -145.04827988147736, -137.86767196655273, 397.0876176953316, 0.09600000455975533, -0.06400000303983688, 1.008000047877431, 0.0, 0.0, 0.0, 0.0, 0.0, 1.7054295969779708E9, 0.0, 2024-01-16 13:26:36.977
32.0, -108.18782591819763, -318.10093063116074, -255.15093457698822, 266.87926083803177, 0.09600000455975533, -0.06400000303983688, 1.008000047877431, 0.0, 0.0, 0.0, 0.0, 0.0, 1.70542959699172E9, 0.0, 2024-01-16 13:26:36.991
32.0, -68.45512878894806, -219.2478950023651, -184.78097701072693, 319.7764058113098, 0.09600000455975533, -0.06400000303983688, 1.008000047877431, 0.0, 0.0, 0.0, 0.0, 0.0, 1.70542959699172E9, 0.0, 2024-01-16 13:26:36.991
33.0, 40.21140432357788, -106.75170433521271, -104.59752196073532, 423.4165133833885, 0.09600000455975533, -0.06400000303983688, 1.008000047877431, 0.0, 0.0, 0.0, 0.0, 0.0, 1.7054295970074897E9, 0.0, 2024-01-16 13:26:37.007
33.0, -67.25836080312729, -275.017283141613, -226.90721011161804, 301.82488602399826, 0.09600000455975533, -0.06400000303983688, 1.008000047877431, 0.0, 0.0, 0.0, 0.0, 0.0, 1.7054295970074897E9, 0.0, 2024-01-16 13:26:37.007
34.0, -103.6401075720787, -279.0862942934036, -217.09371262788773, 283.15530544519424, 0.09600000455975533, -0.06400000303983688, 1.008000047877431, 0.0, 0.0, 0.0, 0.0, 0.0, 1.7054295970079648E9, 0.0, 2024-01-16 13:26:37.007
34.0, 25.37148129940033, -109.14524030685425, -98.37432843446732, 416.95396625995636, 0.09600000455975533, -0.06400000303983688, 1.008000047877431, 0.0, 0.0, 0.0, 0.0, 0.0, 1.7054295970079648E9, 0.0, 2024-01-16 13:26:37.007
35.0, -19.148287773132324, -206.56215435266495, -180.233258664608, 356.15815258026123, 0.09600000455975533, -0.06400000303983688, 1.008000047877431, 0.0, 0.0, 0.0, 0.0, 0.0, 1.705429597021792E9, 0.0, 2024-01-16 13:26:37.021
35.0, -119.91615217924118, -316.90416264533997, -253.236105799675, 258.2625313401222, 0.09600000455975533, -0.06400000303983688, 1.008000047877431, 0.0, 0.0, 0.0, 0.0, 0.0, 1.705429597021792E9, 0.0, 2024-01-16 13:26:37.021
36.0, -20.823762953281403, -155.10113096237183, -130.6870640516281, 378.41803711652756, 0.09600000455975533, -0.06400000303983688, 1.008000047877431, 0.0, 0.0, 0.0, 0.0, 0.0, 1.705429597037816E9, 0.0, 2024-01-16 13:26:37.037
36.0, 20.823762953281403, -151.27147340774536, -137.38896477222443, 399.9598608613014, 0.09600000455975533, -0.06400000303983688, 1.008000047877431, 0.0, 0.0, 0.0, 0.0, 0.0, 1.705429597037816E9, 0.0, 2024-01-16 13:26:37.037
37.0, -104.83687555789948, -317.8615770339966, -255.86899536848068, 257.06576335430145, 0.09600000455975533, -0.06400000303983688, 1.008000047877431, 0.0, 0.0, 0.0, 0.0, 0.0, 1.705429597052503E9, 0.0, 2024-01-16 13:26:37.052
37.0, -67.01900720596313, -225.71044212579727, -184.78097701072693, 319.53705221414566, 0.09600000455975533, -0.06400000303983688, 1.008000047877431, 0.0, 0.0, 0.0, 0.0, 0.0, 1.705429597052503E9, 0.0, 2024-01-16 13:26:37.052
38.0, 36.381746768951416, -116.56520181894302, -112.73554426431656, 420.7836238145828, 0.09600000455975533, -0.06400000303983688, 1.008000047877431, 0.0, 0.0, 0.0, 0.0, 0.0, 1.7054295970531528E9, 0.0, 2024-01-16 13:26:37.053
38.0, -65.58288562297821, -276.45340472459793, -231.45492845773697, 295.3623389005661, 0.09600000455975533, -0.06400000303983688, 1.008000047877431, 0.0, 0.0, 0.0, 0.0, 0.0, 1.7054295970531528E9, 0.0, 2024-01-16 13:26:37.053
39.0, -105.79428994655609, -282.1978910565376, -224.9923813343048, 271.66633278131485, 0.09600000455975533, -0.06400000303983688, 1.008000047877431, 0.0, 0.0, 0.0, 0.0, 0.0, 1.7054295970672424E9, 0.0, 2024-01-16 13:26:37.067
39.0, 25.132127702236176, -110.10265469551086, -108.9058867096901, 404.50757920742035, 0.09600000455975533, -0.06400000303983688, 1.008000047877431, 0.0, 0.0, 0.0, 0.0, 0.0, 1.7054295970672424E9, 0.0, 2024-01-16 13:26:37.067
40.0, -21.78117734193802, -213.74276226758957, -183.10550183057785, 346.58400869369507, 0.09600000455975533, -0.06400000303983688, 0.9920000471174717, 0.0, 0.0, 0.0, 0.0, 0.0, 1.7054295970678968E9, 0.0, 2024-01-16 13:26:37.067
40.0, -121.3522737622261, -320.4944666028023, -255.86899536848068, 246.77355867624283, 0.09600000455975533, -0.06400000303983688, 0.9920000471174717, 0.0, 0.0, 0.0, 0.0, 0.0, 1.7054295970678968E9, 0.0, 2024-01-16 13:26:37.067
41.0, -17.472812592983246, -156.53725254535675, -136.4315503835678, 369.3226004242897, 0.09600000455975533, -0.06400000303983688, 0.9920000471174717, 0.0, 0.0, 0.0, 0.0, 0.0, 1.7054295970982044E9, 0.0, 2024-01-16 13:26:37.098
41.0, 21.30247014760971, -153.1863021850586, -144.56957268714905, 390.6250705718994, 0.09600000455975533, -0.06400000303983688, 0.9920000471174717, 0.0, 0.0, 0.0, 0.0, 0.0, 1.7054295970982044E9, 0.0, 2024-01-16 13:26:37.098
42.0, -116.80455541610718, -328.39313530921936, -267.59732162952423, 249.16709464788437, 0.09600000455975533, -0.06400000303983688, 0.9920000471174717, 0.0, 0.0, 0.0, 0.0, 0.0, 1.7054295970986955E9, 0.0, 2024-01-16 13:26:37.098
42.0, -70.60931116342545, -228.82203888893127, -193.39770650863647, 301.5855324268341, 0.09600000455975533, -0.06400000303983688, 0.9920000471174717, 0.0, 0.0, 0.0, 0.0, 0.0, 1.7054295970986955E9, 0.0, 2024-01-16 13:26:37.098
43.0, 36.14239317178726, -119.43744498491287, -123.26710253953934, 405.9437007904053, 0.09600000455975533, -0.06400000303983688, 0.9920000471174717, 0.0, 0.0, 0.0, 0.0, 0.0, 1.705429597099529E9, 0.0, 2024-01-16 13:26:37.099
43.0, -70.60931116342545, -284.59142702817917, -240.31101155281067, 282.9159518480301, 0.09600000455975533, -0.06400000303983688, 0.9920000471174717, 0.0, 0.0, 0.0, 0.0, 0.0, 1.705429597099529E9, 0.0, 2024-01-16 13:26:37.099
44.0, -113.21425145864487, -297.27716767787933, -243.18325471878052, 259.21994572877884, 0.09600000455975533, -0.06400000303983688, 0.9920000471174717, 0.0, 0.0, 0.0, 0.0, 0.0, 1.7054295971117575E9, 0.0, 2024-01-16 13:26:37.111
44.0, 21.541823744773865, -117.7619698047638, -112.0174834728241, 401.87468963861465, 0.09600000455975533, -0.06400000303983688, 0.9920000471174717, 0.0, 0.0, 0.0, 0.0, 0.0, 1.7054295971117575E9, 0.0, 2024-01-16 13:26:37.111
45.0, -25.850188493728638, -219.72660219669342, -188.13192737102509, 348.25948387384415, 0.09600000455975533, -0.06400000303983688, 0.9920000471174717, 0.0, 0.0, 0.0, 0.0, 0.0, 1.705429597127224E9, 0.0, 2024-01-16 13:26:37.127
45.0, -123.50645613670349, -321.9305881857872, -253.47545939683914, 251.32127702236176, 0.09600000455975533, -0.06400000303983688, 0.9920000471174717, 0.0, 0.0, 0.0, 0.0, 0.0, 1.705429597127224E9, 0.0, 2024-01-16 13:26:37.127
46.0, -14.839923024177551, -158.21272772550583, -134.51672160625458, 374.82773315906525, 0.09600000455975533, -0.06400000303983688, 0.9920000471174717, 0.0, 0.0, 0.0, 0.0, 0.0, 1.705429597128016E9, 0.0, 2024-01-16 13:26:37.128
46.0, 23.935359716415405, -146.72375506162643, -134.75607520341873, 399.0024464726448, 0.09600000455975533, -0.06400000303983688, 0.9920000471174717, 0.0, 0.0, 0.0, 0.0, 0.0, 1.705429597128016E9, 0.0, 2024-01-16 13:26:37.128
47.0, -102.44333958625793, -318.3402842283249, -251.5606306195259, 269.2727968096733, 0.09600000455975533, -0.06400000303983688, 0.9920000471174717, 0.0, 0.0, 0.0, 0.0, 0.0, 1.705429597141816E9, 0.0, 2024-01-16 13:26:37.141
47.0, -58.162924110889435, -216.61500543355942, -168.2655788064003, 332.2227928638458, 0.09600000455975533, -0.06400000303983688, 0.9920000471174717, 0.0, 0.0, 0.0, 0.0, 0.0, 1.705429597141816E9, 0.0, 2024-01-16 13:26:37.141
48.0, 49.54619461297989, -99.57109642028809, -92.15113490819931, 431.07582849264145, 0.09600000455975533, -0.06400000303983688, 0.9920000471174717, 0.0, 0.0, 0.0, 0.0, 0.0, 1.705429597157798E9, 0.0, 2024-01-16 13:26:37.157
48.0, -55.05132734775543, -262.0921888947487, -213.26405507326126, 308.7661403417587, 0.09600000455975533, -0.06400000303983688, 0.9920000471174717, 0.0, 0.0, 0.0, 0.0, 0.0, 1.705429597157798E9, 0.0, 2024-01-16 13:26:37.157
49.0, -79.7047478556633, -256.8264097571373, -201.5357288122177, 298.4739356637001, 0.09600000455975533, -0.06400000303983688, 0.9920000471174717, 0.0, 0.0, 0.0, 0.0, 0.0, 1.7054295971725028E9, 0.0, 2024-01-16 13:26:37.172
49.0, 48.34942662715912, -79.94410145282745, -72.04543274641037, 437.77772921323776, 0.09600000455975533, -0.06400000303983688, 0.9920000471174717, 0.0, 0.0, 0.0, 0.0, 0.0, 1.7054295971725028E9, 0.0, 2024-01-16 13:26:37.172
50.0, 5.026425540447235, -183.344855427742, -151.98953419923782, 381.52963387966156, 0.09600000455975533, -0.06400000303983688, 0.9920000471174717, 0.0, 0.0, 0.0, 0.0, 0.0, 1.7054295971730397E9, 0.0, 2024-01-16 13:26:37.173
50.0, -106.03364354372025, -307.8087259531021, -234.08781802654266, 274.77792954444885, 0.09600000455975533, -0.06400000303983688, 0.9920000471174717, 0.0, 0.0, 0.0, 0.0, 0.0, 1.7054295971730397E9, 0.0, 2024-01-16 13:26:37.173
51.0, 9.813497483730316, -130.92641764879227, -109.14524030685425, 394.2153745293617, 0.09600000455975533, -0.06400000303983688, 0.9920000471174717, 0.0, 0.0, 0.0, 0.0, 0.0, 1.7054295971872473E9, 0.0, 2024-01-16 13:26:37.187
51.0, 47.3920122385025, -121.11292016506195, -111.06006908416748, 420.54427021741867, 0.09600000455975533, -0.06400000303983688, 0.9920000471174717, 0.0, 0.0, 0.0, 0.0, 0.0, 1.7054295971872473E9, 0.0, 2024-01-16 13:26:37.187
52.0, -96.22014605998993, -310.68096911907196, -253.236105799675, 265.44313925504684, 0.09600000455975533, -0.06400000303983688, 0.9920000471174717, 0.0, 0.0, 0.0, 0.0, 0.0, 1.7054295971879272E9, 0.0, 2024-01-16 13:26:37.187
52.0, -50.0249018073082, -206.08344715833664, -161.56367808580399, 332.2227928638458, 0.09600000455975533, -0.06400000303983688, 0.9920000471174717, 0.0, 0.0, 0.0, 0.0, 0.0, 1.7054295971879272E9, 0.0, 2024-01-16 13:26:37.187
53.0, 59.83839929103851, -94.3053172826767, -92.15113490819931, 435.6235468387604, 0.09600000455975533, -0.06400000303983688, 0.9920000471174717, 0.0, 0.0, 0.0, 0.0, 0.0, 1.705429597201583E9, 0.0, 2024-01-16 13:26:37.201
53.0, -37.09980756044388, -252.99675220251083, -208.9556903243065, 313.79256588220596, 0.09600000455975533, -0.06400000303983688, 0.9920000471174717, 0.0, 0.0, 0.0, 0.0, 0.0, 1.705429597201583E9, 0.0, 2024-01-16 13:26:37.201
54.0, -74.19961512088776, -261.3741281032562, -203.2112039923668, 300.38876444101334, 0.09600000455975533, -0.06400000303983688, 0.9920000471174717, 0.0, 0.0, 0.0, 0.0, 0.0, 1.7054295972172468E9, 0.0, 2024-01-16 13:26:37.217
54.0, 58.8809849023819, -83.05569821596146, -71.08801835775375, 443.2828619480133, 0.09600000455975533, -0.06400000303983688, 0.9920000471174717, 0.0, 0.0, 0.0, 0.0, 0.0, 1.7054295972172468E9, 0.0, 2024-01-16 13:26:37.217
55.0, 2.3935359716415405, -192.44029211997986, -165.1539820432663, 361.9026389122009, 0.09600000455975533, -0.06400000303983688, 0.9920000471174717, 0.0, 0.0, 0.0, 0.0, 0.0, 1.705429597217944E9, 0.0, 2024-01-16 13:26:37.217
55.0, -89.75759893655777, -292.01138854026794, -221.64143097400665, 278.6075870990753, 0.09600000455975533, -0.06400000303983688, 0.9920000471174717, 0.0, 0.0, 0.0, 0.0, 0.0, 1.705429597217944E9, 0.0, 2024-01-16 13:26:37.217
56.0, 21.063116550445557, -119.43744498491287, -97.65626764297485, 406.66176158189774, 0.09600000455975533, -0.06400000303983688, 0.9920000471174717, 0.0, 0.0, 0.0, 0.0, 0.0, 1.70542959723194E9, 0.0, 2024-01-16 13:26:37.231
56.0, 67.25836080312729, -111.06006908416748, -95.50208526849747, 432.2725964784622, 0.09600000455975533, -0.06400000303983688, 0.9920000471174717, 0.0, 0.0, 0.0, 0.0, 0.0, 1.70542959723194E9, 0.0, 2024-01-16 13:26:37.231
57.0, -73.24220073223114, -288.89979177713394, -227.38591730594635, 280.2830622792244, 0.09600000455975533, -0.06400000303983688, 0.9920000471174717, 0.0, 0.0, 0.0, 0.0, 0.0, 1.7054295972472982E9, 0.0, 2024-01-16 13:26:37.247
57.0, -30.876614034175873, -192.44029211997986, -149.35664463043213, 342.99370473623276, 0.09600000455975533, -0.06400000303983688, 0.9920000471174717, 0.0, 0.0, 0.0, 0.0, 0.0, 1.7054295972472982E9, 0.0, 2024-01-16 13:26:37.247
58.0, 84.97052699327469, -68.2157751917839, -62.231935262680054, 464.1066249012947, 0.09600000455975533, -0.06400000303983688, 0.9920000471174717, 0.0, 0.0, 0.0, 0.0, 0.0, 1.7054295972479725E9, 0.0, 2024-01-16 13:26:37.247
58.0, -13.403801441192627, -225.94979572296143, -177.121661901474, 348.25948387384415, 0.09600000455975533, -0.06400000303983688, 0.9920000471174717, 0.0, 0.0, 0.0, 0.0, 0.0, 1.7054295972479725E9, 0.0, 2024-01-16 13:26:37.247
59.0, -68.93383598327637, -252.99675220251083, -189.80740255117416, 304.2184219956398, 0.09600000455975533, -0.06400000303983688, 0.9920000471174717, 0.0, 0.0, 0.0, 0.0, 0.0, 1.705429597261629E9, 0.0, 2024-01-16 13:26:37.261
59.0, 59.359692096710205, -72.52413994073868, -66.54030001163483, 449.26670187711716, 0.09600000455975533, -0.06400000303983688, 0.9920000471174717, 0.0, 0.0, 0.0, 0.0, 0.0, 1.705429597261629E9, 0.0, 2024-01-16 13:26:37.261
60.0, 19.866348564624786, -178.07907629013062, -146.48440146446228, 384.8805842399597, 0.09600000455975533, -0.06400000303983688, 1.008000047877431, 0.0, 0.0, 0.0, 0.0, 0.0, 1.7054295972772417E9, 0.0, 2024-01-16 13:26:37.277
60.0, -87.60341656208038, -287.70302379131317, -222.35949176549911, 285.78819501399994, 0.09600000455975533, -0.06400000303983688, 1.008000047877431, 0.0, 0.0, 0.0, 0.0, 0.0, 1.7054295972772417E9, 0.0, 2024-01-16 13:26:37.277
61.0, 18.190873384475708, -132.3625392317772, -107.70911872386932, 400.91727524995804, 0.09600000455975533, -0.06400000303983688, 1.008000047877431, 0.0, 0.0, 0.0, 0.0, 0.0, 1.7054295972779255E9, 0.0, 2024-01-16 13:26:37.277
61.0, 64.6254712343216, -116.32584822177887, -103.40075397491455, 429.1609997153282, 0.09600000455975533, -0.06400000303983688, 1.008000047877431, 0.0, 0.0, 0.0, 0.0, 0.0, 1.7054295972779255E9, 0.0, 2024-01-16 13:26:37.277
62.0, -71.08801835775375, -293.44751012325287, -227.6252709031105, 284.352073431015, 0.09600000455975533, -0.06400000303983688, 1.008000047877431, 0.0, 0.0, 0.0, 0.0, 0.0, 1.7054295972917085E9, 0.0, 2024-01-16 13:26:37.291
62.0, -41.88687950372696, -205.84409356117249, -170.41976118087769, 330.06861048936844, 0.09600000455975533, -0.06400000303983688, 1.008000047877431, 0.0, 0.0, 0.0, 0.0, 0.0, 1.7054295972917085E9, 0.0, 2024-01-16 13:26:37.291
63.0, 63.66805684566498, -91.672427713871, -91.91178131103516, 432.9906572699547, 0.09600000455975533, -0.06400000303983688, 1.008000047877431, 0.0, 0.0, 0.0, 0.0, 0.0, 1.7054295973073027E9, 0.0, 2024-01-16 13:26:37.307
63.0, -37.81786835193634, -258.02317774295807, -214.46082305908203, 310.4416155219078, 0.09600000455975533, -0.06400000303983688, 1.008000047877431, 0.0, 0.0, 0.0, 0.0, 0.0, 1.7054295973073027E9, 0.0, 2024-01-16 13:26:37.307
64.0, -87.84277015924454, -273.82051515579224, -215.6575910449028, 284.8307806253433, 0.09600000455975533, -0.06400000303983688, 1.008000047877431, 0.0, 0.0, 0.0, 0.0, 0.0, 1.7054295973079972E9, 0.0, 2024-01-16 13:26:37.307
64.0, 51.22166979312897, -98.37432843446732, -84.49181979894638, 434.18742525577545, 0.09600000455975533, -0.06400000303983688, 1.008000047877431, 0.0, 0.0, 0.0, 0.0, 0.0, 1.7054295973079972E9, 0.0, 2024-01-16 13:26:37.307
65.0, 11.24961906671524, -191.7222313284874, -160.84561729431152, 373.15225797891617, 0.09600000455975533, -0.06400000303983688, 1.008000047877431, 0.0, 0.0, 0.0, 0.0, 0.0, 1.7054295973215315E9, 0.0, 2024-01-16 13:26:37.321
65.0, -95.50208526849747, -303.02165400981903, -240.78971874713898, 261.13477450609207, 0.09600000455975533, -0.06400000303983688, 1.008000047877431, 0.0, 0.0, 0.0, 0.0, 0.0, 1.7054295973215315E9, 0.0, 2024-01-16 13:26:37.321
66.0, 1.9148287773132324, -148.63858383893967, -124.46387052536011, 376.5032083392143, 0.09600000455975533, -0.06400000303983688, 1.008000047877431, 0.0, 0.0, 0.0, 0.0, 0.0, 1.7054295973374455E9, 0.0, 2024-01-16 13:26:37.337
66.0, 41.647525906562805, -131.88383203744888, -120.39485937356949, 414.32107669115067, 0.09600000455975533, -0.06400000303983688, 1.008000047877431, 0.0, 0.0, 0.0, 0.0, 0.0, 1.7054295973374455E9, 0.0, 2024-01-16 13:26:37.337
67.0, -79.22604066133499, -291.0539741516113, -238.39618277549744, 274.77792954444885, 0.09600000455975533, -0.06400000303983688, 1.008000047877431, 0.0, 0.0, 0.0, 0.0, 0.0, 1.705429597337934E9, 0.0, 2024-01-16 13:26:37.337
67.0, -32.791442811489105, -198.90283924341202, -160.60626369714737, 340.36081516742706, 0.09600000455975533, -0.06400000303983688, 1.008000047877431, 0.0, 0.0, 0.0, 0.0, 0.0, 1.705429597337934E9, 0.0, 2024-01-16 13:26:37.337
68.0, 62.231935262680054, -91.43307411670685, -92.62984210252762, 430.59712129831314, 0.09600000455975533, -0.06400000303983688, 1.008000047877431, 0.0, 0.0, 0.0, 0.0, 0.0, 1.705429597351504E9, 0.0, 2024-01-16 13:26:37.351
68.0, -37.81786835193634, -252.75739860534668, -202.49314320087433, 316.1861018538475, 0.09600000455975533, -0.06400000303983688, 1.008000047877431, 0.0, 0.0, 0.0, 0.0, 0.0, 1.705429597351504E9, 0.0, 2024-01-16 13:26:37.351
69.0, -74.67832231521606, -259.9380065202713, -202.25378960371017, 293.686863720417, 0.09600000455975533, -0.06400000303983688, 1.008000047877431, 0.0, 0.0, 0.0, 0.0, 0.0, 1.7054295973679645E9, 0.0, 2024-01-16 13:26:37.367
69.0, 56.00874173641205, -83.53440541028976, -69.41254317760468, 441.8467403650284, 0.09600000455975533, -0.06400000303983688, 1.008000047877431, 0.0, 0.0, 0.0, 0.0, 0.0, 1.7054295973679645E9, 0.0, 2024-01-16 13:26:37.367
70.0, 16.51539820432663, -180.233258664608, -145.76634067296982, 385.11993783712387, 0.09600000455975533, -0.06400000303983688, 1.008000047877431, 0.0, 0.0, 0.0, 0.0, 0.0, 1.7054295973686492E9, 0.0, 2024-01-16 13:26:37.368
70.0, -88.80018454790115, -287.22431659698486, -217.57241982221603, 285.78819501399994, 0.09600000455975533, -0.06400000303983688, 1.008000047877431, 0.0, 0.0, 0.0, 0.0, 0.0, 1.7054295973686492E9, 0.0, 2024-01-16 13:26:37.368
71.0, -4.069011151790619, -141.6973295211792, -114.17166584730148, 390.6250705718994, 0.09600000455975533, -0.06400000303983688, 1.008000047877431, 0.0, 0.0, 0.0, 0.0, 0.0, 1.7054295973816092E9, 0.0, 2024-01-16 13:26:37.381
71.0, 52.41843777894974, -118.95873779058456, -107.46976512670517, 421.9803918004036, 0.09600000455975533, -0.06400000303983688, 1.008000047877431, 0.0, 0.0, 0.0, 0.0, 0.0, 1.7054295973816092E9, 0.0, 2024-01-16 13:26:37.381
72.0, -76.35379749536514, -288.1817309856415, -226.18914932012558, 285.78819501399994, 0.09600000455975533, -0.06400000303983688, 1.008000047877431, 0.0, 0.0, 0.0, 0.0, 0.0, 1.7054295973976972E9, 0.0, 2024-01-16 13:26:37.397
72.0, -47.3920122385025, -205.12603276968002, -165.1539820432663, 327.43572092056274, 0.09600000455975533, -0.06400000303983688, 1.008000047877431, 0.0, 0.0, 0.0, 0.0, 0.0, 1.7054295973976972E9, 0.0, 2024-01-16 13:26:37.397
73.0, 59.83839929103851, -99.33174282312393, -96.69885325431824, 426.28875654935837, 0.09600000455975533, -0.06400000303983688, 1.008000047877431, 0.0, 0.0, 0.0, 0.0, 0.0, 1.7054295973981004E9, 0.0, 2024-01-16 13:26:37.398
73.0, -42.36558669805527, -256.10834896564484, -211.10987269878387, 316.42545545101166, 0.09600000455975533, -0.06400000303983688, 1.008000047877431, 0.0, 0.0, 0.0, 0.0, 0.0, 1.7054295973981004E9, 0.0, 2024-01-16 13:26:37.398
74.0, -66.77965360879898, -255.86899536848068, -201.5357288122177, 292.96880292892456, 0.09600000455975533, -0.06400000303983688, 1.008000047877431, 0.0, 0.0, 0.0, 0.0, 0.0, 1.7054295974282885E9, 0.0, 2024-01-16 13:26:37.428
74.0, 43.08364748954773, -105.31558275222778, -100.0498036146164, 405.7043471932411, 0.09600000455975533, -0.06400000303983688, 1.008000047877431, 0.0, 0.0, 0.0, 0.0, 0.0, 1.7054295974282885E9, 0.0, 2024-01-16 13:26:37.428
75.0, 1.4361215829849243, -201.5357288122177, -179.51519787311554, 350.41366624832153, 0.09600000455975533, -0.06400000303983688, 1.008000047877431, 0.0, 0.0, 0.0, 0.0, 0.0, 1.7054295974286945E9, 0.0, 2024-01-16 13:26:37.428
75.0, -101.96463239192963, -306.61195796728134, -242.94390112161636, 260.4167137145996, 0.09600000455975533, -0.06400000303983688, 1.008000047877431, 0.0, 0.0, 0.0, 0.0, 0.0, 1.7054295974286945E9, 0.0, 2024-01-16 13:26:37.428
76.0, 5.026425540447235, -141.6973295211792, -122.54904174804688, 380.57221949100494, 0.09600000455975533, -0.06400000303983688, 1.008000047877431, 0.0, 0.0, 0.0, 0.0, 0.0, 1.7054295974294968E9, 0.0, 2024-01-16 13:26:37.429
76.0, 50.0249018073082, -127.81482088565826, -122.78839534521103, 413.84236949682236, 0.09600000455975533, -0.06400000303983688, 1.008000047877431, 0.0, 0.0, 0.0, 0.0, 0.0, 1.7054295974294968E9, 0.0, 2024-01-16 13:26:37.429
77.0, -75.87509030103683, -290.33591336011887, -234.80587881803513, 280.7617694735527, 0.09600000455975533, -0.06400000303983688, 1.008000047877431, 0.0, 0.0, 0.0, 0.0, 0.0, 1.7054295974449909E9, 0.0, 2024-01-16 13:26:37.444
77.0, -37.81786835193634, -190.52546334266663, -152.94694858789444, 345.62659430503845, 0.09600000455975533, -0.06400000303983688, 1.008000047877431, 0.0, 0.0, 0.0, 0.0, 0.0, 1.7054295974449909E9, 0.0, 2024-01-16 13:26:37.444
78.0, 67.7370679974556, -83.77375900745392, -77.78991907835007, 443.7615691423416, 0.09600000455975533, -0.06400000303983688, 1.008000047877431, 0.0, 0.0, 0.0, 0.0, 0.0, 1.705429597458083E9, 0.0, 2024-01-16 13:26:37.458
78.0, -22.97794532775879, -234.80587881803513, -192.91899931430817, 336.5311576128006, 0.09600000455975533, -0.06400000303983688, 1.008000047877431, 0.0, 0.0, 0.0, 0.0, 0.0, 1.705429597458083E9, 0.0, 2024-01-16 13:26:37.458
79.0, -58.40227770805359, -242.2258403301239, -185.02033060789108, 312.1170907020569, 0.09600000455975533, -0.06400000303983688, 1.008000047877431, 0.0, 0.0, 0.0, 0.0, 0.0, 1.705429597458629E9, 0.0, 2024-01-16 13:26:37.458
79.0, 66.54030001163483, -73.24220073223114, -69.65189677476883, 446.8731659054756, 0.09600000455975533, -0.06400000303983688, 1.008000047877431, 0.0, 0.0, 0.0, 0.0, 0.0, 1.705429597458629E9, 0.0, 2024-01-16 13:26:37.458
80.0, 22.49923813343048, -175.20683312416077, -147.68116945028305, 382.247694671154, 0.09600000455975533, -0.06400000303983688, 1.008000047877431, 0.0, 0.0, 0.0, 0.0, 0.0, 1.7054295974715295E9, 0.0, 2024-01-16 13:26:37.471
80.0, -84.49181979894638, -284.8307806253433, -219.00854140520096, 287.9423773884773, 0.09600000455975533, -0.06400000303983688, 1.008000047877431, 0.0, 0.0, 0.0, 0.0, 0.0, 1.7054295974715295E9, 0.0, 2024-01-16 13:26:37.471
81.0, 8.138022303581238, -131.16577124595642, -111.53877627849579, 395.4121425151825, 0.09600000455975533, -0.06400000303983688, 1.008000047877431, 0.0, 0.0, 0.0, 0.0, 0.0, 1.7054295974873705E9, 0.0, 2024-01-16 13:26:37.487
81.0, 40.21140432357788, -132.3625392317772, -121.59162735939026, 412.88495510816574, 0.09600000455975533, -0.06400000303983688, 1.008000047877431, 0.0, 0.0, 0.0, 0.0, 0.0, 1.7054295974873705E9, 0.0, 2024-01-16 13:26:37.487
82.0, -83.29505181312561, -298.71328926086426, -229.30074608325958, 287.70302379131317, 0.09600000455975533, -0.06400000303983688, 1.008000047877431, 0.0, 0.0, 0.0, 0.0, 0.0, 1.705429597487895E9, 0.0, 2024-01-16 13:26:37.487
82.0, -48.58878022432327, -205.36538636684418, -162.0423852801323, 339.1640471816063, 0.09600000455975533, -0.06400000303983688, 1.008000047877431, 0.0, 0.0, 0.0, 0.0, 0.0, 1.705429597487895E9, 0.0, 2024-01-16 13:26:37.487
83.0, 53.85455936193466, -95.98079246282578, -98.13497483730316, 432.9906572699547, 0.09600000455975533, -0.06400000303983688, 1.008000047877431, 0.0, 0.0, 0.0, 0.0, 0.0, 1.705429597501928E9, 0.0, 2024-01-16 13:26:37.501
83.0, -52.897144973278046, -262.33154249191284, -213.26405507326126, 315.94674825668335, 0.09600000455975533, -0.06400000303983688, 1.008000047877431, 0.0, 0.0, 0.0, 0.0, 0.0, 1.705429597501928E9, 0.0, 2024-01-16 13:26:37.501
84.0, -94.06596368551254, -273.82051515579224, -218.05112701654434, 278.6075870990753, 0.09600000455975533, -0.06400000303983688, 1.008000047877431, 0.0, 0.0, 0.0, 0.0, 0.0, 1.7054295975173388E9, 0.0, 2024-01-16 13:26:37.517
84.0, 35.4243323802948, -107.94847232103348, -97.17756044864655, 418.3900878429413, 0.09600000455975533, -0.06400000303983688, 1.008000047877431, 0.0, 0.0, 0.0, 0.0, 0.0, 1.7054295975173388E9, 0.0, 2024-01-16 13:26:37.517
85.0, -5.265779137611389, -199.86025363206863, -168.98363959789276, 364.7748820781708, 0.09600000455975533, -0.06400000303983688, 1.008000047877431, 0.0, 0.0, 0.0, 0.0, 0.0, 1.705429597517887E9, 0.0, 2024-01-16 13:26:37.517
85.0, -105.55493634939194, -306.8513115644455, -242.7045475244522, 263.0496032834053, 0.09600000455975533, -0.06400000303983688, 1.008000047877431, 0.0, 0.0, 0.0, 0.0, 0.0, 1.705429597517887E9, 0.0, 2024-01-16 13:26:37.517
86.0, -4.787071943283081, -146.72375506162643, -123.9851633310318, 381.2902802824974, 0.09600000455975533, -0.06400000303983688, 1.008000047877431, 0.0, 0.0, 0.0, 0.0, 0.0, 1.7054295975319755E9, 0.0, 2024-01-16 13:26:37.531
86.0, 39.97205072641373, -129.96900326013565, -114.65037304162979, 422.4590989947319, 0.09600000455975533, -0.06400000303983688, 1.008000047877431, 0.0, 0.0, 0.0, 0.0, 0.0, 1.7054295975319755E9, 0.0, 2024-01-16 13:26:37.531
87.0, -77.78991907835007, -288.42108458280563, -232.41234284639359, 277.6501727104187, 0.09600000455975533, -0.06400000303983688, 1.008000047877431, 0.0, 0.0, 0.0, 0.0, 0.0, 1.705429597547649E9, 0.0, 2024-01-16 13:26:37.547
87.0, -40.450757920742035, -193.63706010580063, -153.42565578222275, 343.2330583333969, 0.09600000455975533, -0.06400000303983688, 1.008000047877431, 0.0, 0.0, 0.0, 0.0, 0.0, 1.705429597547649E9, 0.0, 2024-01-16 13:26:37.547
88.0, 65.34353202581406, -83.53440541028976, -73.9602615237236, 446.15510511398315, 0.09600000455975533, -0.06400000303983688, 1.008000047877431, 0.0, 0.0, 0.0, 0.0, 0.0, 1.705429597548031E9, 0.0, 2024-01-16 13:26:37.548
88.0, -40.450757920742035, -243.42260831594467, -193.15835291147232, 331.50473207235336, 0.09600000455975533, -0.06400000303983688, 1.008000047877431, 0.0, 0.0, 0.0, 0.0, 0.0, 1.705429597548031E9, 0.0, 2024-01-16 13:26:37.548
89.0, -72.52413994073868, -247.4916194677353, -185.9777449965477, 319.53705221414566, 0.09600000455975533, -0.06400000303983688, 1.008000047877431, 0.0, 0.0, 0.0, 0.0, 0.0, 1.7054295975615644E9, 0.0, 2024-01-16 13:26:37.561
89.0, 54.093912959098816, -79.46539425849915, -65.34353202581406, 451.42088425159454, 0.09600000455975533, -0.06400000303983688, 1.008000047877431, 0.0, 0.0, 0.0, 0.0, 0.0, 1.7054295975615644E9, 0.0, 2024-01-16 13:26:37.561
90.0, 15.079276621341705, -179.03649067878723, -145.2876334786415, 390.86442416906357, 0.09600000455975533, -0.06400000303983688, 1.008000047877431, 0.0, 0.0, 0.0, 0.0, 0.0, 1.7054295975774536E9, 0.0, 2024-01-16 13:26:37.577
90.0, -86.40664857625961, -282.67659825086594, -218.52983421087265, 293.9262173175812, 0.09600000455975533, -0.06400000303983688, 1.008000047877431, 0.0, 0.0, 0.0, 0.0, 0.0, 1.7054295975774536E9, 0.0, 2024-01-16 13:26:37.577
91.0, 1.4361215829849243, -134.99542880058289, -108.42717951536179, 405.2256399989128, 0.09600000455975533, -0.06400000303983688, 1.008000047877431, 0.0, 0.0, 0.0, 0.0, 0.0, 1.7054295975778737E9, 0.0, 2024-01-16 13:26:37.577
91.0, 40.21140432357788, -128.29352807998657, -109.86330109834671, 424.6132813692093, 0.09600000455975533, -0.06400000303983688, 1.008000047877431, 0.0, 0.0, 0.0, 0.0, 0.0, 1.7054295975778737E9, 0.0, 2024-01-16 13:26:37.577
92.0, -93.82661008834839, -302.5429468154907, -242.94390112161636, 276.2140511274338, 0.09600000455975533, -0.06400000303983688, 1.008000047877431, 0.0, 0.0, 0.0, 0.0, 0.0, 1.7054295975918317E9, 0.0, 2024-01-16 13:26:37.591
92.0, -56.966156125068665, -211.82793349027634, -166.82945722341537, 329.8292568922043, 0.09600000455975533, -0.06400000303983688, 1.008000047877431, 0.0, 0.0, 0.0, 0.0, 0.0, 1.7054295975918317E9, 0.0, 2024-01-16 13:26:37.591
93.0, 43.80170828104019, -105.31558275222778, -97.17756044864655, 428.2035853266716, 0.09600000455975533, -0.06400000303983688, 1.008000047877431, 0.0, 0.0, 0.0, 0.0, 0.0, 1.705429597607519E9, 0.0, 2024-01-16 13:26:37.607
93.0, -61.03516727685928, -266.6399072408676, -220.20530939102173, 310.9203227162361, 0.09600000455975533, -0.06400000303983688, 1.008000047877431, 0.0, 0.0, 0.0, 0.0, 0.0, 1.705429597607519E9, 0.0, 2024-01-16 13:26:37.607
94.0, -100.0498036146164, -280.2830622792244, -222.12013816833496, 282.4372446537018, 0.09600000455975533, -0.06400000303983688, 1.008000047877431, 0.0, 0.0, 0.0, 0.0, 0.0, 1.7054295976079357E9, 0.0, 2024-01-16 13:26:37.607
94.0, 33.50950360298157, -104.59752196073532, -98.61368203163147, 417.1933198571205, 0.09600000455975533, -0.06400000303983688, 1.008000047877431, 0.0, 0.0, 0.0, 0.0, 0.0, 1.7054295976079357E9, 0.0, 2024-01-16 13:26:37.607
95.0, -9.813497483730316, -199.62090003490448, -176.16424751281738, 356.15815258026123, 0.09600000455975533, -0.06400000303983688, 1.008000047877431, 0.0, 0.0, 0.0, 0.0, 0.0, 1.7054295976217835E9, 0.0, 2024-01-16 13:26:37.621
95.0, -112.97489786148071, -310.20226192474365, -245.57679069042206, 264.4857248663902, 0.09600000455975533, -0.06400000303983688, 1.008000047877431, 0.0, 0.0, 0.0, 0.0, 0.0, 1.7054295976217835E9, 0.0, 2024-01-16 13:26:37.621
96.0, -8.8560830950737, -146.48440146446228, -125.18193131685257, 382.247694671154, 0.09600000455975533, -0.06400000303983688, 1.008000047877431, 0.0, 0.0, 0.0, 0.0, 0.0, 1.7054295976372721E9, 0.0, 2024-01-16 13:26:37.637
96.0, 35.4243323802948, -140.02185434103012, -125.66063851118088, 410.73077273368835, 0.09600000455975533, -0.06400000303983688, 1.008000047877431, 0.0, 0.0, 0.0, 0.0, 0.0, 1.7054295976372721E9, 0.0, 2024-01-16 13:26:37.637
97.0, -96.69885325431824, -308.5267867445946, -250.6032162308693, 267.59732162952423, 0.09600000455975533, -0.06400000303983688, 1.008000047877431, 0.0, 0.0, 0.0, 0.0, 0.0, 1.7054295976379912E9, 0.0, 2024-01-16 13:26:37.637
97.0, -54.572620153427124, -213.98211586475372, -170.898468375206, 328.6324889063835, 0.09600000455975533, -0.06400000303983688, 1.008000047877431, 0.0, 0.0, 0.0, 0.0, 0.0, 1.7054295976379912E9, 0.0, 2024-01-16 13:26:37.637
98.0, 49.78554821014404, -99.09238922595978, -91.672427713871, 432.9906572699547, 0.09600000455975533, -0.06400000303983688, 1.008000047877431, 0.0, 0.0, 0.0, 0.0, 0.0, 1.7054295976515439E9, 0.0, 2024-01-16 13:26:37.651
98.0, -50.0249018073082, -254.91158097982407, -210.15245831012726, 315.94674825668335, 0.09600000455975533, -0.06400000303983688, 1.008000047877431, 0.0, 0.0, 0.0, 0.0, 0.0, 1.7054295976515439E9, 0.0, 2024-01-16 13:26:37.651
99.0, -89.03953814506531, -267.59732162952423, -207.75892233848572, 292.2507421374321, 0.09600000455975533, -0.06400000303983688, 1.008000047877431, 0.0, 0.0, 0.0, 0.0, 0.0, 1.7054295976670082E9, 0.0, 2024-01-16 13:26:37.667
99.0, 38.057221949100494, -98.13497483730316, -81.38022303581238, 432.7513036727905, 0.09600000455975533, -0.06400000303983688, 1.008000047877431, 0.0, 0.0, 0.0, 0.0, 0.0, 1.7054295976670082E9, 0.0, 2024-01-16 13:26:37.667
0.0, -106.75170433521271, -302.30359321832657, -236.0026468038559, 272.62374716997147, 0.09600000455975533, -0.06400000303983688, 1.008000047877431, 0.0, 0.0, 0.0, 0.0, 0.0, 1.7054295976822293E9, 0.0, 2024-01-16 13:26:37.682
0.0, -8.377375900745392, -143.61215829849243, -119.91615217924118, 390.38571697473526, 0.09600000455975533, -0.06400000303983688, 1.008000047877431, 0.0, 0.0, 0.0, 0.0, 0.0, 1.7054295976822293E9, 0.0, 2024-01-16 13:26:37.682
1.0, 30.397906839847565, -139.30379354953766, -124.46387052536011, 406.4224079847336, 0.09600000455975533, -0.06400000303983688, 1.008000047877431, 0.0, 0.0, 0.0, 0.0, 0.0, 1.7054295976829376E9, 0.0, 2024-01-16 13:26:37.682
1.0, -107.23041152954102, -320.9731737971306, -261.85283529758453, 256.10834896564484, 0.09600000455975533, -0.06400000303983688, 1.008000047877431, 0.0, 0.0, 0.0, 0.0, 0.0, 1.7054295976829376E9, 0.0, 2024-01-16 13:26:37.682
2.0, -66.30094641447067, -227.38591730594635, -183.58420902490616, 312.83515149354935, 0.09600000455975533, -0.06400000303983688, 1.008000047877431, 0.0, 0.0, 0.0, 0.0, 0.0, 1.7054295976965995E9, 0.0, 2024-01-16 13:26:37.696
2.0, 41.40817230939865, -110.10265469551086, -108.66653311252594, 415.99655187129974, 0.09600000455975533, -0.06400000303983688, 1.008000047877431, 0.0, 0.0, 0.0, 0.0, 0.0, 1.7054295976965995E9, 0.0, 2024-01-16 13:26:37.696
3.0, -67.25836080312729, -279.0862942934036, -235.04523241519928, 292.96880292892456, 0.09600000455975533, -0.06400000303983688, 1.008000047877431, 0.0, 0.0, 0.0, 0.0, 0.0, 1.7054295977122312E9, 0.0, 2024-01-16 13:26:37.712
3.0, -108.66653311252594, -293.44751012325287, -236.0026468038559, 265.44313925504684, 0.09600000455975533, -0.06400000303983688, 1.008000047877431, 0.0, 0.0, 0.0, 0.0, 0.0, 1.7054295977122312E9, 0.0, 2024-01-16 13:26:37.712
4.0, 24.414066910743713, -112.4961906671524, -104.35816836357117, 407.14046877622604, 0.09600000455975533, -0.06400000303983688, 1.008000047877431, 0.0, 0.0, 0.0, 0.0, 0.0, 1.7054295977129333E9, 0.0, 2024-01-16 13:26:37.712
4.0, -15.797337412834167, -208.47698312997818, -177.83972269296646, 353.2859094142914, 0.09600000455975533, -0.06400000303983688, 1.008000047877431, 0.0, 0.0, 0.0, 0.0, 0.0, 1.7054295977129333E9, 0.0, 2024-01-16 13:26:37.712
5.0, -114.17166584730148, -313.0745050907135, -242.2258403301239, 262.33154249191284, 0.09600000455975533, -0.06400000303983688, 1.008000047877431, 0.0, 0.0, 0.0, 0.0, 0.0, 1.7054295977265575E9, 0.0, 2024-01-16 13:26:37.726
5.0, -9.334790289402008, -145.2876334786415, -128.53288167715073, 374.82773315906525, 0.09600000455975533, -0.06400000303983688, 1.008000047877431, 0.0, 0.0, 0.0, 0.0, 0.0, 1.7054295977265575E9, 0.0, 2024-01-16 13:26:37.726
6.0, 33.988210797309875, -135.9528431892395, -123.02774894237518, 404.50757920742035, 0.09600000455975533, -0.06400000303983688, 1.008000047877431, 0.0, 0.0, 0.0, 0.0, 0.0, 1.7054295977423985E9, 0.0, 2024-01-16 13:26:37.742
6.0, -89.75759893655777, -303.2610076069832, -248.20968025922775, 269.99085760116577, 0.09600000455975533, -0.06400000303983688, 1.008000047877431, 0.0, 0.0, 0.0, 0.0, 0.0, 1.7054295977423985E9, 0.0, 2024-01-16 13:26:37.742
7.0, -52.17908418178558, -209.19504392147064, -167.54751801490784, 331.50473207235336, 0.09600000455975533, -0.06400000303983688, 1.008000047877431, 0.0, 0.0, 0.0, 0.0, 0.0, 1.7054295977429855E9, 0.0, 2024-01-16 13:26:37.742
7.0, 61.03516727685928, -89.51824533939362, -87.84277015924454, 444.2402763366699, 0.09600000455975533, -0.06400000303983688, 1.008000047877431, 0.0, 0.0, 0.0, 0.0, 0.0, 1.7054295977429855E9, 0.0, 2024-01-16 13:26:37.742
8.0, -43.56235468387604, -249.40644824504852, -203.2112039923668, 323.84541696310043, 0.09600000455975533, -0.06400000303983688, 1.008000047877431, 0.0, 0.0, 0.0, 0.0, 0.0, 1.7054295977567863E9, 0.0, 2024-01-16 13:26:37.756
8.0, -87.12470936775208, -261.85283529758453, -199.62090003490448, 299.6707036495209, 0.09600000455975533, -0.06400000303983688, 1.008000047877431, 0.0, 0.0, 0.0, 0.0, 0.0, 1.7054295977567863E9, 0.0, 2024-01-16 13:26:37.756
9.0, 40.69011151790619, -91.672427713871, -78.98668706417084, 433.70871806144714, 0.09600000455975533, -0.06400000303983688, 1.008000047877431, 0.0, 0.0, 0.0, 0.0, 0.0, 1.7054295977722645E9, 0.0, 2024-01-16 13:26:37.772
9.0, 1.4361215829849243, -192.2009385228157, -162.28173887729645, 369.56195402145386, 0.09600000455975533, -0.06400000303983688, 1.008000047877431, 0.0, 0.0, 0.0, 0.0, 0.0, 1.7054295977722645E9, 0.0, 2024-01-16 13:26:37.772
10.0, -107.23041152954102, -305.6545435786247, -236.24200040102005, 264.96443206071854, 0.09600000455975533, -0.06400000303983688, 1.008000047877431, 0.0, 0.0, 0.0, 0.0, 0.0, 1.7054295977728944E9, 0.0, 2024-01-16 13:26:37.772
10.0, -11.967679858207703, -150.31405901908875, -128.29352807998657, 377.6999763250351, 0.09600000455975533, -0.06400000303983688, 1.008000047877431, 0.0, 0.0, 0.0, 0.0, 0.0, 1.7054295977728944E9, 0.0, 2024-01-16 13:26:37.772
11.0, 33.03079640865326, -138.82508635520935, -128.53288167715073, 402.1140432357788, 0.09600000455975533, -0.06400000303983688, 1.008000047877431, 0.0, 0.0, 0.0, 0.0, 0.0, 1.705429597786658E9, 0.0, 2024-01-16 13:26:37.786
11.0, -97.17756044864655, -309.24484753608704, -249.88515543937683, 260.17736011743546, 0.09600000455975533, -0.06400000303983688, 1.008000047877431, 0.0, 0.0, 0.0, 0.0, 0.0, 1.705429597786658E9, 0.0, 2024-01-16 13:26:37.786
12.0, -54.81197375059128, -213.74276226758957, -173.77071154117584, 324.32412415742874, 0.11200000531971455, -0.06400000303983688, 1.008000047877431, 0.0, 0.0, 0.0, 0.0, 0.0, 1.7054295978025331E9, 0.0, 2024-01-16 13:26:37.802
12.0, 46.19524425268173, -103.40075397491455, -104.83687555789948, 419.8262094259262, 0.11200000531971455, -0.06400000303983688, 1.008000047877431, 0.0, 0.0, 0.0, 0.0, 0.0, 1.7054295978025331E9, 0.0, 2024-01-16 13:26:37.802
13.0, -61.51387447118759, -275.017283141613, -226.18914932012558, 296.08039969205856, 0.11200000531971455, -0.06400000303983688, 1.008000047877431, 0.0, 0.0, 0.0, 0.0, 0.0, 1.705429597803082E9, 0.0, 2024-01-16 13:26:37.803
13.0, -107.23041152954102, -288.6604381799698, -230.7368676662445, 268.794089615345, 0.11200000531971455, -0.06400000303983688, 1.008000047877431, 0.0, 0.0, 0.0, 0.0, 0.0, 1.705429597803082E9, 0.0, 2024-01-16 13:26:37.803
14.0, 43.80170828104019, -86.16729497909546, -78.98668706417084, 443.2828619480133, 0.11200000531971455, -0.06400000303983688, 1.008000047877431, 0.0, 0.0, 0.0, 0.0, 0.0, 1.7054295978165922E9, 0.0, 2024-01-16 13:26:37.816
14.0, 3.3509503602981567, -187.41386657953262, -156.2978989481926, 379.13609790802, 0.11200000531971455, -0.06400000303983688, 1.008000047877431, 0.0, 0.0, 0.0, 0.0, 0.0, 1.7054295978165922E9, 0.0, 2024-01-16 13:26:37.816
15.0, -90.95436692237854, -291.7720349431038, -219.2478950023651, 292.2507421374321, 0.11200000531971455, -0.06400000303983688, 1.008000047877431, 0.0, 0.0, 0.0, 0.0, 0.0, 1.7054295978325849E9, 0.0, 2024-01-16 13:26:37.832
15.0, 12.44638705253601, -121.11292016506195, -92.15113490819931, 420.3049166202545, 0.11200000531971455, -0.06400000303983688, 1.008000047877431, 0.0, 0.0, 0.0, 0.0, 0.0, 1.7054295978325849E9, 0.0, 2024-01-16 13:26:37.832
16.0, 61.03516727685928, -103.6401075720787, -83.77375900745392, 452.85700583457947, 0.11200000531971455, -0.06400000303983688, 1.008000047877431, 0.0, 0.0, 0.0, 0.0, 0.0, 1.705429597832968E9, 0.0, 2024-01-16 13:26:37.832
16.0, -67.97642159461975, -277.41081911325455, -212.78534787893295, 313.31385868787766, 0.11200000531971455, -0.06400000303983688, 1.008000047877431, 0.0, 0.0, 0.0, 0.0, 0.0, 1.705429597832968E9, 0.0, 2024-01-16 13:26:37.832
17.0, -27.286310076713562, -178.31842988729477, -132.12318563461304, 377.46062272787094, 0.11200000531971455, -0.06400000303983688, 1.008000047877431, 0.0, 0.0, 0.0, 0.0, 0.0, 1.7054295978464935E9, 0.0, 2024-01-16 13:26:37.846
17.0, 79.94410145282745, -69.89125037193298, -57.68421691656113, 470.3298184275627, 0.11200000531971455, -0.06400000303983688, 1.008000047877431, 0.0, 0.0, 0.0, 0.0, 0.0, 1.7054295978464935E9, 0.0, 2024-01-16 13:26:37.846
18.0, -24.89277410507202, -232.17298924922943, -181.43002665042877, 352.32849502563477, 0.11200000531971455, -0.06400000303983688, 1.008000047877431, 0.0, 0.0, 0.0, 0.0, 0.0, 1.7054295978631244E9, 0.0, 2024-01-16 13:26:37.863
18.0, -64.14676403999329, -240.78971874713898, -177.6003690958023, 333.65891444683075, 0.11200000531971455, -0.06400000303983688, 1.008000047877431, 0.0, 0.0, 0.0, 0.0, 0.0, 1.7054295978631244E9, 0.0, 2024-01-16 13:26:37.863
19.0, 63.66805684566498, -70.13060396909714, -51.46102339029312, 466.97886806726456, 0.11200000531971455, -0.06400000303983688, 1.008000047877431, 0.0, 0.0, 0.0, 0.0, 0.0, 1.705429597863227E9, 0.0, 2024-01-16 13:26:37.863
19.0, 22.97794532775879, -170.18040758371353, -138.1070255637169, 403.55016481876373, 0.11200000531971455, -0.06400000303983688, 1.008000047877431, 0.0, 0.0, 0.0, 0.0, 0.0, 1.705429597863227E9, 0.0, 2024-01-16 13:26:37.863
20.0, -84.01311260461807, -278.128879904747, -212.30664068460464, 301.82488602399826, 0.11200000531971455, -0.06400000303983688, 1.008000047877431, 0.0, 0.0, 0.0, 0.0, 0.0, 1.7054295978767056E9, 0.0, 2024-01-16 13:26:37.876
20.0, 5.744486331939697, -129.01158887147903, -96.69885325431824, 414.0817230939865, 0.11200000531971455, -0.06400000303983688, 1.008000047877431, 0.0, 0.0, 0.0, 0.0, 0.0, 1.7054295978767056E9, 0.0, 2024-01-16 13:26:37.876
21.0, 43.56235468387604, -127.81482088565826, -109.3845939040184, 429.6397069096565, 0.11200000531971455, -0.06400000303983688, 1.008000047877431, 0.0, 0.0, 0.0, 0.0, 0.0, 1.705429597892701E9, 0.0, 2024-01-16 13:26:37.892
21.0, -85.20988059043884, -295.8410460948944, -234.56652522087097, 294.8836317062378, 0.11200000531971455, -0.06400000303983688, 1.008000047877431, 0.0, 0.0, 0.0, 0.0, 0.0, 1.705429597892701E9, 0.0, 2024-01-16 13:26:37.892
22.0, -38.77528274059296, -197.22736406326294, -148.15987664461136, 357.59427416324615, 0.09600000455975533, -0.06400000303983688, 1.008000047877431, 0.0, 0.0, 0.0, 0.0, 0.0, 1.7054295978930116E9, 0.0, 2024-01-16 13:26:37.893
22.0, 61.9925816655159, -86.40664857625961, -74.19961512088776, 464.585332095623, 0.09600000455975533, -0.06400000303983688, 1.008000047877431, 0.0, 0.0, 0.0, 0.0, 0.0, 1.7054295978930116E9, 0.0, 2024-01-16 13:26:37.893
23.0, -35.663685977458954, -244.8587298989296, -198.90283924341202, 336.77051120996475, 0.09600000455975533, -0.06400000303983688, 1.008000047877431, 0.0, 0.0, 0.0, 0.0, 0.0, 1.7054295979067235E9, 0.0, 2024-01-16 13:26:37.906
23.0, -77.0718582868576, -252.75739860534668, -198.66348564624786, 309.4842011332512, 0.09600000455975533, -0.06400000303983688, 1.008000047877431, 0.0, 0.0, 0.0, 0.0, 0.0, 1.7054295979067235E9, 0.0, 2024-01-16 13:26:37.906
24.0, 44.041061878204346, -89.27889174222946, -79.46539425849915, 443.7615691423416, 0.09600000455975533, -0.06400000303983688, 1.008000047877431, 0.0, 0.0, 0.0, 0.0, 0.0, 1.7054295979226944E9, 0.0, 2024-01-16 13:26:37.922
24.0, 14.361215829849243, -179.03649067878723, -140.02185434103012, 396.13020330667496, 0.09600000455975533, -0.06400000303983688, 1.008000047877431, 0.0, 0.0, 0.0, 0.0, 0.0, 1.7054295979226944E9, 0.0, 2024-01-16 13:26:37.922
25.0, -93.10854929685593, -287.9423773884773, -217.09371262788773, 293.686863720417, 0.09600000455975533, -0.06400000303983688, 1.008000047877431, 0.0, 0.0, 0.0, 0.0, 0.0, 1.7054295979373772E9, 0.0, 2024-01-16 13:26:37.937
25.0, 6.462547123432159, -135.71348959207535, -104.59752196073532, 407.8585295677185, 0.09600000455975533, -0.06400000303983688, 1.008000047877431, 0.0, 0.0, 0.0, 0.0, 0.0, 1.7054295979373772E9, 0.0, 2024-01-16 13:26:37.937
26.0, 53.375852167606354, -110.34200829267502, -97.65626764297485, 443.04350835084915, 0.09600000455975533, -0.06400000303983688, 1.008000047877431, 0.0, 0.0, 0.0, 0.0, 0.0, 1.7054295979380984E9, 0.0, 2024-01-16 13:26:37.938
26.0, -74.67832231521606, -281.7191838622093, -217.09371262788773, 306.8513115644455, 0.09600000455975533, -0.06400000303983688, 1.008000047877431, 0.0, 0.0, 0.0, 0.0, 0.0, 1.7054295979380984E9, 0.0, 2024-01-16 13:26:37.938
27.0, -31.83402842283249, -186.21709859371185, -146.9631086587906, 356.63685977458954, 0.09600000455975533, -0.06400000303983688, 1.008000047877431, 0.0, 0.0, 0.0, 0.0, 0.0, 1.7054295979522855E9, 0.0, 2024-01-16 13:26:37.952
27.0, 67.7370679974556, -76.83250468969345, -68.45512878894806, 460.27696734666824, 0.09600000455975533, -0.06400000303983688, 1.008000047877431, 0.0, 0.0, 0.0, 0.0, 0.0, 1.7054295979522855E9, 0.0, 2024-01-16 13:26:37.952
28.0, -28.722431659698486, -234.08781802654266, -182.14808744192123, 347.30206948518753, 0.09600000455975533, -0.06400000303983688, 1.008000047877431, 0.0, 0.0, 0.0, 0.0, 0.0, 1.7054295979530227E9, 0.0, 2024-01-16 13:26:37.953
28.0, -68.45512878894806, -244.8587298989296, -183.10550183057785, 324.5634777545929, 0.09600000455975533, -0.06400000303983688, 1.008000047877431, 0.0, 0.0, 0.0, 0.0, 0.0, 1.7054295979530227E9, 0.0, 2024-01-16 13:26:37.953
29.0, 61.27452087402344, -71.80607914924622, -62.231935262680054, 455.01118820905685, 0.09600000455975533, -0.06400000303983688, 1.008000047877431, 0.0, 0.0, 0.0, 0.0, 0.0, 1.70542959796654E9, 0.0, 2024-01-16 13:26:37.966
29.0, 23.69600611925125, -163.47850686311722, -136.19219678640366, 398.0450320839882, 0.09600000455975533, -0.06400000303983688, 1.008000047877431, 0.0, 0.0, 0.0, 0.0, 0.0, 1.70542959796654E9, 0.0, 2024-01-16 13:26:37.966
30.0, -83.29505181312561, -280.7617694735527, -213.26405507326126, 294.8836317062378, 0.09600000455975533, -0.06400000303983688, 1.008000047877431, 0.0, 0.0, 0.0, 0.0, 0.0, 1.7054295979824953E9, 0.0, 2024-01-16 13:26:37.982
30.0, 15.557983815670013, -125.18193131685257, -101.96463239192963, 409.0552975535393, 0.09600000455975533, -0.06400000303983688, 1.008000047877431, 0.0, 0.0, 0.0, 0.0, 0.0, 1.7054295979824953E9, 0.0, 2024-01-16 13:26:37.982
31.0, 50.98231619596481, -117.7619698047638, -107.46976512670517, 426.5281101465225, 0.09600000455975533, -0.06400000303983688, 1.008000047877431, 0.0, 0.0, 0.0, 0.0, 0.0, 1.7054295979831262E9, 0.0, 2024-01-16 13:26:37.983
31.0, -74.19961512088776, -290.575266957283, -234.08781802654266, 290.0965597629547, 0.09600000455975533, -0.06400000303983688, 1.008000047877431, 0.0, 0.0, 0.0, 0.0, 0.0, 1.7054295979831262E9, 0.0, 2024-01-16 13:26:37.983
32.0, -52.65779137611389, -203.2112039923668, -163.23915326595306, 342.7543511390686, 0.11200000531971455, -0.06400000303983688, 1.008000047877431, 0.0, 0.0, 0.0, 0.0, 0.0, 1.7054295979965365E9, 0.0, 2024-01-16 13:26:37.996
32.0, 60.79581367969513, -85.9279413819313, -83.53440541028976, 444.9583371281624, 0.11200000531971455, -0.06400000303983688, 1.008000047877431, 0.0, 0.0, 0.0, 0.0, 0.0, 1.7054295979965365E9, 0.0, 2024-01-16 13:26:37.996
33.0, -33.74885720014572, -245.57679069042206, -197.22736406326294, 325.9995993375778, 0.11200000531971455, -0.06400000303983688, 1.008000047877431, 0.0, 0.0, 0.0, 0.0, 0.0, 1.7054295980120857E9, 0.0, 2024-01-16 13:26:38.012
33.0, -83.29505181312561, -263.28895688056946, -208.47698312997818, 293.686863720417, 0.11200000531971455, -0.06400000303983688, 1.008000047877431, 0.0, 0.0, 0.0, 0.0, 0.0, 1.7054295980120857E9, 0.0, 2024-01-16 13:26:38.012
34.0, 52.897144973278046, -80.42280864715576, -74.67832231521606, 442.56480115652084, 0.11200000531971455, -0.06400000303983688, 1.008000047877431, 0.0, 0.0, 0.0, 0.0, 0.0, 1.705429598027239E9, 0.0, 2024-01-16 13:26:38.027
34.0, 16.276044607162476, -175.68554031848907, -146.9631086587906, 384.8805842399597, 0.11200000531971455, -0.06400000303983688, 1.008000047877431, 0.0, 0.0, 0.0, 0.0, 0.0, 1.705429598027239E9, 0.0, 2024-01-16 13:26:38.027
35.0, -76.35379749536514, -274.0598687529564, -215.1788838505745, 293.2081565260887, 0.11200000531971455, -0.06400000303983688, 1.008000047877431, 0.0, 0.0, 0.0, 0.0, 0.0, 1.7054295980279431E9, 0.0, 2024-01-16 13:26:38.027
35.0, 9.334790289402008, -127.57546728849411, -105.07622915506363, 398.5237392783165, 0.11200000531971455, -0.06400000303983688, 1.008000047877431, 0.0, 0.0, 0.0, 0.0, 0.0, 1.7054295980279431E9, 0.0, 2024-01-16 13:26:38.027
36.0, 53.61520576477051, -112.97489786148071, -96.69885325431824, 433.9480716586113, 0.11200000531971455, -0.06400000303983688, 1.008000047877431, 0.0, 0.0, 0.0, 0.0, 0.0, 1.7054295980596902E9, 0.0, 2024-01-16 13:26:38.059
36.0, -67.7370679974556, -274.0598687529564, -215.1788838505745, 307.8087259531021, 0.11200000531971455, -0.06400000303983688, 1.008000047877431, 0.0, 0.0, 0.0, 0.0, 0.0, 1.7054295980596902E9, 0.0, 2024-01-16 13:26:38.059
37.0, -25.610834896564484, -184.06291621923447, -143.37280470132828, 359.26974934339523, 0.11200000531971455, -0.06400000303983688, 1.008000047877431, 0.0, 0.0, 0.0, 0.0, 0.0, 1.7054295980600996E9, 0.0, 2024-01-16 13:26:38.060
37.0, 68.93383598327637, -73.9602615237236, -66.30094641447067, 458.60149216651917, 0.11200000531971455, -0.06400000303983688, 1.008000047877431, 0.0, 0.0, 0.0, 0.0, 0.0, 1.7054295980600996E9, 0.0, 2024-01-16 13:26:38.060
38.0, -16.754751801490784, -232.17298924922943, -182.3874410390854, 342.03629034757614, 0.11200000531971455, -0.06400000303983688, 1.008000047877431, 0.0, 0.0, 0.0, 0.0, 0.0, 1.7054295980607543E9, 0.0, 2024-01-16 13:26:38.060
38.0, -58.64163130521774, -237.91747558116913, -182.8661482334137, 315.94674825668335, 0.11200000531971455, -0.06400000303983688, 1.008000047877431, 0.0, 0.0, 0.0, 0.0, 0.0, 1.7054295980607543E9, 0.0, 2024-01-16 13:26:38.060
39.0, 56.966156125068665, -79.22604066133499, -70.36995756626129, 441.6073867678642, 0.11200000531971455, -0.06400000303983688, 1.008000047877431, 0.0, 0.0, 0.0, 0.0, 0.0, 1.7054295980615356E9, 0.0, 2024-01-16 13:26:38.061
39.0, 16.994105398654938, -174.01006513834, -142.41539031267166, 386.79541301727295, 0.11200000531971455, -0.06400000303983688, 1.008000047877431, 0.0, 0.0, 0.0, 0.0, 0.0, 1.7054295980615356E9, 0.0, 2024-01-16 13:26:38.061
40.0, -87.60341656208038, -285.30948781967163, -219.00854140520096, 287.70302379131317, 0.11200000531971455, -0.06400000303983688, 1.008000047877431, 0.0, 0.0, 0.0, 0.0, 0.0, 1.7054295980718844E9, 0.0, 2024-01-16 13:26:38.071
40.0, 13.164447844028473, -125.89999210834503, -101.72527879476547, 400.91727524995804, 0.11200000531971455, -0.06400000303983688, 1.008000047877431, 0.0, 0.0, 0.0, 0.0, 0.0, 1.7054295980718844E9, 0.0, 2024-01-16 13:26:38.071
41.0, 54.33326655626297, -111.53877627849579, -98.13497483730316, 431.07582849264145, 0.11200000531971455, -0.06400000303983688, 1.008000047877431, 0.0, 0.0, 0.0, 0.0, 0.0, 1.705429598086779E9, 0.0, 2024-01-16 13:26:38.086
41.0, -76.35379749536514, -284.59142702817917, -226.6678565144539, 289.37849897146225, 0.11200000531971455, -0.06400000303983688, 1.008000047877431, 0.0, 0.0, 0.0, 0.0, 0.0, 1.705429598086779E9, 0.0, 2024-01-16 13:26:38.086
42.0, -55.05132734775543, -207.51956874132156, -161.56367808580399, 337.72792559862137, 0.09600000455975533, -0.06400000303983688, 1.008000047877431, 0.0, 0.0, 0.0, 0.0, 0.0, 1.7054295981025186E9, 0.0, 2024-01-16 13:26:38.102
42.0, 57.20550972223282, -91.43307411670685, -89.27889174222946, 438.4957900047302, 0.09600000455975533, -0.06400000303983688, 1.008000047877431, 0.0, 0.0, 0.0, 0.0, 0.0, 1.7054295981025186E9, 0.0, 2024-01-16 13:26:38.102
43.0, -32.791442811489105, -243.90131551027298, -203.45055758953094, 323.84541696310043, 0.09600000455975533, -0.06400000303983688, 1.008000047877431, 0.0, 0.0, 0.0, 0.0, 0.0, 1.705429598103052E9, 0.0, 2024-01-16 13:26:38.103
43.0, -82.57699102163315, -260.8954209089279, -202.01443600654602, 296.08039969205856, 0.09600000455975533, -0.06400000303983688, 1.008000047877431, 0.0, 0.0, 0.0, 0.0, 0.0, 1.705429598103052E9, 0.0, 2024-01-16 13:26:38.103
44.0, 47.15265864133835, -88.80018454790115, -76.11444389820099, 436.82031482458115, 0.09600000455975533, -0.06400000303983688, 1.008000047877431, 0.0, 0.0, 0.0, 0.0, 0.0, 1.705429598116874E9, 0.0, 2024-01-16 13:26:38.116
44.0, 18.669580578804016, -173.29200434684753, -144.3302190899849, 384.16252344846725, 0.09600000455975533, -0.06400000303983688, 1.008000047877431, 0.0, 0.0, 0.0, 0.0, 0.0, 1.705429598116874E9, 0.0, 2024-01-16 13:26:38.116
45.0, -91.43307411670685, -293.44751012325287, -227.1465637087822, 275.017283141613, 0.09600000455975533, -0.06400000303983688, 1.008000047877431, 0.0, 0.0, 0.0, 0.0, 0.0, 1.705429598132571E9, 0.0, 2024-01-16 13:26:38.132
45.0, 10.770911872386932, -125.42128491401672, -108.66653311252594, 395.17278891801834, 0.09600000455975533, -0.06400000303983688, 1.008000047877431, 0.0, 0.0, 0.0, 0.0, 0.0, 1.705429598132571E9, 0.0, 2024-01-16 13:26:38.132
46.0, 58.162924110889435, -107.70911872386932, -96.45949965715408, 433.23001086711884, 0.09600000455975533, -0.06400000303983688, 1.008000047877431, 0.0, 0.0, 0.0, 0.0, 0.0, 1.7054295981329186E9, 0.0, 2024-01-16 13:26:38.132
46.0, -73.00284713506699, -280.7617694735527, -222.59884536266327, 294.8836317062378, 0.09600000455975533, -0.06400000303983688, 1.008000047877431, 0.0, 0.0, 0.0, 0.0, 0.0, 1.7054295981329186E9, 0.0, 2024-01-16 13:26:38.132
47.0, -32.3127356171608, -192.2009385228157, -151.98953419923782, 349.21689826250076, 0.09600000455975533, -0.06400000303983688, 1.008000047877431, 0.0, 0.0, 0.0, 0.0, 0.0, 1.705429598147097E9, 0.0, 2024-01-16 13:26:38.147
47.0, 72.76349353790283, -72.76349353790283, -68.45512878894806, 458.60149216651917, 0.09600000455975533, -0.06400000303983688, 1.008000047877431, 0.0, 0.0, 0.0, 0.0, 0.0, 1.705429598147097E9, 0.0, 2024-01-16 13:26:38.147
48.0, -30.63726043701172, -235.04523241519928, -187.41386657953262, 337.9672791957855, 0.09600000455975533, -0.06400000303983688, 1.008000047877431, 0.0, 0.0, 0.0, 0.0, 0.0, 1.705429598162314E9, 0.0, 2024-01-16 13:26:38.162
48.0, -67.01900720596313, -245.57679069042206, -185.9777449965477, 317.3828698396683, 0.09600000455975533, -0.06400000303983688, 1.008000047877431, 0.0, 0.0, 0.0, 0.0, 0.0, 1.705429598162314E9, 0.0, 2024-01-16 13:26:38.162
49.0, 55.769388139247894, -70.60931116342545, -54.572620153427124, 463.38856410980225, 0.09600000455975533, -0.06400000303983688, 1.008000047877431, 0.0, 0.0, 0.0, 0.0, 0.0, 1.7054295981629868E9, 0.0, 2024-01-16 13:26:38.162
49.0, 16.754751801490784, -167.54751801490784, -136.91025757789612, 396.13020330667496, 0.09600000455975533, -0.06400000303983688, 1.008000047877431, 0.0, 0.0, 0.0, 0.0, 0.0, 1.7054295981629868E9, 0.0, 2024-01-16 13:26:38.162
50.0, -91.672427713871, -286.0275486111641, -211.82793349027634, 292.7294493317604, 0.09600000455975533, -0.06400000303983688, 1.008000047877431, 0.0, 0.0, 0.0, 0.0, 0.0, 1.7054295981769137E9, 0.0, 2024-01-16 13:26:38.176
50.0, 3.829657554626465, -128.05417448282242, -103.6401075720787, 405.9437007904053, 0.09600000455975533, -0.06400000303983688, 1.008000047877431, 0.0, 0.0, 0.0, 0.0, 0.0, 1.7054295981769137E9, 0.0, 2024-01-16 13:26:38.176
51.0, 47.87071943283081, -116.32584822177887, -99.33174282312393, 432.9906572699547, 0.09600000455975533, -0.06400000303983688, 1.008000047877431, 0.0, 0.0, 0.0, 0.0, 0.0, 1.7054295981924903E9, 0.0, 2024-01-16 13:26:38.192
51.0, -79.46539425849915, -286.26690220832825, -226.6678565144539, 300.1494108438492, 0.09600000455975533, -0.06400000303983688, 1.008000047877431, 0.0, 0.0, 0.0, 0.0, 0.0, 1.7054295981924903E9, 0.0, 2024-01-16 13:26:38.192
52.0, -55.53003454208374, -206.56215435266495, -155.10113096237183, 347.0627158880234, 0.09600000455975533, -0.06400000303983688, 1.008000047877431, 0.0, 0.0, 0.0, 0.0, 0.0, 1.7054295981930077E9, 0.0, 2024-01-16 13:26:38.193
52.0, 50.26425540447235, -100.0498036146164, -86.16729497909546, 441.6073867678642, 0.09600000455975533, -0.06400000303983688, 1.008000047877431, 0.0, 0.0, 0.0, 0.0, 0.0, 1.7054295981930077E9, 0.0, 2024-01-16 13:26:38.193
53.0, -44.75912266969681, -247.25226587057114, -205.84409356117249, 325.28153854608536, 0.09600000455975533, -0.06400000303983688, 1.008000047877431, 0.0, 0.0, 0.0, 0.0, 0.0, 1.7054295982069693E9, 0.0, 2024-01-16 13:26:38.206
53.0, -87.12470936775208, -268.3153824210167, -211.34922629594803, 294.4049245119095, 0.09600000455975533, -0.06400000303983688, 1.008000047877431, 0.0, 0.0, 0.0, 0.0, 0.0, 1.7054295982069693E9, 0.0, 2024-01-16 13:26:38.206
54.0, 42.36558669805527, -95.74143886566162, -86.40664857625961, 427.96423172950745, 0.09600000455975533, -0.06400000303983688, 1.008000047877431, 0.0, 0.0, 0.0, 0.0, 0.0, 1.7054295982225175E9, 0.0, 2024-01-16 13:26:38.222
54.0, -2.3935359716415405, -194.8338280916214, -165.1539820432663, 361.9026389122009, 0.09600000455975533, -0.06400000303983688, 1.008000047877431, 0.0, 0.0, 0.0, 0.0, 0.0, 1.7054295982225175E9, 0.0, 2024-01-16 13:26:38.222
55.0, -108.66653311252594, -306.3726043701172, -241.7471331357956, 261.6134817004204, 0.09600000455975533, -0.06400000303983688, 1.008000047877431, 0.0, 0.0, 0.0, 0.0, 0.0, 1.705429598222976E9, 0.0, 2024-01-16 13:26:38.222
55.0, -5.505132734775543, -138.5857327580452, -115.60778743028641, 382.4870482683182, 0.09600000455975533, -0.06400000303983688, 1.008000047877431, 0.0, 0.0, 0.0, 0.0, 0.0, 1.705429598222976E9, 0.0, 2024-01-16 13:26:38.222
56.0, 37.09980756044388, -131.64447844028473, -115.84714102745056, 414.32107669115067, 0.09600000455975533, -0.06400000303983688, 1.008000047877431, 0.0, 0.0, 0.0, 0.0, 0.0, 1.7054295982366087E9, 0.0, 2024-01-16 13:26:38.236
56.0, -84.73117339611053, -292.01138854026794, -235.04523241519928, 280.04370868206024, 0.09600000455975533, -0.06400000303983688, 1.008000047877431, 0.0, 0.0, 0.0, 0.0, 0.0, 1.7054295982366087E9, 0.0, 2024-01-16 13:26:38.236
57.0, -53.375852167606354, -212.30664068460464, -166.1113964319229, 334.8556824326515, 0.09600000455975533, -0.06400000303983688, 1.008000047877431, 0.0, 0.0, 0.0, 0.0, 0.0, 1.705429598252238E9, 0.0, 2024-01-16 13:26:38.252
57.0, 61.9925816655159, -87.36406296491623, -83.05569821596146, 438.7351436018944, 0.09600000455975533, -0.06400000303983688, 1.008000047877431, 0.0, 0.0, 0.0, 0.0, 0.0, 1.705429598252238E9, 0.0, 2024-01-16 13:26:38.252
58.0, -38.057221949100494, -248.4490338563919, -198.90283924341202, 327.43572092056274, 0.09600000455975533, -0.06400000303983688, 1.008000047877431, 0.0, 0.0, 0.0, 0.0, 0.0, 1.7054295982529037E9, 0.0, 2024-01-16 13:26:38.252
58.0, -90.95436692237854, -268.794089615345, -207.2802151441574, 293.2081565260887, 0.09600000455975533, -0.06400000303983688, 1.008000047877431, 0.0, 0.0, 0.0, 0.0, 0.0, 1.7054295982529037E9, 0.0, 2024-01-16 13:26:38.252
59.0, 36.381746768951416, -100.76786440610886, -82.57699102163315, 432.9906572699547, 0.09600000455975533, -0.06400000303983688, 1.008000047877431, 0.0, 0.0, 0.0, 0.0, 0.0, 1.7054295982671375E9, 0.0, 2024-01-16 13:26:38.267
59.0, -1.4361215829849243, -190.76481693983078, -155.8191917538643, 378.6573907136917, 0.09600000455975533, -0.06400000303983688, 1.008000047877431, 0.0, 0.0, 0.0, 0.0, 0.0, 1.7054295982671375E9, 0.0, 2024-01-16 13:26:38.267
60.0, -105.55493634939194, -303.02165400981903, -223.31690615415573, 285.78819501399994, 0.09600000455975533, -0.06400000303983688, 1.008000047877431, 0.0, 0.0, 0.0, 0.0, 0.0, 1.7054295982820482E9, 0.0, 2024-01-16 13:26:38.282
60.0, -14.839923024177551, -150.0747054219246, -110.34200829267502, 391.1037777662277, 0.09600000455975533, -0.06400000303983688, 1.008000047877431, 0.0, 0.0, 0.0, 0.0, 0.0, 1.7054295982820482E9, 0.0, 2024-01-16 13:26:38.282
61.0, 32.3127356171608, -131.64447844028473, -117.28326261043549, 422.69845259189606, 0.09600000455975533, -0.06400000303983688, 1.008000047877431, 0.0, 0.0, 0.0, 0.0, 0.0, 1.7054295982975385E9, 0.0, 2024-01-16 13:26:38.297
61.0, -99.09238922595978, -302.5429468154907, -241.98648673295975, 277.41081911325455, 0.09600000455975533, -0.06400000303983688, 1.008000047877431, 0.0, 0.0, 0.0, 0.0, 0.0, 1.7054295982975385E9, 0.0, 2024-01-16 13:26:38.297
62.0, -67.97642159461975, -218.2904806137085, -173.29200434684753, 328.87184250354767, 0.09600000455975533, -0.06400000303983688, 1.008000047877431, 0.0, 0.0, 0.0, 0.0, 0.0, 1.7054295982981951E9, 0.0, 2024-01-16 13:26:38.298
62.0, 48.34942662715912, -100.76786440610886, -83.29505181312561, 443.52221554517746, 0.09600000455975533, -0.06400000303983688, 1.008000047877431, 0.0, 0.0, 0.0, 0.0, 0.0, 1.7054295982981951E9, 0.0, 2024-01-16 13:26:38.298
63.0, -60.31710648536682, -261.3741281032562, -206.8015079498291, 323.84541696310043, 0.09600000455975533, -0.06400000303983688, 1.008000047877431, 0.0, 0.0, 0.0, 0.0, 0.0, 1.7054295983124807E9, 0.0, 2024-01-16 13:26:38.312
63.0, -93.34790289402008, -273.82051515579224, -207.51956874132156, 297.75587487220764, 0.09600000455975533, -0.06400000303983688, 1.008000047877431, 0.0, 0.0, 0.0, 0.0, 0.0, 1.7054295983124807E9, 0.0, 2024-01-16 13:26:38.312
64.0, 31.594674825668335, -102.20398598909378, -82.337637424469, 432.9906572699547, 0.09600000455975533, -0.06400000303983688, 1.008000047877431, 0.0, 0.0, 0.0, 0.0, 0.0, 1.7054295983130796E9, 0.0, 2024-01-16 13:26:38.313
64.0, -4.308364748954773, -196.26994967460632, -158.45208132266998, 372.67355078458786, 0.09600000455975533, -0.06400000303983688, 1.008000047877431, 0.0, 0.0, 0.0, 0.0, 0.0, 1.7054295983130796E9, 0.0, 2024-01-16 13:26:38.313
65.0, -105.79428994655609, -309.0054939389229, -231.21557486057281, 272.3843935728073, 0.09600000455975533, -0.06400000303983688, 1.008000047877431, 0.0, 0.0, 0.0, 0.0, 0.0, 1.7054295983268642E9, 0.0, 2024-01-16 13:26:38.326
65.0, -9.813497483730316, -154.1437165737152, -118.95873779058456, 387.27412021160126, 0.09600000455975533, -0.06400000303983688, 1.008000047877431, 0.0, 0.0, 0.0, 0.0, 0.0, 1.7054295983268642E9, 0.0, 2024-01-16 13:26:38.326
66.0, 25.850188493728638, -143.13345110416412, -119.67679858207703, 413.36366230249405, 0.09600000455975533, -0.06400000303983688, 1.008000047877431, 0.0, 0.0, 0.0, 0.0, 0.0, 1.705429598342935E9, 0.0, 2024-01-16 13:26:38.342
